 	TP9	AF7	AF8	TP10	
-1000.00000	5.44272	22.15711	22.26749	16.08504
-996.09375	9.06802	16.92024	17.83601	18.50103
-992.18750	23.16970	2.81882	18.23975	33.40808
-988.28125	27.60122	-2.41808	16.22597	26.95991
-984.37500	27.19756	10.07388	-3.91960	26.15293
-980.46875	17.92947	20.95398	-30.10917	25.34599
-976.56250	6.64679	16.52295	-16.81152	3.18373
-972.65625	6.24337	8.06253	-10.76666	-6.08464
-968.75000	10.67516	2.42264	-3.91607	2.77888
-964.84375	9.46584	-16.11065	-1.49769	9.22480
-960.93750	11.88285	-21.75011	-11.16710	13.65598
-957.03125	16.71741	-4.02011	7.77158	10.02849
-953.12500	20.74619	22.97704	21.06908	4.38638
-949.21875	13.49285	34.26030	10.19075	12.04084
-945.31250	1.80722	29.82925	4.55049	22.51589
-941.40625	9.86518	25.39798	3.74545	17.27669
-937.50000	21.14652	22.17564	9.38722	14.05208
-933.59375	22.75760	16.53590	8.17924	12.43912
-929.68750	31.62136	13.31362	-1.89312	13.64672
-925.78125	40.88796	-8.84645	2.94295	29.76274
-921.87500	20.74063	-16.90386	-14.38225	17.27062
-917.96875	9.86062	10.09381	-22.03698	-6.10064
-914.06250	5.02460	-1.18686	8.58666	-6.90778
-910.15625	1.80027	4.85836	14.22856	10.41694
-906.25000	7.44043	35.07935	20.27333	11.22154
-902.34375	3.81322	25.00716	15.43900	0.34116
-898.43750	6.22995	13.32336	8.59003	9.20426
-894.53125	13.48182	28.23293	17.05229	10.41168
-890.62500	5.01935	25.81641	15.84414	0.73992
-886.71875	13.48009	-6.01407	28.33570	5.97663
-882.81250	35.64039	0.83712	18.26328	24.10711
-878.90625	29.19257	14.13506	4.16149	25.71734
-875.00000	6.62755	-1.57815	6.17685	15.23970
-871.09375	4.20894	-0.36807	12.22169	9.59719
-867.18750	8.64019	8.49784	21.89296	6.37223
-863.28125	12.26569	16.55784	20.28216	14.42941
-859.37500	9.04126	18.97656	2.55399	9.99575
-855.46875	5.01092	14.14259	-13.56247	4.35329
-851.56250	23.54473	11.72608	-3.08546	10.79866
-847.65625	29.58782	16.15938	27.94090	16.03531
-843.75000	11.85800	16.96616	14.64485	23.28663
-839.84375	6.21607	15.35541	-17.18583	23.28517
-835.93750	5.40927	-3.17813	1.75293	13.21041
-832.03125	10.24358	-14.86175	20.69140	10.38854
-828.12500	9.03384	-3.98126	4.97780	5.55210
-824.21875	10.64457	20.59894	4.57558	14.41514
-820.31250	16.68752	31.47934	34.39323	22.47224
-816.40625	30.78923	11.33410	38.02053	22.87378
-812.50000	18.29750	5.69423	25.12757	18.44014
-808.59375	2.17935	21.00676	18.68146	8.36550
-804.68750	23.53388	30.67833	9.81775	11.99047
-800.78125	34.81512	33.90305	-7.50733	24.07706
-796.87500	32.39670	27.86016	-15.16202	22.06105
-792.96875	25.94915	17.38471	0.55311	22.05974
-789.06250	21.51613	-13.23687	-8.71371	18.83499
-785.15625	22.32108	-19.27926	-11.13069	10.37204
-781.25000	10.63516	19.00059	27.95443	5.93828
-777.34375	1.76977	35.11918	54.14579	11.98064
-773.43750	11.03619	43.17905	33.19410	12.78493
-769.53125	6.60295	22.63087	6.60147	1.09829
-765.62500	-6.29186	-3.15538	9.42270	-2.52981
-761.71875	-5.08408	9.33668	15.46743	1.09500
-757.81250	-3.47309	23.03742	11.43880	6.33174
-753.90625	2.16719	18.60624	-3.06614	13.18029
-750.00000	1.36055	8.13091	3.38157	5.92625
-746.09375	14.25355	-16.84971	1.36789	-0.92490
-742.18750	21.50545	-23.69829	-12.73380	12.37039
-738.28125	8.61084	20.62542	0.16079	7.53389
-734.37500	17.07165	48.42887	7.01159	4.30914
-730.46875	23.11466	35.13343	19.90611	9.94868
-726.56250	4.17597	8.54142	27.96546	2.69451
-722.65625	-7.50994	1.69305	16.68431	-1.33623
-718.75000	4.97995	14.99101	7.82081	7.92974
-714.84375	-1.46775	19.82735	-0.23698	8.33136
-710.93750	-16.78002	21.44030	-1.04219	-7.38443
-707.03125	-5.09633	3.71248	-14.74109	-6.98326
-703.12500	0.94626	-13.61246	-4.66717	1.07337
-699.21875	-11.14320	7.34121	25.55332	-0.94339
-695.31250	-14.77133	15.80398	23.13638	-1.34874
-691.40625	-7.11775	19.43151	-0.23295	-6.18646
-687.50000	6.17682	27.08833	3.39405	-11.42731
-683.59375	7.78605	9.76348	19.51195	-4.98349
-679.68750	2.94830	1.30314	14.27446	-3.37511
-675.78125	0.12517	8.96006	-0.23047	-2.57259
-671.87500	-2.29500	17.01989	-2.64741	4.27391
-667.96875	15.02822	15.40941	-2.64669	18.37302
-664.06250	32.75427	14.20190	-1.43724	30.86033
-660.15625	31.13959	19.84395	18.30695	28.84204
-656.25000	3.33440	16.62151	16.29292	11.91523
-652.34375	-17.62112	17.42862	2.59398	-12.26428
-648.43750	-23.66818	15.81806	15.48834	-27.57941
-644.53125	-28.90932	-5.93911	23.54748	-38.86522
-640.62500	-41.00020	-12.78769	15.48939	-52.97151
-636.71875	-51.07640	-1.50436	-11.10339	-58.21336
-632.81250	-57.92917	13.80838	-47.36644	-57.00829
-628.90625	-51.48510	37.17981	-26.81619	-53.38559
-625.00000	-44.63807	37.58399	27.58026	-48.55399
-621.09375	-43.43209	19.85618	4.21100	-47.34884
-617.18750	-26.10890	-8.75063	-53.00449	-37.68221
-613.28125	-21.27657	-17.61374	-26.00751	-28.82132
-609.37500	-28.93502	-0.28644	9.45122	-32.85419
-605.46875	-35.78756	28.32283	7.43747	-34.87243
-601.56250	-35.79040	35.17376	-2.63497	-34.87598
-597.65625	-13.22908	13.81954	0.18647	-36.08817
-593.75000	-3.96433	1.32988	15.49878	-25.21240
-589.84375	-12.83142	21.07460	18.72305	-9.50137
-585.93750	-11.62530	27.52253	-3.84037	-9.90756
-582.03125	-5.58403	13.82402	-23.58330	-13.13419
-578.12500	-9.21301	-0.68020	-10.28576	-11.52552
-574.21875	-8.81262	-32.91351	3.41487	-6.69351
-570.31250	-2.36829	-19.21279	-3.03106	-3.47319
-566.40625	-12.84704	29.54285	7.44596	-6.69968
-562.50000	-23.72864	37.19974	34.84605	-13.95541
-558.59375	-31.38667	27.12766	30.41457	-27.25497
-554.68750	-29.77724	24.30812	4.62781	-30.48117
-550.78125	-17.69152	25.11502	-5.84757	-17.59010
-546.87500	-10.44097	14.23690	11.07635	-9.53432
-542.96875	-4.80201	-3.49104	-1.81657	-11.14874
-539.06250	-3.59532	-28.87462	-15.91818	-13.56899
-535.15625	-5.20904	-41.76725	13.49660	-11.95981
-531.25000	-11.65781	9.80889	21.95903	-6.72428
-527.34375	-16.49503	40.83557	8.66337	-8.33861
-523.43750	-7.63238	29.55458	-7.85574	-8.74405
-519.53125	-0.78437	18.27366	6.65064	-4.31425
-515.62500	7.27240	5.78394	25.18631	-0.28742
-511.71875	10.09111	0.14404	30.42538	4.14234
-507.81250	8.47762	6.59196	22.77066	2.52820
-503.90625	16.13169	11.83111	10.28076	8.97286
-500.00000	15.72713	2.96769	10.68447	13.40292
-496.09375	14.11386	-4.28414	-4.62607	16.22123
-492.18750	22.17089	7.40187	-8.65460	8.96634
-488.28125	18.14015	15.86461	-5.43034	3.72619
-484.37500	4.03609	-12.74228	-4.62363	4.53002
-480.46875	1.21411	-21.60571	34.05866	-1.51598
-476.56250	-6.03994	13.85340	55.01200	-1.92086
-472.65625	-12.89097	26.74841	29.62829	-9.57843
-468.75000	2.41904	21.51145	7.06499	1.29881
-464.84375	8.46175	25.13871	-1.79862	17.81715
-460.93750	10.07223	23.93088	-0.18600	7.74199
-457.03125	6.44445	5.80008	7.06764	6.12831
-453.12500	11.68132	-2.66040	10.29206	12.97629
-449.21875	26.58856	-3.86816	28.82762	21.43610
-445.31250	15.70819	-11.92563	32.85756	21.43435
-441.40625	-0.00730	-7.49226	5.05620	9.74763
-437.50000	2.00602	9.02898	4.65422	10.95468
-433.59375	14.49546	15.47700	21.17534	18.20555
-429.68750	17.71767	11.04591	28.02613	17.80090
-425.78125	26.17805	10.24124	20.77436	21.02264
-421.87500	42.69708	-2.65150	11.10479	34.72065
-417.96875	44.30801	-16.35019	-2.59421	38.34567
-414.06250	39.47206	10.64711	-29.18678	29.47987
-410.15625	37.45651	32.40618	-28.38017	35.11956
-406.25000	30.20279	24.34850	4.66081	37.53577
-402.34375	23.75500	14.67941	26.01690	32.69915
-398.43750	17.30716	-3.04819	32.46469	23.02742
-394.53125	23.35005	-18.76114	31.25677	31.89043
-390.62500	21.33441	-16.34243	11.51402	33.90367
-386.71875	-0.42484	1.38755	-0.57302	14.56161
-382.81250	-0.82865	15.89410	6.27758	11.33683
-378.90625	4.81157	18.71572	-12.65942	12.54425
-375.00000	8.83983	9.04641	-15.07625	10.52806
-371.09375	7.22699	0.58595	5.07110	8.51187
-367.18750	12.06120	9.45160	7.48929	12.53968
-363.28125	15.28371	14.28787	2.25191	16.16456
-359.37500	4.80655	1.39524	15.54936	9.31326
-355.46875	10.84947	-16.33235	30.05561	13.74383
-351.56250	23.33929	-8.27245	24.41528	26.23308
-347.65625	25.75593	4.21955	19.58084	22.20229
-343.75000	14.06991	11.47359	11.12017	8.90409
-339.84375	2.38380	21.95106	-9.42837	-1.97652
-335.93750	4.39737	16.71416	-12.65108	4.46877
-332.03125	14.46954	-5.04288	-7.41238	16.55517
-328.12500	15.67732	-4.63871	-5.39708	12.92729
-324.21875	8.42358	17.52384	5.88567	10.50829
-320.31250	20.51047	7.04901	14.34785	17.35649
-316.40625	12.85369	-16.72245	16.76606	13.32560
-312.50000	-5.27912	3.82845	5.08183	7.68308
-308.59375	-3.26530	19.54424	2.26183	-4.40630
-304.68750	3.18064	16.72519	16.36491	-9.64590
-300.78125	11.64119	19.14408	11.12733	6.87276
-296.87500	5.99925	0.20778	-15.06247	-1.99321
-292.96875	1.96897	-19.13143	-5.39127	-10.85916
-289.06250	-0.85244	-5.43028	13.54729	-0.38444
-285.15625	-6.49438	1.42093	-1.76329	-2.80356
-281.25000	6.39841	13.10735	-3.77738	0.82131
-277.34375	8.81513	24.39093	8.71402	4.04319
-273.43750	2.77031	9.08121	-4.17912	0.81809
-269.53125	3.97811	-13.48127	-23.92210	0.01060
-265.62500	-0.45515	-19.52367	-18.68349	-5.63212
-261.71875	0.34974	5.05655	11.53687	-8.45421
-257.81250	-0.45686	15.13132	24.83411	-7.24683
-253.90625	-4.08405	7.47709	14.35844	-3.21906
-250.00000	11.22650	8.68720	-2.96699	11.28483
-246.09375	14.04625	4.25654	4.28645	17.73008
-242.18750	6.79271	-9.44151	11.54004	8.05809
-238.28125	7.19491	-9.44004	-4.17353	3.22133
-234.37500	8.40298	1.84349	-6.18776	4.42850
-230.46875	-8.11792	5.87445	10.73577	-4.03455
-226.56250	-23.42998	1.84668	27.65929	-10.88598
-222.65625	-9.32825	1.04221	23.63049	-9.67873
-218.75000	5.17640	2.65555	8.72256	4.01928
-214.84375	5.57851	-9.43057	-3.76773	18.12012
-210.93750	10.00988	-9.83196	-15.85509	10.46281
-207.03125	3.56213	-3.38367	-16.66043	5.62595
-203.12500	-6.10906	-1.77064	7.91873	6.43012
-199.21875	-3.28936	0.64829	25.24505	-3.24184
-195.31250	-0.46959	-9.42360	10.73997	-8.07873
-191.40625	-1.27637	-11.03390	-0.54156	-6.06576
-187.50000	-3.29209	-2.16791	8.32335	-1.63537
-183.59375	1.54210	0.65415	13.15896	3.60083
-179.68750	7.18207	3.47636	9.53291	5.61355
-175.78125	5.16642	9.11905	-17.86603	-1.64110
-171.87500	5.56848	9.12040	-38.01222	8.02742
-167.96875	7.98519	-5.78674	-13.03018	14.06956
-164.06250	7.58135	-1.75580	21.21944	5.20330
-160.15625	2.74541	5.49858	32.90511	-2.05132
-156.25000	-5.71684	2.27647	28.07031	-10.91758
-152.34375	-11.76150	7.11278	20.41475	-11.72508
-148.43750	2.74331	10.33772	-1.74634	1.16714
-144.53125	10.39841	8.72762	-9.80456	12.85065
-140.62500	7.17451	1.87944	-4.96903	4.38773
-136.71875	1.93611	0.26913	-4.16276	-6.08971
-132.81250	-10.55486	-1.74436	-18.26492	-8.10555
-128.90625	-4.51090	-17.86015	-29.54663	1.56382
-125.00000	5.96530	-27.93188	3.09117	8.41280
-121.09375	6.77123	1.88645	34.11735	2.36806
-117.18750	0.72753	22.03443	24.44738	-3.27351
-113.28125	-9.74822	12.76847	3.09230	-7.70610
-109.37500	-2.89793	8.74049	-3.75734	-2.46818
-105.46875	13.21983	2.69740	-2.14532	2.36683
-101.56250	29.33768	18.81547	20.01614	12.44008
-97.65625	34.17356	32.11328	31.70163	26.54270
-93.75000	30.95085	26.87639	20.42006	23.31942
-89.84375	30.54878	29.69804	4.70611	20.90211
-85.93750	32.96730	40.17521	-11.41088	32.18463
-82.03125	37.40053	34.93809	8.33304	41.04963
-78.12500	30.55186	5.52521	32.50933	30.17117
-74.21875	8.79476	3.10871	23.24246	14.45753
-70.31250	10.40745	26.07680	17.19912	7.20546
-66.40625	20.88453	28.89833	20.82621	7.20600
-62.50000	16.85614	11.57329	26.06516	19.69742
-58.59375	12.42488	8.35058	17.60435	22.11563
-54.68750	13.63473	23.66257	16.39614	12.44600
-50.78125	13.63565	33.33382	18.81433	12.84948
-46.87500	11.62187	24.87336	0.28019	10.02952
-42.96875	17.66681	20.84512	4.31024	10.43300
-39.06250	13.63845	16.01096	3.10230	8.41874
-35.15625	12.02759	14.40032	3.90892	7.61315
-31.25000	13.64006	12.78958	27.27969	15.67210
-27.34375	12.02913	0.70241	32.51863	10.43430
-23.43750	19.68557	-11.78780	30.50484	15.26976
-19.53125	14.85111	-8.56326	28.08795	20.91102
-15.62500	0.74907	18.03162	3.91274	10.43496
-11.71875	3.16693	36.56795	-16.23317	10.43483
-7.81250	18.07568	36.97209	-5.75608	14.86684
-3.90625	28.95509	20.85600	6.33279	13.65782
0.00000	12.83800	0.71065	-2.12790	8.82222
3.90625	3.16768	7.56185	13.58704	14.46278
7.81250	14.44989	20.05399	26.48159	17.68586
11.71875	5.18265	9.57908	6.33573	15.67075
15.62500	-6.50214	-2.10476	-2.12504	7.20872
19.53125	-9.32245	8.37272	1.90504	-0.85034
23.43750	-8.91934	5.15058	0.29413	-6.08889
27.34375	-6.90461	-8.54784	8.75655	-8.50716
31.25000	-9.72498	-6.12906	-2.92764	-3.67271
35.15625	0.34848	1.12481	-25.89382	5.19119
39.06250	1.15449	10.79620	-15.81972	4.78762
42.96875	3.57204	12.00621	8.75966	2.36930
46.87500	18.48035	14.42520	15.61019	7.60665
50.78125	20.09204	18.45600	12.38765	10.02350
54.68750	8.80987	3.14607	13.99999	10.42568
58.59375	5.18326	-2.49360	5.53899	13.24530
62.50000	22.91199	12.81909	1.51028	21.70599
66.40625	22.50899	12.01448	-2.92133	19.69061
70.31250	13.64431	-4.90725	-7.35298	3.97544
74.21875	15.65868	-10.94998	-0.90563	1.55677
78.12500	15.25549	-7.72534	1.10983	12.43486
82.03125	7.19648	-6.51526	-0.90396	17.67187
85.93750	3.16686	1.14178	3.12609	13.64135
89.84375	-1.26561	7.58994	15.21460	1.95532
93.75000	-2.47475	2.75595	25.28846	-0.46332
97.65625	2.35994	5.17485	23.27436	8.80294
101.56250	20.89432	9.20557	15.61919	26.53074
105.46875	28.14671	-12.14822	-20.24083	24.51499
109.37500	9.20866	-25.44346	-45.22150	-2.48242
113.28125	-4.89414	-5.69846	-17.01553	-12.15384
117.18750	-14.96772	8.40542	18.44278	-18.19889
121.09375	-8.11830	4.78028	34.56039	-13.36486
125.00000	2.35758	9.61671	26.50240	-4.50147
128.90625	0.74560	13.64714	20.05614	-0.47331
132.81250	3.16277	10.82773	-0.49269	-1.68331
136.71875	9.60923	11.23202	-17.01227	-7.32552
140.62500	7.59415	11.63647	-1.29738	5.56699
144.53125	-2.07670	5.19113	-5.32600	14.83310
148.43750	-10.13592	-0.44844	-7.33989	2.74384
152.34375	-10.53950	-0.84991	10.38981	-4.10736
156.25000	-0.46671	4.38950	25.29888	0.72644
160.15625	10.41186	6.00235	19.25551	9.99258
164.06250	0.33816	-13.33697	-5.72571	1.52982
167.96875	-1.67692	-8.50045	-14.99264	-0.48606
171.87500	7.18702	-1.24649	-6.93353	4.75077
175.78125	7.58950	-25.42107	-6.12694	2.33191
179.68750	-3.69308	-12.52588	3.54440	2.33065
183.59375	-4.09663	21.32165	28.52686	8.77629
187.50000	3.15563	22.53180	23.69218	10.78974
191.40625	4.76695	1.98371	-1.69196	-0.09056
195.31250	10.81040	-0.43243	-25.06128	-3.31529
199.21875	10.80985	4.80717	-18.61376	3.93616
203.12500	-2.48733	0.37636	4.35407	1.92023
207.03125	-5.30842	0.37767	9.59284	-10.97478
210.93750	8.39076	14.07849	9.99629	-7.34949
214.84375	10.80789	16.90005	-10.14961	1.91672
218.75000	-12.15974	-1.63364	-15.38701	0.70670
222.65625	-22.63657	-19.76386	1.53666	-0.10046
226.56250	-8.93764	-29.02958	7.17830	-1.71363
230.46875	-4.10321	-10.49331	13.62572	-7.35597
234.37500	-4.10384	-0.01580	18.05858	-8.16317
238.28125	-4.50729	4.41785	-4.50498	-9.77611
242.18750	-5.71672	18.11894	-26.26279	-11.38897
246.09375	-9.34377	16.50867	-27.87388	-6.95791
250.00000	-11.35903	3.61617	-6.92075	-6.15327
253.90625	4.35466	0.79698	18.86743	1.09819
257.81250	13.21856	3.21592	24.91211	10.76715
261.71875	5.96530	-5.64731	24.51000	5.52775
265.62500	-2.49673	-14.51053	11.61704	-3.33793
269.53125	-0.48273	-5.24181	-6.11115	2.30177
273.43750	7.57516	1.20639	-20.21296	6.73275
277.34375	3.94817	-4.03039	-16.18295	7.94039
281.25000	4.75357	-5.64080	-3.69151	6.32752
285.15625	3.94701	-11.68346	0.33834	1.08828
289.06250	-1.29168	-4.02633	-5.30208	-5.35991
292.96875	-9.35094	6.85429	2.35410	-13.41986
296.87500	-5.72523	-4.82932	9.60741	-11.00354
300.78125	-7.33765	-10.46912	6.38461	-12.21357
304.68750	-12.17346	0.00838	15.65269	-14.22943
308.59375	-6.53302	9.27710	19.27985	-6.97790
312.50000	-5.32488	7.66675	9.20738	1.88538
316.40625	-2.50499	-6.83742	-2.87992	0.27238
320.31250	1.52358	-14.89483	-4.89396	4.30036
324.21875	-0.89468	-18.51987	-16.98119	7.11964
328.12500	-9.35681	2.83679	-34.70955	1.88034
332.03125	3.53644	16.53788	-38.73831	6.31126
335.93750	18.04141	7.67493	-12.54727	8.32471
339.84375	11.59394	8.88505	15.65833	1.87657
343.75000	-3.31513	5.25996	17.27070	-6.58628
347.65625	-9.35973	0.02318	9.21295	-3.36411
351.56250	0.30999	5.66559	15.25783	6.70791
355.46875	-4.52572	6.07002	19.69069	-2.15775
359.37500	-10.57029	5.66844	12.03545	-2.56192
363.28125	6.35227	1.23747	7.20090	0.66037
367.18750	8.76937	-2.79057	-1.66290	-5.78773
371.09375	7.56005	15.34261	5.99342	9.92534
375.00000	6.35061	14.53817	0.35296	5.49190
378.90625	-3.72333	-7.21853	-25.03089	-10.62650
382.81250	-4.12690	0.43875	-13.34526	-6.19544
386.71875	0.30473	14.54274	9.62231	-3.77911
390.62500	6.34813	11.72354	14.45800	2.66661
394.53125	11.58568	0.44266	9.22047	4.68009
398.43750	8.76450	-6.00305	4.78893	0.24656
402.34375	4.33149	-14.06037	-13.34213	-0.15760
406.25000	2.71915	-10.43257	-14.55011	-1.36759
410.15625	7.95664	-0.76076	15.26736	-1.36878
414.06250	7.55305	1.65834	23.72960	1.85346
417.96875	-10.57941	-2.36941	17.28352	-3.78877
421.87500	-15.01216	-3.17377	13.65783	-8.22221
425.78125	-4.93952	15.76549	5.19695	-1.37356
429.68750	-1.31370	14.55821	-17.76942	-1.77769
433.59375	-5.34371	-5.98986	-26.63322	0.23574
437.50000	-4.94139	-6.79439	0.76671	-4.60066
441.40625	-5.74781	0.86260	26.15191	-15.07810
445.31250	-16.62751	2.07277	25.74957	-11.45291
449.21875	-19.85149	-3.96961	2.78305	-7.42477
453.12500	-17.03154	-7.19151	-11.31908	-0.57616
457.03125	-10.98821	-1.95197	0.76945	-0.57736
460.93750	-7.36238	-0.33868	9.23187	-4.60769
464.84375	-2.93066	-4.76952	1.97992	-0.57949
468.75000	-6.55759	-1.14206	-9.70438	3.85154
472.65625	-6.96115	6.11219	-2.85391	0.22398
476.56250	3.51451	8.12853	-1.24162	-9.04464
480.46875	2.70815	8.93594	6.81755	0.22152
484.37500	7.54276	3.69936	7.62420	6.66724
488.28125	-1.32220	1.28329	-5.67164	-7.43647
492.18750	-13.00775	6.11980	0.37315	-6.63184
496.09375	4.31764	0.07727	6.01510	11.49877
500.00000	9.95815	-12.41217	-0.02823	13.10934
503.90625	9.55471	-5.96390	7.22493	5.85544
507.81250	14.79233	4.51368	12.86644	7.06309
511.71875	22.04456	-3.54355	7.62898	13.91173
515.62500	41.78762	-1.12441	0.77989	32.04253
519.53125	49.03985	12.57674	-4.05452	44.93513
523.43750	57.50089	15.39865	-5.26245	48.56038
527.34375	70.39413	12.17660	-12.51438	57.42374
531.25000	72.81116	10.96914	-0.02290	71.92812
535.15625	73.21353	9.76179	14.88610	77.56797
539.06250	72.81002	15.00138	-4.05102	73.94042
542.96875	77.64468	17.42044	-23.79401	70.71589
546.87500	74.01791	12.58681	-16.94363	70.31194
550.78125	59.51194	8.96182	-6.06412	61.44625
554.68750	57.49680	9.76904	-7.27239	59.83332
558.59375	66.76375	10.57621	-13.31585	60.23502
562.50000	57.09301	3.72789	-6.46528	49.35479
566.40625	60.31601	0.90900	-0.82343	46.93607
570.31250	49.43646	4.93983	-3.64311	45.72615
574.21875	37.34808	12.99982	-2.83655	49.75435
578.12500	34.12424	16.22451	-11.29750	43.30631
582.03125	32.51217	6.95852	-4.44705	33.23195
585.93750	48.62884	14.21283	13.68553	41.69229
589.84375	43.79323	15.82621	4.41885	40.07938
593.75000	26.86976	-5.12454	-7.26553	24.76696
597.65625	25.66050	-4.72012	-7.66789	22.34821
601.56250	26.46580	4.54863	-3.63794	25.57052
605.46875	15.18334	-3.50859	4.42136	18.71958
609.37500	13.97410	-6.73051	-2.02480	14.28626
613.28125	17.59993	-8.34085	-18.54447	14.28511
617.18750	20.01710	-8.74235	-14.51466	10.25469
621.09375	14.77861	4.15295	0.79713	10.25358
625.00000	3.49612	13.01881	1.60352	11.86417
628.90625	4.30161	13.42298	-6.85737	12.66893
632.81250	10.74824	0.93338	-4.03607	13.47385
636.71875	16.38891	-5.10914	12.08179	19.11399
640.62500	7.92698	5.77148	11.67943	19.11293
644.53125	5.10601	4.16133	-0.81079	12.26204
648.43750	7.12024	2.14818	-2.82478	14.67847
652.34375	5.91104	0.13506	6.04033	6.21577
656.25000	7.11940	-4.29571	4.02629	6.21469
660.15625	17.19235	-5.10005	-8.06113	12.66063
664.06250	22.83299	-5.90434	-1.61379	15.88308
667.96875	5.90971	-7.51468	1.61036	4.19704
671.87500	9.93870	5.38042	6.84931	5.40476
675.78125	17.99689	13.84343	-12.49053	20.31212
679.68750	0.26755	-6.70440	-27.80123	7.01440
683.59375	-2.95626	-13.14976	13.29829	0.56649
687.50000	1.07270	-0.65747	21.76028	0.96843
691.40625	-1.74815	0.95573	1.21125	-3.46492
695.31250	-11.01589	-5.89247	-4.02612	-7.89828
699.21875	-3.76348	-4.27927	2.82449	-6.28762
703.12500	1.07125	-8.71019	12.49561	-1.85656
707.03125	-3.76431	-10.32058	1.21411	-3.46936
710.93750	7.92045	4.58932	-9.26151	5.39411
714.84375	12.35240	12.64939	-7.24634	4.18440
718.75000	-7.39148	-0.64581	-4.02235	-7.50150
722.65625	-14.24157	-8.29991	8.87201	-7.90539
726.56250	-5.78034	-9.10410	12.90197	-5.48873
730.46875	0.66624	-10.71427	-0.79696	-4.68389
734.37500	4.29223	-2.65413	-2.40787	-2.67025
738.28125	-0.14032	4.59999	-15.30098	-10.72985
742.18750	-4.97578	2.98960	-26.98525	-11.53674
746.09375	-7.39376	2.18526	-10.86738	-5.09098
750.00000	6.30552	5.41014	12.90617	-1.06276
753.90625	14.36389	2.18804	23.78592	3.77154
757.81250	-9.81211	-4.66021	-6.83631	-1.87040
761.71875	-11.02117	-3.04686	-18.11785	-13.15340
765.62500	-6.58918	-7.47747	4.04395	-9.12508
769.53125	-2.96327	-9.49059	6.05927	-1.87338
773.43750	1.46846	-0.62463	-8.84852	-9.93309
777.34375	-4.97888	2.19738	-15.69760	-8.72537
781.25000	-0.95000	1.39299	-1.99727	-5.50304
785.15625	-3.77089	2.60315	-4.81717	-5.90716
789.06250	-0.14478	-0.61888	-14.48665	-1.47594
792.96875	16.37520	-2.22907	0.42246	4.16409
796.87500	5.89885	-2.22755	12.51090	-2.68668
800.78125	-4.98057	3.81792	10.89968	-10.74625
804.68750	-0.14577	2.61071	0.42418	-5.91213
808.59375	3.07747	-5.44648	-8.43950	4.96601
812.50000	-3.36966	-1.01262	-8.03603	0.12972
816.40625	-8.60796	1.00371	-11.25903	-10.75040
820.31250	-13.84623	-3.82984	-9.64699	-8.33373
824.21875	-14.24943	-5.03707	-10.45257	-4.30527
828.12500	-11.02637	-0.20036	-10.45197	-5.91808
832.03125	-6.59453	6.24807	2.84562	-7.12800
835.93750	13.55165	19.54635	0.83184	4.15304
839.84375	5.49273	15.92154	-11.65823	2.13745
843.75000	-14.65415	0.61170	-13.67207	-15.99535
847.65625	-12.63976	7.46296	1.23712	-14.78750
851.56250	-17.87811	-3.81768	2.44656	-12.37092
855.46875	-19.89318	-16.30721	1.23826	-17.20711
859.37500	-11.83497	-8.24720	18.16180	-15.99934
863.28125	-12.64119	-6.23102	16.55049	-12.77680
867.18750	-4.17995	-7.84116	6.07490	-2.70447
871.09375	-7.80662	-9.45131	-3.59459	-5.52596
875.00000	-20.70072	-16.70250	-6.01140	-13.18265
878.90625	-8.21015	-15.89507	0.03334	-9.15426
882.81250	1.05692	-2.19386	-1.98065	-11.97569
886.71875	-5.39030	9.89563	-8.02417	-5.93273
890.62500	-8.21110	14.32937	-11.64991	-4.32192
894.53125	-3.77909	7.48112	-12.05219	-9.15803
898.43750	1.45882	1.43869	-18.49853	-1.10037
902.34375	2.26430	7.88704	-14.87160	8.97197
906.25000	-8.61513	4.26206	2.85790	-0.29639
910.15625	-6.60070	4.26351	16.15521	-6.74432
914.06250	-2.97468	4.26506	16.55882	-12.38640
917.96875	-8.61598	-2.98618	1.24808	-16.01372
921.87500	-7.81037	-3.38771	-11.24221	-7.95608
925.78125	-4.99011	-4.19216	2.05492	-9.16584
929.68750	5.88871	-10.23464	7.29345	-5.94330
933.59375	6.29110	-13.05370	-6.80857	-3.52670
937.50000	-9.02088	-4.59068	-11.24031	-5.94548
941.40625	-8.21557	4.67819	-4.38996	3.32092
945.31250	-0.96335	4.27651	10.11610	10.57268
949.21875	-7.81384	6.29238	10.92247	0.49827
953.12500	-13.85849	7.09942	-1.56791	-3.53222
957.03125	-4.18884	6.29489	-12.04367	3.71939
960.93750	-8.62158	0.25241	-16.07247	-1.51976
964.84375	-25.14236	-6.99891	-7.20747	-13.20581
968.75000	-13.45795	-2.96826	3.26926	-3.13359
972.65625	1.04705	-9.01074	2.86690	4.52108
976.56250	-7.01206	-18.67949	-2.37060	-3.53852
980.46875	-6.20667	-11.82808	-6.39932	-3.53953
984.37500	-5.40121	-8.60327	-14.45715	-3.94355
988.28125	-14.26602	-11.01953	-16.87388	-10.39145
992.18750	-6.20754	-7.39210	-7.20293	-10.79520
996.09375	-1.77538	2.27936	4.88534	-5.15511
1000.00000	-7.41667	9.93660	-0.35232	-12.81174
1003.90625	-15.87840	3.49148	-10.82795	-19.25960
1007.81250	-17.08725	-9.40051	-8.00665	-13.61952
1011.71875	-13.86385	-13.02514	-19.28792	-4.35299
1015.62500	-12.65527	-9.80003	-19.69010	-4.75686
1019.53125	-12.65540	-7.78378	-2.36341	-12.81631
1023.43750	-15.07300	-8.18527	-1.15407	-15.23483
1027.34375	-10.64094	-12.61616	-8.80916	-13.22104
1031.25000	-1.37355	-13.42066	-10.82311	-9.59540
1035.15625	3.46157	-8.18117	-5.18148	-8.38738
1039.06250	8.29662	-6.16523	2.07174	-6.77641
1042.96875	-5.00015	-16.64013	-10.82139	-9.19486
1046.87500	-19.10276	-16.23570	-21.69968	-10.00156
1050.78125	-20.31164	-4.95221	-14.04336	-10.40537
1054.68750	-14.26773	3.91382	-17.26627	-14.43550
1058.59375	-15.47661	-0.11368	-27.74201	-14.83929
1062.50000	-12.25325	0.29106	-25.72684	-2.34933
1066.40625	-4.19468	3.91904	-14.44410	2.88791
1070.31250	-11.44745	-13.80841	-9.20531	-7.58917
1074.21875	-15.87984	-19.85096	-6.78707	-15.64865
1078.12500	-9.43313	-9.37334	4.09279	-8.79959
1082.03125	-11.44789	-5.34248	15.37552	-2.35349
1085.93750	-15.07426	-6.14681	10.54095	-9.60695
1089.84375	-7.01555	-6.54825	2.07999	-10.81645
1093.75000	-2.58325	-5.33796	-1.54572	-7.59373
1097.65625	-1.77744	-10.57456	-5.57443	-9.60915
1101.56250	4.66951	-14.19955	-4.76800	-7.19233
1105.46875	3.86356	-0.90136	-4.76728	-5.98432
1109.37500	-9.43328	12.39689	-14.83989	-5.98518
1113.28125	-13.05970	3.53404	-34.58292	-5.18014
1117.18750	3.46039	-6.53752	-41.02921	-5.18090
1121.09375	3.46027	-2.90959	-12.01766	-5.58451
1125.00000	-11.44829	-1.29638	16.59087	6.09968
1128.90625	-12.65711	-12.97973	17.39718	0.86098
1132.81250	-3.79254	-14.58986	14.17431	-14.45109
1136.71875	1.44548	-4.51490	15.78665	-11.22850
1140.62500	-5.80736	-4.51321	9.34052	-5.58834
1144.53125	-4.19580	-13.77912	2.89443	-3.57463
1148.43750	-3.79313	-8.53954	2.08927	-0.35219
1152.34375	-3.39047	-17.80542	-16.84790	4.48200
1156.25000	-9.43463	-27.47416	-29.33819	0.85468
1160.15625	-10.24070	-5.31129	-17.24973	-8.01083
1164.06250	2.65278	6.37539	-3.95230	-12.44407
1167.96875	-5.40619	5.16818	2.09227	-5.59519
1171.87500	-14.27082	3.55816	-9.99519	-6.80493
1175.78125	-7.82406	5.97746	-9.18883	-12.04392
1179.68750	-1.78019	7.59073	-3.14448	-7.61253
1183.59375	3.05492	-6.10758	-4.75588	-1.97238
1187.50000	-5.80968	-12.14993	-4.75542	-3.58488
1191.40625	-11.45094	-0.86617	-11.20161	-6.40620
1195.31250	-2.58651	1.15010	-15.23010	-6.40700
1199.21875	-8.63046	-12.95082	-8.37947	-1.16978
1203.12500	-13.46567	-17.38136	-6.76708	3.66464
1207.03125	-7.42175	-2.87429	-23.28683	-8.02119
1210.93750	0.23399	5.58863	-24.49542	-11.24551
1214.84375	5.87509	6.79883	-7.97479	-3.99350
1218.75000	7.08379	9.62098	-3.13899	-0.36788
1222.65625	9.90432	6.39936	-20.06151	-1.17464
1226.56250	18.76879	-7.70148	-24.89595	2.45095
1230.46875	2.24863	-6.08826	-12.80729	5.67362
1234.37500	-10.64526	5.59819	-5.95673	1.24059
1238.28125	-12.65995	3.58508	-1.92662	-1.58063
1242.18750	-11.04814	-4.87478	2.10342	-1.58130
1246.09375	-5.40715	-6.88770	-1.92514	-6.82008
1250.00000	12.32172	-1.64790	-4.34216	14.53447
1253.90625	53.01763	2.38293	12.98424	58.05019
1257.81250	33.27402	-3.25662	19.02873	30.65018
1261.71875	-40.86511	-15.74602	12.17962	-37.84866
1265.62500	-61.01163	-28.63831	-24.48647	-53.56361
1269.53125	-48.92378	-36.29232	-61.55556	-52.75845
1273.43750	-63.42934	-28.63482	-35.76733	-76.12907
1277.34375	-92.84327	-0.83098	2.10889	-94.66453
1281.25000	-122.25723	15.69064	10.97392	-115.21470
1285.15625	-144.82121	13.27455	-2.32214	-145.43510
1289.06250	-150.86502	6.42635	-0.30680	-149.46492
1292.96875	-130.31555	-18.15083	4.93188	-130.93074
1296.87500	-101.70750	-37.48987	-26.09326	-113.20242
1300.78125	-98.08105	-26.60895	-48.65660	-110.78541
1304.68750	-106.94541	1.19504	-26.89748	-119.24753
1308.59375	-104.52769	15.70237	0.09969	-106.75727
1312.50000	-97.27491	10.86884	12.59139	-93.46123
1316.40625	-90.02213	-7.26157	-5.13667	-92.25306
1320.31250	-80.75462	-24.18288	-20.85023	-92.65652
1324.21875	-73.09879	-14.10787	-18.02925	-82.18089
1328.12500	-58.19026	-2.82425	-7.55257	-65.66132
1332.03125	-47.31099	-7.65782	-9.56664	-59.61798
1335.93750	-45.69919	-9.26784	-24.47453	-58.40994
1339.84375	-54.56339	-22.96565	-26.48860	-61.63408
1343.75000	-48.51913	-27.79914	-14.80313	-47.93496
1347.65625	-30.79009	-17.32156	-7.95288	-47.53260
1351.56250	-42.47504	-14.90252	-16.81659	-64.45620
1355.46875	-50.93629	-1.20133	-19.63614	-59.62139
1359.37500	-46.50366	14.11180	-1.50348	-44.31037
1363.28125	-44.48867	11.69588	5.75013	-42.69898
1367.18750	-36.83258	-13.28408	-22.85705	-35.04363
1371.09375	-29.57947	-10.86475	-37.76472	-25.77660
1375.00000	-31.99681	10.49216	-4.32071	-35.04437
1378.90625	-30.38486	14.12032	26.30272	-35.04476
1382.81250	-22.72890	8.48111	31.94441	-26.58359
1386.71875	-15.87879	-2.79917	1.32227	-23.36053
1390.62500	-11.84922	-6.02097	-47.02859	-18.52575
1394.53125	-16.28121	-12.06332	-47.02785	-17.31727
1398.43750	-18.69842	-2.39131	6.96545	-18.52643
1402.34375	-27.96554	-4.40436	23.88902	-22.15317
1406.25000	-20.71260	-51.94868	5.35473	-17.31842
1410.15625	-15.07132	-49.12646	10.99639	-18.52768
1414.06250	-20.30915	10.50890	-25.26657	-27.79548
1417.96875	-4.99754	45.96841	-49.03878	-15.30502
1421.87500	5.07590	35.09089	-15.99795	-7.24690
1425.78125	-1.37076	21.39277	15.83416	-14.90300
1429.68750	-9.02628	14.54461	23.08768	-12.88883
1433.59375	-15.07008	5.68195	13.41816	-13.29233
1437.50000	-25.14325	-3.18092	9.38950	-27.39541
1441.40625	-34.41052	-16.07304	-18.81508	-28.20183
1445.31250	-27.96344	-5.59504	-12.77057	-25.78472
1449.21875	-29.57496	0.45065	12.61470	-31.02328
1453.12500	-15.87531	-14.85910	-3.50180	-18.53290
1457.03125	-19.90451	-34.19821	-0.68054	-14.10120
1460.93750	-53.34753	-18.48221	5.36426	-37.06880
1464.84375	-64.62957	-1.96022	-5.91711	-57.21588
1468.75000	-73.89687	-8.80825	17.45353	-66.48386
1472.65625	-81.95528	16.17500	33.16855	-70.11070
1476.56250	-76.71700	38.33771	19.46956	-74.14046
1480.46875	-79.13443	33.10128	21.08189	-82.60250
1484.37500	-84.37232	14.16526	23.50024	-78.97663
1488.28125	-57.77873	-24.91732	2.14592	-61.24813
1492.18750	-50.12280	-14.03638	-6.31469	-64.87485
1496.09375	-65.03108	22.63199	18.26464	-64.06947
1500.00000	-52.13726	-7.58629	14.23588	-49.16161
1503.90625	-36.82586	-22.89593	-1.47764	-40.29785
1507.81250	-38.84045	-4.35918	25.92257	-43.11897
1511.71875	-41.66080	-17.65420	55.33749	-45.13412
1515.62500	-42.06364	-22.89061	41.23573	-37.07618
1519.53125	-20.30544	19.41880	7.39005	-33.85345
1523.43750	11.52603	4.91504	7.79354	-12.49883
1527.34375	23.21103	-19.66186	-7.11394	20.54077
1531.25000	5.07912	9.35094	-37.33278	22.95771
1535.15625	-4.18826	15.79952	-22.02061	5.22810
1539.06250	11.52614	12.17475	9.81161	12.48023
1542.96875	17.97318	-17.64060	19.88552	25.37348
1546.87500	18.77905	-24.48870	14.64801	33.43142
1550.78125	22.80835	15.40329	6.99314	38.26589
1554.68750	34.89644	27.09012	-28.86662	36.65366
1558.59375	61.08698	13.79522	-41.35651	47.12941
1562.50000	53.43150	-0.70848	-25.64142	40.27906
1566.40625	26.03255	-1.10959	-19.19361	22.95263
1570.31250	24.82420	-2.31648	-8.71665	26.17577
1574.21875	31.27172	-15.20859	-2.26913	22.95211
1578.12500	35.70467	4.93954	2.96962	18.51971
1582.03125	35.30233	17.02914	13.44652	30.60754
1585.93750	35.70589	-2.30964	-21.60766	37.45719
1589.84375	38.12402	-21.24550	-58.27362	35.84534
1593.75000	36.51294	-26.88476	-23.21799	34.63631
1597.65625	35.70767	-7.54230	8.61416	34.63609
1601.56250	19.59091	12.60595	1.36212	23.35385
1605.46875	15.56219	9.38427	-11.12797	17.30972
1609.37500	31.68013	18.65345	-7.09796	32.21795
1613.28125	38.93348	-9.95289	-11.12685	31.00898
1617.18750	32.08418	-29.69487	-14.75260	22.95021
1621.09375	27.24951	2.94422	-8.30484	31.81452
1625.00000	23.62352	12.21331	-17.57123	29.39668
1628.90625	14.75966	6.57399	-39.73147	21.33799
1632.81250	28.45990	-13.57077	-49.40113	33.82880
1636.71875	37.72770	-23.23938	-36.50674	32.21692
1640.62500	37.32517	4.56457	-22.80639	22.14356
1644.53125	17.58206	15.44562	-12.73240	18.11406
1648.43750	-0.95230	-4.29613	2.17677	11.66692
1652.34375	13.15078	-10.74123	-6.68697	14.89021
1656.25000	22.41866	2.96014	-10.31266	16.90465
1660.15625	22.41912	-1.06751	4.59617	21.33670
1664.06250	17.98724	-5.90092	0.97035	15.29258
1667.96875	19.19645	1.75657	-5.47575	20.93334
1671.87500	18.39093	-14.35886	-26.02423	32.61807
1675.78125	12.75026	-14.35712	-28.03784	29.39431
1679.68750	19.60046	11.83496	3.39175	28.99108
1683.59375	6.30419	13.85142	11.85410	18.91763
1687.50000	2.27542	-1.45799	10.64615	12.06772
1691.40625	32.49580	-7.09728	-3.85867	14.88807
1695.31250	31.69041	-8.70722	-13.93135	17.30543
1699.21875	7.91787	2.57662	-6.67794	16.90227
1703.12500	18.79733	16.68093	-29.64431	17.30502
1707.03125	21.21532	17.89149	-51.80477	20.93114
1710.93750	13.15712	-9.50601	-19.16672	16.90161
1714.84375	10.73987	-31.66550	14.27737	3.20175
1718.75000	5.50215	-9.90552	28.78368	-1.23070
1722.65625	5.09966	8.63104	24.35211	5.61890
1726.56250	13.96462	16.28855	-4.65815	12.06559
1730.46875	17.18858	18.30506	-7.88084	17.70641
1734.37500	-2.55454	1.38383	8.63997	12.46802
1738.28125	-2.55411	-7.07600	-2.23850	5.61790
1742.18750	13.16074	5.01355	-15.53447	20.92899
1746.09375	11.54953	13.87967	-10.69857	17.30241
1750.00000	2.68558	-3.04163	-3.84807	5.21420
1753.90625	15.57976	-13.91886	-0.22107	7.22861
1757.81250	9.93931	-7.06716	-12.71123	7.63133
1761.71875	2.28419	-18.34732	-7.87538	6.42227
1765.62500	12.76096	-23.18060	9.85439	14.48060
1769.53125	26.46112	2.20583	6.63163	21.73312
1773.43750	25.25290	21.95119	9.45273	7.63037
1777.34375	11.55385	23.96756	7.43875	5.61546
1781.25000	15.98650	13.09018	0.99260	26.97037
1785.15625	26.86594	0.19814	0.59050	33.41688
1789.06250	23.64295	-2.21754	2.20303	26.16379
1792.96875	28.07577	4.23120	14.69452	35.43093
1796.87500	27.27043	-1.81087	18.72440	37.84824
1800.78125	32.50906	-27.19358	11.87511	32.60977
1804.68750	44.59751	-18.73018	0.19074	35.42988
1808.59375	29.28663	4.23863	-17.13468	26.16211
1812.50000	18.40788	6.65805	5.83310	18.50603
1816.40625	21.63176	9.88329	26.38329	24.54965
1820.31250	21.22936	8.67625	11.47561	28.17566
1824.21875	19.21517	-0.58938	1.40295	31.39878
1828.12500	33.31810	2.63596	13.08863	40.26289
1832.03125	20.42483	-1.39139	9.86596	20.51904
1835.93750	5.91979	-4.21002	7.44921	10.84848
1839.84375	26.46964	3.85036	16.71732	25.75651
1843.75000	22.84373	-5.01231	-2.62269	20.11522
1847.65625	11.96521	-14.27788	-3.83074	15.27980
1851.56250	10.35407	-14.27610	12.69002	21.72635
1855.46875	9.54884	-40.06186	1.00568	20.51732
1859.37500	18.01094	-25.15162	-6.24633	18.09954
1863.28125	21.23491	19.57539	3.02170	15.27872
1867.18750	18.01199	20.78582	2.61928	14.06955
1871.09375	9.55108	1.44691	-4.22990	13.66628
1875.00000	7.13416	-1.77475	-6.24385	15.27776
1878.90625	11.97001	14.34431	1.81540	17.29216
1882.81250	9.15007	12.73434	9.87461	12.05393
1886.71875	11.56820	1.45415	2.62248	4.39808
1890.62500	8.34533	4.27650	-9.06183	7.21836
1894.53125	9.55472	11.53107	1.81790	12.45629
1898.43750	27.28415	12.74169	20.75637	16.88835
1902.34375	28.49339	0.65558	17.13065	18.49979
1906.25000	7.94441	-9.01292	8.66974	11.64980
1910.15625	10.36245	-4.17576	12.29691	14.47014
1914.06250	19.63038	-1.75628	-12.68390	13.26119
1917.96875	13.98992	-9.81304	-40.88821	8.42594
1921.87500	17.61682	-14.64643	-19.12928	12.45518
1925.78125	13.18523	-1.34798	18.74674	12.85798
1929.68750	13.99160	1.47430	25.19425	10.84310
1933.59375	24.87124	6.71428	7.46612	15.67808
1937.50000	28.49813	18.40119	-0.99460	18.49840
1941.40625	27.28971	13.97078	15.12333	9.63374
1945.31250	-0.10913	6.71979	21.97401	-2.05150
1949.21875	-3.73494	9.94506	7.87235	-0.84293
1953.12500	9.56224	15.99087	8.27606	3.99199
1957.03125	5.93643	3.50186	11.50005	3.99179
1960.93750	7.14575	-38.80391	-7.03421	1.97693
1964.84375	3.11698	-33.16094	-13.07768	2.37955
1968.75000	9.56448	7.53675	-0.58623	8.42317
1972.65625	9.56511	7.53855	-11.86760	7.61696
1976.56250	-0.91060	-0.11520	-29.99873	0.76678
1980.46875	6.34255	8.34824	-11.46321	1.97512
1984.37500	6.74587	14.39402	21.57776	3.18350
1988.28125	-2.11818	-2.12427	24.39893	5.60071
1992.18750	5.53803	4.32441	-13.87877	14.46478
1996.09375	15.61168	12.78781	-23.14548	12.44970
2000.00000	3.52417	-7.75969	11.10427	1.97307
2003.90625	-11.38388	-7.35475	19.16350	-9.30932
2007.81250	-7.75707	-14.60562	14.73198	-11.72719
2011.71875	1.51075	-10.57453	25.61174	1.16626
2015.62500	4.73463	8.76789	19.97146	1.16606
2019.53125	-2.11488	-2.51239	-15.08264	-5.68391
2023.43750	-1.71154	-1.30181	-28.37841	-0.04312
2027.34375	7.95934	9.98204	-5.81349	2.37427
2031.25000	3.52757	9.58085	-5.40977	0.35941
2035.15625	-2.91882	-0.49050	-23.94381	-2.46128
2039.06250	5.54325	-4.11484	-6.21412	-7.69959
2042.96875	11.99064	9.18379	27.63274	3.17934
2046.87500	13.19988	13.61784	26.02175	6.80561
2050.78125	1.51528	-7.33270	10.71101	-6.49128
2054.68750	-1.70769	-11.76319	1.84708	-9.31208
2058.59375	9.17203	-12.97018	3.05652	-2.05951
2062.50000	0.71124	-29.08549	0.23673	-2.46249
2066.40625	-13.39062	-10.14592	-6.61238	-2.86548
2070.31250	-10.97229	14.03185	0.23825	0.76090
2074.21875	-4.52469	24.51000	3.46245	-2.46258
2078.12500	-8.95620	25.31780	-0.16324	-3.26856
2082.03125	-0.09110	14.84351	-2.17721	-4.07446
2085.93750	4.34179	6.78675	0.24118	-8.10379
2089.84375	-2.91030	-0.46419	-2.98150	-4.07452
2093.75000	10.38691	-3.68589	4.27200	2.77529
2097.65625	16.83437	3.56862	3.06410	3.58112
2101.56250	-4.92326	-2.47342	-17.88743	0.76054
2105.46875	-5.72853	-14.55933	-13.85736	-6.49233
2109.37500	0.71901	-16.57210	-2.97734	-12.13336
2113.28125	-12.17410	-2.87065	-8.21458	-9.31282
2117.18750	-3.30900	12.44264	-7.00513	-0.04550
2121.09375	-2.50241	-14.95475	4.68040	-5.28365
2125.00000	-11.76910	-31.47298	21.60410	-5.68650
2128.90625	-14.18599	-0.44544	23.61947	-6.08938
2132.81250	-12.17070	14.06194	9.92066	-14.95379
2136.71875	-4.11143	9.63155	-0.15183	-9.31277
2140.62500	-3.30476	7.21590	-15.86539	-3.67168
2144.53125	-6.52732	5.60609	-24.72906	-6.08928
2148.43750	7.57599	3.59336	-11.02866	2.37229
2152.34375	10.39730	4.40107	-10.22192	0.76059
2156.25000	-3.30132	8.02932	-7.40058	-4.47735
2160.15625	-3.30013	3.59892	-0.95283	2.77575
2164.06250	1.93900	-12.11360	-17.47219	-0.04463
2167.96875	-2.89534	-10.50006	-6.99537	-3.67106
2171.87500	-1.28275	-8.88654	11.13704	3.98444
2175.78125	2.74730	-2.03493	15.97285	-4.88018
2179.68750	7.18015	16.09882	13.15307	-7.70091
2183.59375	9.19527	13.68321	-1.75466	3.17779
2187.50000	4.36049	4.01484	-3.36586	8.01236
2191.40625	5.16676	-11.29459	-15.05027	2.77368
2195.31250	-1.27977	-16.53090	-13.03494	-7.70299
2199.21875	-8.53228	-8.47054	-4.16965	-6.89756
2203.12500	-16.18767	2.00733	-2.55707	-4.88331
2207.03125	-12.56100	22.15555	6.30831	-9.71886
2210.93750	5.57117	11.68130	8.32383	-1.25776
2214.84375	2.34811	-5.23974	4.29535	8.41225
2218.75000	-7.32175	-7.65533	6.31070	-0.45237
2222.65625	-3.29201	-15.71191	10.74349	-2.06423
2226.56250	2.34956	-9.66603	10.34098	8.41185
2230.46875	10.40870	-1.20247	-0.13468	21.30556
2234.37500	12.42382	8.46996	-25.11563	12.84392
2238.28125	15.24488	14.91876	-39.62030	4.38229
2242.18750	4.36638	8.87672	-26.32281	4.78521
2246.09375	-6.10910	-10.46192	6.71817	-3.27341
2250.00000	-2.88504	-20.93621	23.64200	-8.51148
2253.90625	4.36832	6.86767	15.58435	2.77068
2257.81250	10.01000	21.77783	1.48274	8.00881
2261.71875	4.36943	12.51230	-11.81308	-0.85577
2265.62500	-0.86808	16.94647	-14.22970	-3.27337
2269.53125	-8.12008	21.38067	-15.84060	-7.70543
2273.43750	-5.70163	2.04206	-19.46631	-0.45254
2277.34375	-3.28314	-9.23798	-5.76609	5.18856
2281.25000	0.74716	0.03130	7.12845	3.57690
2285.15625	8.40360	8.49473	11.56155	10.42673
2289.06250	8.80737	11.71997	16.39758	6.39754
2292.96875	2.36136	8.49847	5.11634	2.36839
2296.87500	6.39141	6.48568	-14.22349	4.38318
2300.78125	6.79511	3.66714	1.89449	2.36862
2304.68750	11.22809	-10.03055	12.37138	4.78628
2308.59375	32.18131	-4.38762	3.10473	14.45667
2312.50000	23.31775	18.58124	0.68793	12.44223
2316.40625	13.24542	25.83585	3.10629	12.44245
2320.31250	16.46972	17.37617	2.30116	17.27785
2324.21875	5.18869	10.52830	7.94289	1.96669
2328.12500	-5.68938	13.75370	5.12328	-1.25655
2332.03125	-6.09158	11.33824	-4.14307	0.35525
2335.93750	10.83222	7.31100	6.73684	0.75825
2339.84375	13.25085	6.10415	8.75200	1.16135
2343.75000	7.20798	-8.39943	-2.12640	-0.85294
2347.65625	8.41783	-22.09706	-9.78125	2.37093
2351.56250	-3.66898	-7.99246	-12.19795	2.77431
2355.46875	-6.08535	-0.73770	-5.75021	5.19235
2359.37500	2.78045	-22.49398	9.96516	8.81943
2363.28125	8.42276	-14.43343	14.80146	3.17915
2367.18750	-3.26091	4.90918	5.53495	-9.71391
2371.09375	-0.03626	2.09073	-2.52298	-3.26647
2375.00000	1.97957	22.64215	-7.35747	1.97232
2378.90625	9.23356	38.76133	-10.98319	7.61402
2382.81250	16.48752	33.52514	-8.96766	14.86735
2386.71875	-1.64313	14.58930	6.74751	0.76542
2390.62500	-15.34166	-5.15236	17.62759	-14.54539
2394.53125	-9.69955	-3.53860	18.83711	-14.14186
2398.43750	-2.04279	2.50742	11.58503	-3.66504
2402.34375	-0.83290	0.49476	14.00350	6.40878
2406.25000	12.86775	-3.53257	16.01916	10.43858
2410.15625	13.67454	-8.76865	3.93216	7.61858
2414.06250	7.22853	-4.33453	-2.11102	6.81322
2417.96875	7.63236	-3.52684	-16.21280	7.61954
2421.87500	6.02159	-5.13632	-39.17903	4.39657
2425.78125	9.64894	-1.10473	-23.86681	10.44099
2429.68750	2.39715	-8.35540	0.71272	8.02389
2433.59375	-6.06339	-3.11534	7.96619	-0.03434
2437.50000	7.23433	4.94532	16.83151	6.01004
2441.40625	3.60894	2.12686	20.05584	3.18989
2445.31250	-14.92488	4.54632	20.86268	-8.89767
2449.21875	-15.32675	2.53367	14.01370	-1.24156
2453.12500	-20.96655	-9.95512	-2.90868	-3.25567
2457.03125	-15.32443	-19.62343	-13.78704	-14.94014
2460.93750	0.79397	-16.39798	-19.02425	-9.70154
2464.84375	-3.63700	-15.18724	-14.18812	-11.71563
2468.75000	-8.06798	-14.37954	-5.32284	-11.71503
2472.65625	-9.27560	-4.30441	-2.50161	-4.46176
2476.56250	3.61935	-4.70522	5.55787	4.00011
2480.46875	12.48496	-17.59678	-2.09699	9.64156
2484.37500	-1.21349	-15.98293	-23.85439	7.22437
2488.28125	-8.06219	-7.92222	-16.60071	10.44824
2492.18750	-14.91078	-1.47330	1.12911	-2.84795
2496.09375	-18.13303	2.96088	16.03832	-7.68263
2500.00000	-9.26739	5.38034	18.85979	-5.26470
2503.90625	-7.65443	8.20269	15.63724	-9.29360
2507.81250	-10.87663	1.35480	5.96764	-8.08442
2511.71875	-0.39914	-10.32821	-16.19278	-4.05474
2515.62500	6.04905	-5.49100	-37.14432	3.60134
2519.53125	13.30302	-9.11525	-33.91989	3.60172
2523.43750	5.64851	-17.57466	-14.17538	-6.47110
2527.34375	-20.13782	-10.72280	10.00125	-10.50002
2531.25000	-14.89860	-9.91499	24.91055	2.39419
2535.15625	1.62264	-10.71887	19.67328	15.28835
2539.06250	6.45904	-8.70216	8.79498	9.24482
2542.96875	18.54821	-6.28249	4.76646	6.82780
2546.87500	10.49083	-18.36845	-14.17058	12.46927
2550.78125	2.43345	-13.53138	-27.86946	7.63462
2554.68750	7.26981	10.64654	-6.11023	2.39699
2558.59375	6.46524	9.84273	-0.06532	3.20330
2562.50000	8.88412	8.63607	-13.76413	6.42728
2566.40625	5.66191	6.22047	-8.52523	-3.64546
2570.31250	-1.18662	-6.26832	4.36930	-15.73300
2574.21875	-2.39409	-2.23686	21.69605	-6.46507
2578.12500	1.23349	-7.06987	29.75561	0.38526
2582.03125	-10.04737	-21.17035	7.19255	-12.50807
2585.93750	2.04181	-11.90089	-6.10317	-19.35742
2589.84375	2.04313	-6.25782	1.95639	-16.93935
2593.75000	-6.01418	-18.74668	5.98663	-8.47734
2597.65625	4.86629	-18.74464	-15.77074	0.79069
2601.56250	0.03253	-5.84886	-26.24610	1.19414
2605.46875	-0.36903	-4.63820	-10.53093	-4.04344
2609.37500	-1.17361	-6.65082	-6.50083	-4.04292
2613.28125	4.87169	4.63342	-20.60266	3.21036
2617.18750	16.15506	18.33531	-8.91683	14.49289
2621.09375	4.47142	17.53166	13.64835	16.50806
2625.00000	-12.04734	0.20783	17.27586	3.61492
2628.90625	5.28011	-2.20766	6.80061	0.79500
2632.81250	19.78706	0.61494	-14.95685	11.67468
2636.71875	10.92395	-7.44174	-8.50928	9.66058
2640.62500	5.68718	-9.85742	6.80284	5.22888
2644.53125	16.97066	-7.84069	11.63899	16.51158
2648.43750	28.25403	-3.00345	6.40175	26.18254
2652.34375	18.58503	-14.68640	-23.81717	19.33335
2656.25000	-4.78343	-22.34010	-38.32179	0.79922
2660.15625	-17.67583	-21.93511	-7.29549	-13.30275
2664.06250	-11.63049	-25.55930	8.41941	-18.54026
2667.96875	-10.01749	-8.23108	6.80842	-18.13673
2671.87500	-8.40436	16.34998	1.97410	-14.50981
2675.78125	-10.41765	19.57556	-12.53050	-23.77663
2679.68750	-10.01327	11.92170	-20.58809	-19.74669
2683.59375	0.86734	2.65626	-15.34902	-7.65805
2687.50000	2.07755	-10.23531	-6.48376	3.22170
2691.40625	2.07881	-6.60683	-16.15326	10.47496
2695.31250	3.69175	3.46845	-15.34646	5.64023
2699.21875	10.13995	6.69376	0.36868	6.84953
2703.12500	6.51482	0.24896	5.60755	0.40306
2707.03125	-7.98953	-12.23977	7.22013	-8.86403
2710.93750	-0.73565	-16.66997	11.65327	-6.04323
2714.84375	-7.98721	-7.80356	10.84832	-12.89261
2718.75000	0.07272	-11.42793	6.81981	-4.83342
2722.65625	7.32682	-9.81420	1.58250	6.44917
2726.56250	-6.77441	3.08162	-7.28115	-2.81782
2730.46875	-1.93794	11.14217	-12.51829	-2.41440
2734.37500	12.16590	18.39699	-16.54643	9.67395
2738.28125	8.54076	-3.76194	-23.79823	2.42164
2742.18750	-3.94877	-17.05655	-13.72431	-15.30676
2746.09375	-6.36502	-4.16067	-10.50013	-10.06808
2750.00000	-7.57249	0.67664	-10.49919	-5.23236
2753.90625	-0.72132	4.30526	-2.84246	-5.63466
2757.81250	2.90641	4.30721	-8.07967	1.61867
2761.71875	1.29594	-17.85211	-7.27297	5.24555
2765.62500	12.17643	-18.65573	-3.64554	2.02268
2769.53125	10.56603	1.49320	-9.28540	9.27605
2773.43750	0.89717	3.51020	-4.85205	1.21815
2777.34375	3.71909	11.16806	1.59568	-10.06322
2781.25000	2.51162	8.34959	0.79057	2.02525
2785.15625	8.15409	2.30768	-5.65553	12.50211
2789.06250	17.02006	7.95076	-15.72777	0.41496
2792.96875	21.05082	-1.71735	-20.96473	1.22149
2796.87500	21.05232	-12.59417	-10.89041	1.22222
2800.78125	-3.92789	-3.72748	-2.42795	-8.85027
2804.68750	-14.40271	5.54204	2.00512	-10.86421
2808.59375	-5.13392	3.52960	1.19999	-8.04302
2812.50000	0.10563	0.71119	3.21558	1.22509
2816.40625	12.59793	1.51922	0.79914	6.86689
2820.31250	9.37588	-8.95484	-12.49660	6.06174
2824.21875	1.31863	-13.38496	-22.56891	-2.80201
2828.12500	-0.29167	-3.30960	-16.52386	-4.01016
2832.03125	-5.93125	-3.30748	-0.40559	-1.99479
2835.93750	-5.92975	5.96202	4.83347	-4.81451
2839.84375	-4.71945	5.56130	-10.47691	-5.21673
2843.75000	-1.89749	-12.16546	-16.92285	-8.43947
2847.65625	-5.52231	-8.53699	1.61281	-4.81232
2851.56250	-1.49143	-12.96715	8.46356	0.02369
2855.46875	15.03019	-12.56201	5.64396	1.63630
2859.37500	3.74959	13.22780	4.83888	3.24872
2863.28125	-7.93392	20.48275	-6.84520	6.06998
2867.18750	-3.50017	12.02339	-23.36446	6.07084
2871.09375	-2.69277	3.96690	-20.94609	2.44540
2875.00000	0.93514	-5.70140	-2.00745	7.68432
2878.90625	6.17465	-3.28172	0.00818	10.10270
2882.81250	12.22007	5.58510	-21.74914	12.52103
2886.71875	2.95427	-0.45662	-22.15114	0.83693
2890.62500	-3.49113	-4.48374	-3.21246	-2.38569
2894.53125	9.40408	-6.09332	9.68229	6.07658
2898.43750	11.01738	-13.74689	4.44536	-0.77238
2902.34375	-6.71003	-19.38568	-2.40323	-10.44190
2906.25000	-15.57300	-19.78644	-2.40198	-10.44104
2910.15625	-3.08072	-10.51691	-16.50341	-3.59037
2914.06250	-3.07935	-0.84439	-24.96409	-4.39549
2917.96875	-12.34536	-2.05096	-33.02189	-11.64746
2921.87500	-14.76154	-8.09275	-39.87088	-19.30231
2925.78125	-18.38667	-17.35809	-30.60260	-18.89853
2929.68750	-12.34149	-33.07032	-15.69337	-13.65971
2933.59375	-1.05799	-30.65061	-6.42502	-14.86759
2937.50000	-6.29459	-15.33716	-16.90024	-10.83745
2941.40625	-12.74012	-9.69399	-21.33150	-11.64248
2945.31250	-7.09783	-12.51231	-2.79568	-10.43293
2949.21875	-10.72288	-18.15123	2.04049	-7.20870
2953.12500	-4.67757	-19.35780	-4.80828	-5.99899
2957.03125	1.36792	-9.68521	-3.59838	2.46356
2960.93750	-3.46579	-2.02742	1.64065	2.06158
2964.84375	6.20595	-1.21944	-1.58176	-0.35502
2968.75000	-0.64239	2.00632	-19.71262	-3.98039
2972.65625	-7.08788	6.03799	-8.02672	-1.56181
2976.56250	0.56913	3.62277	-0.37028	-2.36679
2980.46875	-4.66761	-2.82194	-10.03975	-5.18651
2984.37500	-2.24852	-5.64029	-4.39789	3.67890
2988.28125	0.97651	-7.65270	-5.20273	8.51513
2992.18750	7.82780	-7.65046	-14.46906	6.50147
2996.09375	8.23221	-10.46876	-12.05052	11.74044
