 	TP9	AF7	AF8	TP10	
-1000.00000	16.48769	14.20061	40.85679	13.38084
-996.09375	35.42530	10.17108	48.91444	23.85762
-992.18750	23.33695	13.79729	30.37866	20.63474
-988.28125	14.06902	15.40880	17.88689	6.53245
-984.37500	11.65092	3.32069	25.94480	0.48870
-980.46875	22.52930	3.72338	22.31778	8.14451
-976.56250	16.88766	11.78193	9.82645	25.06774
-972.65625	14.46946	17.01982	-5.48538	14.99481
-968.75000	-2.05136	7.34914	2.97558	4.11584
-964.84375	8.42427	0.49903	11.83941	18.21866
-960.93750	43.47869	12.98966	6.60072	29.90401
-957.03125	35.41948	16.61576	10.22634	25.87494
-953.12500	24.94262	2.51291	25.93984	4.11691
-949.21875	11.64529	-1.51659	26.34200	1.29668
-945.31250	10.83889	10.97427	14.25317	8.14688
-941.40625	28.56725	23.46492	21.50495	26.27900
-937.50000	19.29942	20.64400	12.63962	14.99723
-933.59375	-6.89141	2.51177	-1.06087	-12.40171
-929.68750	-7.29486	-4.33841	9.81739	-4.34267
-925.78125	-2.86306	-14.41198	12.23421	0.49287
-921.87500	-4.07240	-4.33915	17.06895	10.16358
-917.96875	8.01479	26.68606	9.41261	4.11984
-914.06250	12.04345	28.29745	-13.55524	-13.20583
-910.15625	6.40201	15.40324	-2.27412	2.50885
-906.25000	4.78983	18.22328	2.55997	16.61168
-902.34375	5.59515	8.14960	8.19999	18.22367
-898.43750	18.08533	0.89644	17.06371	16.61217
-894.53125	14.45832	16.20738	14.64536	5.73339
-890.62500	5.19032	6.13377	25.52366	11.37473
-886.71875	5.99558	-11.19256	23.50813	20.64249
-882.81250	12.44187	8.14782	11.01646	19.03104
-878.90625	13.24707	33.12928	11.41856	10.97270
-875.00000	8.00841	24.26454	20.28212	3.31721
-871.09375	15.26067	8.54985	6.17876	5.73513
-867.18750	20.90113	17.81672	-15.58041	5.73546
-863.28125	13.64774	30.30715	-9.13445	6.13865
-859.37500	7.60323	20.23364	7.78784	6.13884
-855.46875	-1.26181	4.51901	27.53062	8.55660
-851.56250	-2.47121	-6.76364	29.94721	12.98907
-847.65625	9.21313	8.95012	4.56161	9.76588
-843.75000	26.94142	1.69686	0.12841	2.51339
-839.84375	20.89679	-14.42083	11.00659	13.79566
-835.93750	16.86689	14.99260	16.24373	18.22816
-832.03125	5.18133	17.81282	21.88382	-1.11234
-828.12500	-0.05743	17.40952	8.98912	-11.58835
-824.21875	12.83566	17.00620	-1.08506	-7.96184
-820.31250	17.67012	-2.73786	2.54027	1.30585
-816.40625	10.01366	2.49977	0.92753	16.21455
-812.50000	10.41580	15.79592	3.34432	14.60290
-808.59375	6.38572	8.54259	12.20781	11.78246
-804.68750	3.16156	-8.38101	11.80382	12.58843
-800.78125	20.08403	-1.12879	-0.68811	2.51537
-796.87500	16.05404	9.34688	3.74303	3.72432
-792.96875	-2.48153	4.51124	25.50022	5.73912
-789.06250	-5.70576	12.16628	30.33446	9.36561
-785.15625	8.39607	16.19497	21.46912	12.99214
-781.25000	16.85685	11.35928	8.97741	0.09842
-777.34375	16.45311	12.16460	-13.99054	1.71019
-773.43750	2.75253	9.74656	-16.40887	17.82739
-769.53125	2.75165	-5.16235	-0.29256	15.00693
-765.62500	4.36265	-22.08592	5.34730	2.51620
-761.71875	11.21170	-21.68347	7.36072	11.38076
-757.81250	29.34278	-12.41657	3.33022	27.90103
-753.90625	22.08924	12.56466	8.56710	20.64837
-750.00000	4.35963	44.39564	8.56617	-0.30394
-746.09375	-4.10272	35.53064	-1.10497	2.11366
-742.18750	1.94035	18.20405	0.90867	13.39585
-738.28125	7.98350	25.05337	0.10173	3.32264
-734.37500	16.44425	23.84417	4.93582	-3.12425
-730.46875	30.14299	11.35290	12.99330	6.14313
-726.56250	8.78673	5.30831	6.94815	8.96364
-722.65625	-15.79282	9.73988	7.75288	5.74026
-718.75000	-4.91452	10.94791	10.57231	17.82823
-714.84375	16.43991	16.58831	-4.74027	22.26057
-710.93750	38.19729	14.97596	-4.33846	21.45480
-707.03125	32.55541	-3.55941	6.13670	22.26069
-703.12500	17.24304	-0.73943	-5.95216	9.36686
-699.21875	18.04802	16.58594	-5.95322	6.94930
-695.31250	-5.32283	14.57063	24.26532	17.02260
-691.40625	-12.97941	11.34647	33.53147	17.02266
-687.50000	8.77795	28.67179	10.16033	0.90546
-683.59375	9.98582	20.20966	8.14458	3.32293
-679.68750	18.04349	2.48027	18.61964	4.93459
-675.78125	22.07177	4.49440	28.69177	9.76965
-671.87500	11.99744	10.13482	32.31694	17.82812
-667.96875	1.52025	10.94007	23.04827	11.78399
-664.06250	6.75738	8.92469	-6.76970	13.79846
-660.15625	6.35357	4.89458	-24.09671	17.42466
-656.25000	-8.55571	6.90843	-9.59233	9.36588
-652.34375	-17.42100	1.66955	2.49448	3.72478
-648.43750	-7.34864	-0.34576	6.92549	10.97739
-644.53125	3.12658	23.02362	8.93892	3.72452
-640.62500	-2.51558	26.64928	10.54935	-11.98990
-636.71875	-4.53126	21.81350	3.69819	-21.66034
-632.81250	1.51170	19.79821	3.69695	-15.61647
-628.90625	6.34588	18.99164	4.09862	4.12700
-625.00000	2.31563	9.72346	9.33549	13.39437
-621.09375	11.17911	-11.63266	18.19879	25.07917
-617.18750	18.02794	-28.95939	6.91559	29.91415
-613.28125	8.75943	-6.79904	-14.03797	9.76738
-609.37500	-6.55301	20.59944	-14.03906	15.40821
-605.46875	-22.26854	31.88064	8.92686	18.63136
-601.56250	-17.43450	36.71500	10.53729	-0.30661
-597.65625	-6.15365	23.01456	7.31255	-7.15672
-593.75000	0.29207	11.32880	14.96700	-1.11294
-589.84375	-5.35002	9.31333	14.56288	6.94555
-585.93750	-2.93347	12.93875	10.93514	11.78051
-582.03125	0.69180	4.07338	10.93377	11.37730
-578.12500	3.51119	5.28126	6.90328	11.77996
-574.21875	6.33046	12.53314	6.09639	12.98842
-570.31250	-2.93814	-3.18200	12.94505	12.18222
-566.40625	-3.34222	-4.79461	21.80832	20.64344
-562.50000	-9.79027	16.15693	19.79249	9.36100
-558.59375	-0.52405	35.89968	9.31522	-1.92139
-554.68750	-0.52527	25.42267	2.46424	5.73397
-550.78125	-2.94413	22.19850	-5.99869	8.15123
-546.87500	0.27806	21.79485	-11.23824	-1.11659
-542.96875	-8.99056	6.07964	1.25115	2.91241
-539.06250	16.79565	8.49632	21.79918	14.19400
-535.15625	30.89675	-2.38377	23.00658	14.19348
-531.25000	18.00177	-3.19056	4.87338	-7.16231
-527.34375	10.74792	15.34332	5.67804	-10.38602
-523.43750	1.88226	18.96874	8.49734	2.10462
-519.53125	11.95441	13.72969	-3.18901	-3.53663
-515.62500	19.60898	-2.38843	2.04763	-1.92522
-511.71875	9.13161	-5.61272	1.24022	6.13309
-507.81250	8.72756	11.30951	-1.58179	6.53567
-503.90625	15.57629	31.45510	5.66964	7.34129
-500.00000	17.99261	33.46871	18.15924	6.93808
-496.09375	21.61766	18.15618	22.59026	3.31132
-492.18750	34.10722	21.78151	4.86001	6.93735
-488.28125	30.88237	15.73660	-8.43809	14.59256
-484.37500	21.61364	6.06529	-7.63367	6.93655
-480.46875	20.40362	28.62841	-22.94659	1.29508
-476.56250	15.56715	38.70077	-33.02150	1.29459
-472.65625	8.31304	24.19433	0.01726	0.89120
-468.75000	13.54988	9.68781	26.20639	10.56100
-464.84375	14.35445	14.92475	27.81676	14.58977
-460.93750	20.79990	16.53541	25.80070	8.54521
-457.03125	25.63357	8.07279	11.29380	4.91828
-453.12500	17.97653	10.89232	8.06894	2.90317
-449.21875	14.75169	4.44454	22.16998	17.00530
-445.31250	12.73574	4.44350	11.28943	13.78142
-441.40625	8.70500	13.70978	-0.39696	16.19857
-437.50000	7.89769	19.75256	-2.01021	18.61556
-433.59375	12.32855	29.82466	0.00288	4.91536
-429.68750	1.85105	22.16796	7.25415	9.34698
-425.78125	5.47602	17.73481	6.04369	12.16692
-421.87500	12.72723	24.98647	-3.62833	8.53988
-417.96875	20.38136	4.03295	-14.10602	10.15105
-414.06250	26.82672	-24.17336	-0.40788	17.00019
-410.15625	5.87284	-8.05730	18.52833	15.38785
-406.25000	6.27434	28.20529	18.92977	1.68758
-402.34375	12.71970	40.29211	17.71950	-5.16291
-398.43750	9.89755	31.42667	21.34431	6.52139
-394.53125	20.77504	21.75531	12.88107	10.14704
-390.62500	31.65258	2.81649	5.22369	15.38438
-386.71875	30.44224	-6.04915	8.04256	17.80117
-382.81250	26.41126	4.42575	7.23515	15.78568
-378.90625	27.21532	26.98857	17.30684	14.57583
-375.00000	19.96062	19.73462	24.55803	15.78350
-371.09375	16.73521	8.04842	11.66269	5.30622
-367.18750	21.97132	25.37317	-7.67966	-4.36518
-363.28125	27.61023	25.77489	-8.89006	7.72154
-359.37500	28.01101	13.68575	-3.65356	22.62876
-355.46875	24.78555	0.79069	-6.07278	19.40407
-351.56250	17.93370	-2.83691	-1.64225	1.67387
-347.65625	12.69349	13.27906	2.78849	7.71656
-343.75000	17.92946	16.09846	4.39876	12.14758
-339.84375	11.48041	-9.28731	11.24699	17.78728
-335.93750	9.46375	4.00811	10.03658	14.96554
-332.03125	26.38486	38.25603	-12.93212	-5.58510
-328.12500	30.00938	29.39028	-11.72508	6.90455
-324.21875	12.68145	9.24234	-3.66827	9.72391
-320.31250	7.44141	7.62919	-12.93736	5.69356
-316.40625	16.30400	1.98696	-4.88040	16.16873
-312.50000	16.70513	6.82083	1.56480	4.48267
-308.59375	13.88287	11.65472	-3.27207	7.30221
-304.68750	16.70192	5.60948	3.57599	17.77763
-300.78125	11.46241	1.98196	20.90025	17.37401
-296.87500	12.26678	10.44235	14.04868	18.98503
-292.96875	15.48863	-0.03498	5.98839	16.56675
-289.06250	13.87525	-16.55636	13.23946	20.19244
-285.15625	11.85913	3.99184	11.22313	25.02692
-281.25000	18.70764	27.76357	8.40077	14.55016
-277.34375	16.28866	29.77698	7.59298	7.29687
-273.43750	11.85497	20.10542	6.78533	12.13146
-269.53125	11.04763	12.04562	5.17188	18.17470
-265.62500	-0.23596	5.19446	4.36423	14.54760
-261.71875	0.56828	4.38722	10.80937	9.30880
-257.81250	5.80473	7.20644	16.85168	0.84657
-253.90625	1.37084	6.39936	13.62638	-6.00404
-250.00000	-0.24244	-0.85470	13.22150	-4.39309
-246.09375	-8.30266	-4.48247	10.80198	-4.79688
-242.18750	4.18651	2.76894	-7.73468	0.44035
-238.28125	14.66104	7.60279	-12.57164	2.45412
-234.37500	1.76548	2.76630	9.58772	2.05024
-230.46875	7.00175	-5.69662	22.07662	2.04927
-226.56250	13.84976	-10.13007	17.23966	3.25716
-222.65625	10.22167	1.55365	4.34416	12.12076
-218.75000	8.60819	14.04323	-5.73088	10.91105
-214.84375	10.21817	21.69761	8.36993	0.03101
-210.93750	-2.67739	23.30794	19.24715	-0.37277
-207.03125	-7.11125	14.84506	28.51263	0.83517
-203.12500	3.36323	7.59093	28.91360	16.54855
-199.21875	5.37602	13.23063	7.15340	18.56227
-195.31250	4.16533	16.45281	-10.98036	6.87632
-191.40625	-1.88047	8.39283	-1.71478	8.89000
-187.50000	10.60856	7.58547	13.59479	23.39451
-183.59375	11.41250	18.86608	-1.71845	7.67920
-179.68750	-3.90084	9.59717	0.69739	0.42541
-175.78125	-11.96128	-14.98304	8.35135	12.91513
-171.87500	-16.79836	1.53572	-16.63216	-0.78561
-167.96875	0.12278	3.95191	-6.15787	4.85432
-164.06250	21.07314	-2.49640	24.46285	16.53808
-160.15625	13.01258	20.06630	23.25208	2.03144
-156.25000	-16.80631	24.09426	23.65307	-18.51912
-152.34375	-20.43473	17.24298	28.08335	-16.90849
-148.43750	6.55965	1.12436	31.30482	5.65442
-144.53125	18.24266	-34.33500	10.35054	36.67879
-140.62500	17.43478	-31.11306	-15.43896	41.10978
-136.71875	23.47663	0.31393	18.80809	38.28801
-132.81250	25.48922	5.55043	49.02585	43.92785
-128.90625	31.53111	1.11669	31.69785	55.20866
-125.00000	29.51426	-7.34640	38.94851	53.59570
-121.09375	16.61833	-9.36261	29.67909	38.28299
-117.18750	25.07786	0.30624	6.30722	47.14629
-113.28125	37.16369	-8.96254	-6.58857	62.45639
-109.37500	32.72930	-24.67820	5.90023	67.29026
-105.46875	27.08617	-9.36831	20.80665	68.90077
-101.56250	8.95216	-0.50533	27.25149	38.67973
-97.65625	-3.54076	-6.95363	55.05172	6.04108
-93.75000	-4.75163	-11.38729	61.09364	14.50122
-89.84375	-9.58888	-17.43277	36.91572	23.76724
-85.93750	2.89980	-10.98738	-4.18532	10.87217
-82.03125	2.49464	8.35187	-11.84325	5.63271
-78.12500	-8.38663	16.00595	16.35970	-3.63611
-74.21875	4.90788	12.37804	31.66898	8.85333
-70.31250	2.89100	7.54125	39.72554	16.50763
-66.40625	6.91809	10.76310	46.57331	14.89456
-62.50000	27.46530	10.76153	40.93018	28.18988
-58.59375	10.13712	-8.58066	20.37872	23.75625
-54.68750	13.76127	-10.19390	7.48288	22.14309
-50.78125	37.93482	-1.73401	10.30136	34.63245
-46.87500	12.54796	-3.75019	-10.25012	12.87277
-42.96875	-14.85358	4.70980	-12.66972	-17.34848
-39.06250	-5.18546	27.27223	7.87763	-8.48549
-35.15625	9.31778	8.33287	14.72513	4.80981
-31.25000	12.13600	-34.37947	20.36384	10.85235
-27.34375	32.68307	-26.32258	32.04657	25.75940
-23.43750	35.09828	-5.37189	14.31542	22.93753
-19.53125	17.76999	17.59349	-20.33887	11.65400
-15.62500	2.85917	11.95084	-16.71469	-6.88228
-11.71875	1.24499	30.88697	-29.61065	-11.31601
-7.81250	-12.45684	8.32121	-51.77390	-25.82296
-3.90625	6.88160	-29.15298	17.12516	-8.09551
0.00000	29.04042	0.25921	62.65428	18.89933
3.90625	-3.19637	-12.23335	17.92679	-26.23027
7.81250	45.15300	4.28523	23.56559	24.13452
11.71875	41.12152	-11.02781	14.69892	39.84733
15.62500	14.52588	-24.72916	-13.10541	2.77623
19.53125	21.37337	10.32399	-23.98673	5.19226
23.43750	-18.92190	27.24535	-34.46512	-19.79089
27.34375	-48.74100	-33.19581	-33.25842	-52.42978
31.25000	-20.13530	-71.47583	-11.09946	-27.04675
35.15625	28.21401	18.37592	38.45883	28.95907
39.06250	-21.75167	32.87967	11.46029	-24.22925
42.96875	-45.12404	-3.38577	-28.83507	-51.63011
46.87500	-21.35354	-30.78672	-6.67618	-24.63534
50.78125	18.13130	-14.26828	41.67315	17.67075
54.68750	14.50262	-2.58506	11.85404	25.32484
58.59375	-53.19224	-67.45866	-61.48155	-49.62188
62.50000	-57.62699	-25.95868	-34.08461	-52.84701
66.40625	-59.24107	-5.81401	-26.43117	-46.40181
70.31250	-101.55132	-77.13442	-56.25023	-90.32296
74.21875	-60.05206	-29.18751	-22.80925	-41.97300
78.12500	-22.17914	22.78862	-5.08262	6.77984
82.03125	-101.15601	-34.83231	-55.85400	-67.36114
85.93750	-192.62370	-104.54099	-105.41660	-160.43980
89.84375	-249.84233	-187.54625	-127.57999	-195.49644
93.75000	-175.70560	-140.80804	-101.79478	-93.15390
97.65625	-186.18434	-107.76961	-142.49318	-85.09714
101.56250	-353.00006	-267.33206	-266.59821	-266.01465
105.46875	-413.03922	-357.59039	-331.47232	-346.19962
109.37500	-378.38977	-295.54095	-285.13760	-300.67029
113.28125	-493.22733	-368.87613	-361.69666	-415.50726
117.18750	-581.87451	-462.76077	-462.43164	-521.07684
121.09375	-581.47418	-468.40366	-486.60977	-517.04932
125.00000	-603.23486	-509.10159	-541.00757	-538.80927
128.90625	-708.80505	-617.89471	-622.80475	-655.66071
132.81250	-786.17010	-702.91492	-676.39685	-744.71002
136.71875	-724.52429	-667.05591	-658.67023	-677.01947
140.62500	-774.89307	-737.57062	-750.54083	-750.35461
144.53125	-830.50006	-813.32355	-786.80719	-810.39301
148.43750	-743.46967	-702.11676	-669.95996	-707.64752
152.34375	-747.90448	-699.29816	-691.72070	-738.67493
156.25000	-820.43457	-806.47955	-790.84375	-815.63647
160.15625	-823.25775	-810.51074	-802.12811	-819.66766
164.06250	-788.60840	-700.91571	-741.69110	-788.64392
167.96875	-736.63306	-648.53662	-699.38599	-749.15869
171.87500	-770.07886	-719.05133	-742.90509	-787.43903
175.78125	-750.74078	-713.41235	-740.89294	-775.35297
179.68750	-709.24164	-667.48041	-705.43756	-737.88239
183.59375	-798.29199	-736.78650	-761.85028	-803.96497
187.50000	-803.12976	-753.71161	-750.16766	-812.02551
191.40625	-743.49872	-718.65863	-709.07117	-774.95795
195.31250	-715.29620	-694.08197	-721.16144	-744.73999
199.21875	-703.61377	-684.41370	-743.32501	-741.11554
203.12500	-736.25385	-718.26172	-727.61322	-782.21637
207.03125	-773.72913	-752.10980	-732.45093	-805.58838
210.93750	-801.53412	-780.31689	-763.47906	-818.88708
214.84375	-743.51495	-740.83173	-720.36804	-804.38367
218.75000	-669.37854	-696.51141	-673.63062	-747.16962
222.65625	-642.78796	-696.11047	-699.82361	-705.66980
226.56250	-609.75037	-662.26636	-689.34985	-686.33118
230.46875	-652.46356	-679.99719	-697.00793	-725.41736
234.37500	-682.28320	-725.12732	-709.50128	-757.65381
238.28125	-641.99286	-675.97192	-675.65771	-717.76563
242.18750	-644.41321	-631.65173	-671.63104	-710.91785
246.09375	-612.18164	-615.93945	-625.29669	-675.46204
250.00000	-579.14404	-603.85352	-607.16724	-643.63263
253.90625	-583.57898	-606.67609	-623.68976	-647.26099
257.81250	-569.47913	-581.69647	-597.50165	-627.11658
261.71875	-563.84094	-588.95135	-585.41626	-636.78888
265.62500	-518.71539	-601.04126	-565.27240	-608.98865
269.53125	-459.08447	-521.66602	-525.38483	-538.47784
273.43750	-518.31805	-512.40076	-546.74274	-587.63745
277.34375	-519.12671	-528.92316	-548.35706	-596.90692
281.25000	-432.90250	-475.73846	-485.50241	-514.30823
285.15625	-431.29364	-478.15805	-473.41711	-499.80478
289.06250	-456.68106	-482.18942	-494.77518	-503.43329
292.96875	-451.84885	-438.27225	-500.41910	-497.39157
296.87500	-442.58444	-421.75439	-481.08121	-509.88470
300.78125	-425.26135	-419.74194	-451.66992	-497.79895
304.68750	-389.80652	-405.23859	-429.10822	-459.52280
308.59375	-361.20154	-384.28824	-398.89072	-438.16968
312.50000	-335.81989	-363.33801	-371.89682	-411.98145
316.40625	-305.20007	-350.04355	-352.96182	-378.13757
320.31250	-273.37152	-330.70511	-335.63858	-345.09958
324.21875	-238.31953	-281.14691	-317.91241	-299.16779
328.12500	-199.64120	-236.82675	-270.36945	-266.53271
332.03125	-158.14246	-219.09991	-203.08302	-229.06245
335.93750	-117.04659	-174.77969	-147.07854	-181.11591
339.84375	-69.50376	-103.06030	-97.92363	-129.94601
343.75000	-14.30518	-59.94897	-57.63323	-71.52340
347.65625	17.92635	-29.32828	-41.92171	-32.44142
351.56250	52.17245	2.50104	-10.89888	-2.62676
355.46875	81.98629	25.46579	22.54161	35.64935
359.37500	116.23229	46.41597	50.34110	71.10500
363.28125	140.00197	66.56026	87.81097	93.66665
367.18750	144.83397	83.88401	107.95482	106.96084
371.09375	151.68082	101.61072	117.62247	120.65826
375.00000	160.94550	108.45847	127.29015	139.59393
378.90625	160.13693	123.76788	132.92859	150.06813
382.81250	154.49342	131.82440	138.16411	142.81352
386.71875	151.26768	130.21033	138.56432	144.82655
390.62500	136.35669	134.64021	136.54681	143.61600
394.53125	139.98036	139.47304	135.73822	143.21118
398.43750	145.61880	133.02370	131.30316	150.86507
402.34375	151.65994	129.39500	134.12083	150.05731
406.25000	148.43367	121.73701	136.93854	138.77304
410.15625	125.06094	111.25855	134.11531	135.54742
414.06250	125.86368	124.55314	121.62176	138.36568
417.96875	124.65160	146.71231	115.17204	141.98949
421.87500	124.24537	145.50142	118.39271	133.92827
425.78125	127.06252	137.03754	133.70143	124.65820
429.68750	118.19461	137.43803	130.47522	124.65547
433.59375	107.31209	135.82405	108.71413	117.40005
437.50000	106.09998	127.76328	99.44382	115.38286
441.40625	116.16991	121.31417	107.49955	116.99197
445.31250	124.62811	120.50574	109.91428	129.88322
449.21875	125.43056	101.56542	92.58543	129.88062
453.12500	117.36857	99.54823	95.80602	120.61054
457.03125	113.73896	123.31871	112.32327	117.38446
460.93750	129.04698	128.15154	101.44122	119.39643
464.84375	122.59669	114.85258	77.26244	117.37915
468.75000	102.04397	105.98582	60.33641	108.51206
472.65625	107.68172	104.77480	77.25661	107.30070
476.56250	99.61976	110.41352	117.54681	103.26881
480.46875	95.18431	117.66383	132.45244	102.05747
484.37500	100.41911	124.51116	131.24081	110.51646
488.28125	103.23621	123.70280	121.97060	114.14021
492.18750	102.82992	117.65643	111.89453	108.89952
496.09375	101.61782	114.83362	108.26524	107.28529
500.00000	109.67307	105.56387	102.62131	106.87973
503.90625	114.50482	97.50278	87.71008	108.08588
507.81250	104.02526	107.57357	75.61929	105.66560
511.71875	99.58964	105.15341	78.43698	98.41019
515.62500	84.27495	95.07780	84.47787	93.57240
519.53125	79.43655	101.52225	91.32448	104.04604
523.43750	88.29778	114.01044	94.94770	120.16071
527.34375	88.29452	116.82848	86.08021	108.07026
531.25000	103.19968	109.57336	98.16531	112.09698
535.15625	98.36108	102.72112	84.05979	120.15289
539.06250	82.64347	102.71877	43.36099	104.03306
542.96875	86.26643	80.55524	76.80132	96.77774
546.87500	77.39862	74.10610	111.85342	87.10474
550.78125	66.91906	109.15890	103.79187	78.23757
554.68750	72.55665	118.42392	104.99757	82.66708
558.59375	77.38847	113.98920	102.57680	83.06742
562.50000	84.63787	108.34558	93.70936	83.06482
566.40625	82.61996	97.06086	91.28894	84.67390
570.31250	87.04883	99.47574	94.91259	89.50644
574.21875	101.14799	109.14346	88.05989	101.59164
578.12500	105.17386	105.51472	72.34267	96.75385
582.03125	93.88835	94.23038	75.16011	84.66329
585.93750	93.07905	88.58698	88.85674	89.49586
589.84375	101.53710	95.03141	98.92701	93.92535
593.75000	94.68385	104.69920	88.44787	95.93734
597.65625	94.68047	99.45866	73.53641	100.76984
601.56250	102.73570	84.14462	83.20367	108.82574
605.46875	99.10593	86.15672	96.49731	113.65814
609.37500	93.05848	104.28630	94.88255	101.56754
613.28125	91.84615	114.35704	77.15046	95.52085
617.18750	95.87193	115.96625	79.16212	107.20305
621.09375	100.30076	111.12859	92.45602	110.82663
625.00000	97.87971	107.90273	86.00628	99.94475
628.90625	105.12881	106.28848	86.00334	95.10660
632.81250	108.34859	97.42147	96.87952	110.81793
636.71875	100.68928	94.19580	100.09991	116.85900
640.62500	91.82131	91.37290	94.45572	94.29208
644.53125	88.19134	82.50593	92.43799	85.02184
648.43750	86.97879	86.53249	95.25549	91.86868
652.34375	94.22774	93.78241	75.91199	103.14774
656.25000	107.92349	90.15327	53.74794	110.39737
660.15625	89.38481	99.82104	67.04171	103.94731
664.06250	78.09881	103.04192	97.25826	85.81210
667.96875	88.16801	87.32502	108.53721	84.59993
671.87500	84.94053	84.09908	94.02876	82.98499
675.78125	82.51896	94.57269	89.99651	77.74361
679.68750	80.09730	86.10856	96.44068	84.18719
683.59375	84.52561	81.27081	95.63197	82.16930
687.50000	82.50703	93.35598	88.77908	81.36023
691.40625	72.42981	94.15916	81.12027	84.17749
695.31250	73.63482	85.69507	81.11716	89.41246
699.21875	93.77759	70.78398	76.27896	111.97357
703.12500	101.42944	51.03749	64.18794	120.43209
707.03125	78.86161	64.73440	69.02006	105.11773
710.93750	75.63448	92.53406	91.98407	92.62386
714.84375	76.83965	103.41070	93.59280	78.11529
718.75000	82.07415	97.36399	82.30771	84.96213
722.65625	109.46980	88.09377	78.27522	108.73206
726.56250	136.46257	94.13495	80.28652	134.51668
730.46875	142.90601	96.14675	81.08897	149.82529
734.37500	148.94658	84.45898	74.23585	151.03128
738.28125	158.21040	82.84459	72.21801	161.10175
742.18750	154.58060	85.66260	74.63252	168.35168
746.09375	153.36852	86.06287	77.85298	168.34904
750.00000	154.17104	83.23965	80.26745	164.31702
753.90625	149.73538	75.98438	86.71114	162.70244
757.81250	161.81979	80.01120	80.66393	158.67032
761.71875	164.63678	88.46997	63.33461	156.24982
765.62500	146.90445	62.27658	61.71950	160.67921
769.53125	136.02184	45.75354	66.95432	150.20021
773.43750	120.30407	79.19389	71.78621	132.46846
777.34375	113.45074	105.38152	68.55939	125.21283
781.25000	119.49115	99.33469	62.91491	127.62754
785.15625	108.20564	89.25861	58.88221	124.40122
789.06250	97.32292	84.42078	68.95219	126.41302
792.96875	100.13985	84.82106	76.60468	127.21593
796.87500	94.49526	80.38608	70.55771	118.34851
800.78125	83.20965	65.87771	71.76321	114.71910
804.68750	85.22068	66.68065	70.55103	115.52201
808.59375	87.63464	75.13931	63.69794	113.10133
812.50000	82.79568	67.88370	62.88864	104.23371
816.40625	83.19498	44.10808	69.33224	109.87167
820.31250	77.14740	51.35810	70.94067	111.48019
824.21875	67.47327	75.12826	76.57824	102.20959
828.12500	68.27518	80.36366	68.51619	96.16233
832.03125	65.04781	71.89931	53.60414	92.93559
835.93750	61.01469	70.28477	56.01813	85.27668
839.84375	61.01080	88.41378	57.62644	79.63231
843.75000	62.21575	77.53181	64.47284	91.31403
847.65625	68.25573	55.36777	57.21688	92.11649
851.56250	57.77542	62.61769	50.76692	74.38406
855.46875	50.51867	70.27052	65.67216	77.60408
859.37500	47.29118	65.43234	74.53326	80.42119
863.28125	44.46666	56.16187	63.24768	74.77676
867.18750	42.04509	59.38235	49.54435	73.56454
871.09375	40.02651	41.65067	49.94371	74.77002
875.00000	45.26068	25.53089	58.40189	75.97551
878.90625	39.61566	46.07765	70.88935	71.94276
882.81250	42.43219	46.88060	70.88595	73.55117
886.71875	43.63706	42.04249	61.21231	68.71278
890.62500	32.75380	60.57422	47.91235	65.48596
894.53125	30.33215	75.88249	33.40348	67.09418
898.43750	33.55159	71.85021	47.90535	67.49368
902.34375	40.39737	62.57973	45.88713	66.68435
906.25000	45.63149	54.11520	30.97529	61.44299
910.15625	37.16604	25.10136	40.64219	62.64845
914.06250	28.29771	28.32174	43.86220	63.45108
917.96875	27.89076	63.77647	38.21758	52.16568
921.87500	25.46912	69.01166	46.67551	49.34185
925.78125	24.25635	50.47398	64.40096	44.10036
929.68750	30.29619	44.42708	59.56241	46.11157
933.59375	42.37996	57.72100	39.41256	57.39017
937.50000	40.36117	52.88287	35.38005	56.98384
941.40625	39.55123	39.18015	43.03233	63.42730
945.31250	31.89146	22.65693	54.71352	60.20044
949.21875	32.29033	9.76022	65.58917	52.13838
953.12500	38.33019	28.69491	59.94489	57.37307
957.03125	23.82056	46.01791	47.04785	52.13156
960.93750	27.84580	60.11728	45.83552	42.45787
964.84375	28.64756	68.97854	43.41433	38.42510
968.75000	27.03170	62.93139	17.22040	39.22742
972.65625	26.22170	56.88448	3.11450	50.10294
976.56250	37.49962	45.19680	16.00491	46.47301
980.46875	39.51015	32.70310	30.50692	36.39629
984.37500	28.22396	30.28230	40.97940	38.81038
988.28125	28.62271	28.26439	43.39326	48.88011
992.18750	15.32187	29.87290	52.25410	44.84718
996.09375	20.15285	42.36064	49.83281	37.18803
1000.00000	34.65417	44.77520	44.99395	48.86946
1003.90625	32.63531	19.38749	49.82545	56.11862
1007.81250	23.36373	20.99605	57.88060	45.23586
1011.71875	21.34496	45.16864	51.43037	43.62060
1015.62500	27.38491	33.07751	32.08630	48.04941
1019.53125	26.97793	29.85092	26.03886	41.59916
1023.43750	15.28873	47.97968	19.58840	33.94001
1027.34375	12.86702	57.24406	17.97316	36.35419
1031.25000	23.74202	20.17147	26.43123	38.76820
1035.15625	27.76708	4.85691	33.68050	33.52660
1039.06250	22.92775	42.72907	36.90035	26.27048
1042.96875	22.92365	51.99302	43.74665	32.71397
1046.87500	25.74013	8.87606	43.74303	44.79839
1050.78125	19.69208	4.84327	38.90418	41.57154
1054.68750	25.73183	43.92414	45.34748	28.27127
1058.59375	28.54812	50.36772	52.59657	32.29705
1062.50000	16.45595	35.45602	38.08747	40.35217
1066.40625	14.03398	43.91442	23.98131	32.28985
1070.31250	12.41803	62.44608	36.06560	27.04828
1074.21875	5.56400	52.36950	40.89719	30.26826
1078.12500	7.97744	35.04017	34.44669	33.89119
1082.03125	18.85241	28.99294	29.20498	40.33446
1085.93750	17.23641	19.31918	24.76911	41.13670
1089.84375	15.21761	18.91297	23.55666	28.64239
1093.75000	18.03393	29.78868	22.34416	27.02720
1097.65625	16.41795	-2.04636	15.89352	33.06754
1101.56250	24.06938	-1.64680	14.68094	27.82587
1105.46875	20.43870	41.46362	28.77956	22.18124
1109.37500	10.36103	25.74616	31.19323	22.58048
1113.28125	11.16248	5.59639	25.54840	18.14454
1117.18750	4.71133	34.60416	29.17116	11.69404
1121.09375	8.33348	52.73272	28.36165	16.52561
1125.00000	17.99944	45.47667	36.41663	31.83327
1128.90625	6.31015	37.01177	40.84506	34.24710
1132.81250	4.69408	39.42598	34.79739	25.78183
1136.71875	14.36018	29.34937	38.82310	20.94295
1140.62500	18.38514	15.64631	23.91099	29.80378
1144.53125	20.39540	-5.71251	5.37224	34.63523
1148.43750	24.82335	-10.95392	23.50027	33.42268
1152.34375	33.28061	27.72406	38.40508	33.01602
1156.25000	25.62064	48.67324	13.01663	36.63863
1160.15625	18.36360	32.55288	9.78918	39.85840
1164.06250	21.17979	26.50564	31.54356	34.61666
1167.96875	13.51979	47.05172	39.19558	30.18062
1171.87500	16.73883	47.85406	39.19172	29.77390
1175.78125	19.15191	37.37442	37.97888	32.99352
1179.68750	17.93873	36.56511	39.18377	28.96042
1183.59375	31.63409	20.04150	42.80639	32.58303
1187.50000	34.04726	20.84394	38.37033	37.81731
1191.40625	40.89251	-0.51483	20.23467	32.17234
1195.31250	56.19930	-45.64641	17.00759	41.83881
1199.21875	41.28638	23.65421	2.49818	44.25257
1203.12500	24.76176	78.04660	0.47958	28.53449
1207.03125	20.72802	61.12028	22.63704	15.63695
1210.93750	20.32069	46.20836	33.10925	14.42443
1214.84375	23.13685	32.90804	30.28461	14.01762
1218.75000	21.11778	26.05446	31.89241	16.43138
1222.65625	23.53101	22.42448	37.52974	21.66576
1226.56250	32.39116	22.82415	33.09370	26.09420
1230.46875	33.59567	29.26772	-1.15924	30.52265
1234.37500	35.60598	12.74414	-9.62469	36.56280
1238.28125	34.79570	-13.04685	26.63521	42.20003
1242.18750	27.13552	3.06701	35.49584	34.54049
1246.09375	14.23723	22.00146	19.77759	24.86637
1250.00000	29.94697	32.07147	27.83221	39.77098
1253.90625	35.18060	32.87377	49.98949	43.79638
1257.81250	3.74750	37.70525	35.48018	15.99034
1261.71875	8.17523	54.62466	24.19415	22.43341
1265.62500	4.14148	48.98022	33.45749	22.42955
1269.53125	12.19566	34.06831	41.10923	26.05200
1273.43750	39.99339	22.37978	40.70238	39.34486
1277.34375	20.24535	30.83776	25.79012	14.35931
1281.25000	-34.55753	22.77554	14.90711	-34.80208
1285.15625	-68.81108	-0.19500	16.51510	-69.45802
1289.06250	-85.33574	29.61848	15.30246	-86.38498
1292.96875	-129.66257	43.71761	-8.07158	-129.90538
1296.87500	-163.91605	18.73234	-24.19281	-166.17302
1300.78125	-185.67874	17.11698	-6.06500	-193.97911
1304.68750	-234.43785	30.41013	-0.83111	-250.79611
1308.59375	-258.21524	29.19786	13.67019	-274.16989
1312.50000	-260.63733	27.98555	11.24864	-277.39725
1316.40625	-279.57968	28.38486	2.38031	-298.35361
1320.31250	-302.95425	26.76958	10.43510	-313.26605
1324.21875	-314.24094	28.37778	2.77551	-333.41666
1328.12500	-311.82806	-5.87479	-0.04885	-341.47943
1332.03125	-329.56180	-13.53402	-10.93208	-352.36270
1335.93750	-348.50409	40.45508	-6.50391	-361.63416
1339.84375	-337.22647	27.55767	7.19180	-349.95313
1343.75000	-326.35172	2.97532	-1.67671	-352.37442
1347.65625	-327.16190	23.92428	1.54261	-355.60156
1351.56250	-317.09293	31.57654	2.34421	-351.97882
1355.46875	-303.39749	40.43755	19.66615	-345.93851
1359.37500	-292.92557	44.86620	42.22658	-336.67471
1363.28125	-289.30347	30.35697	32.55253	-330.23154
1367.18750	-300.99274	8.59497	9.98437	-339.09979
1371.09375	-296.16190	15.44112	2.72763	-339.90933
1375.00000	-284.88431	30.34610	16.42363	-330.24277
1378.90625	-285.69461	25.10459	34.14876	-322.99390
1382.81250	-281.26682	23.08641	30.11540	-312.52161
1386.71875	-279.65945	14.21822	19.23221	-306.48145
1390.62500	-274.82874	10.58813	34.53956	-296.41211
1394.53125	-271.20688	3.33175	42.19120	-291.58084
1398.43750	-269.59976	-3.52165	37.75476	-283.12317
1402.34375	-265.57504	-11.98695	18.40990	-268.21866
1406.25000	-259.53558	-5.94681	10.75007	-255.73178
1410.15625	-247.04939	11.37566	34.51898	-244.45375
1414.06250	-251.08331	11.37218	40.96193	-248.48711
1417.96875	-252.69962	12.57768	38.54033	-248.49117
1421.87500	-241.82510	-15.63088	42.16265	-235.19852
1425.78125	-223.69775	-9.18773	45.38194	-225.93518
1429.68750	-206.77917	13.77542	42.96009	-206.59859
1433.59375	-183.81662	4.50424	32.88265	-186.45593
1437.50000	-174.95663	14.57374	32.87859	-187.26566
1441.40625	-189.86963	6.91422	39.72437	-199.76050
1445.31250	-177.78633	-1.95391	40.52608	-190.09427
1449.21875	-170.13538	1.66888	44.55133	-176.80157
1453.12500	-147.97881	-1.15507	50.59117	-151.82390
1457.03125	-148.78920	-8.00834	45.34879	-155.85721
1460.93750	-159.67285	-10.42957	53.80616	-161.50217
1464.84375	-125.83119	-16.88028	49.36979	-132.09224
1468.75000	-110.12160	-8.01956	40.90410	-125.64946
1472.65625	-115.36436	-1.97919	53.79362	-130.48875
1476.56250	-127.05403	-10.04139	58.22138	-135.73105
1480.46875	-107.31522	-7.62726	52.57593	-115.58873
1484.37500	-87.57635	-7.63079	41.28952	-91.41721
1488.28125	-88.38702	-11.26079	32.42081	-86.98924
1492.18750	-92.01812	-31.00801	25.16385	-90.21699
1496.09375	-81.54665	-22.55007	40.87396	-83.37148
1500.00000	-62.21085	10.88955	59.40460	-66.04979
1503.90625	-61.81276	6.85660	54.96817	-60.01011
1507.81250	-69.47321	-7.24942	55.76986	-65.65543
1511.71875	-45.30211	-4.02942	55.36252	-55.58633
1515.62500	-30.39838	-2.01846	51.32869	-30.60886
1519.53125	-45.31149	-13.30433	44.87729	-35.44827
1523.43750	-31.21366	-37.88684	44.06699	-27.79682
1527.34375	-34.84483	-25.80272	35.60106	-30.62167
1531.25000	-38.87902	6.42785	40.83487	-41.10217
1535.15625	-28.81063	0.78317	52.51562	-23.37752
1539.06250	-38.48578	-10.09964	37.20000	-19.75550
1542.96875	-35.67010	-1.23882	24.70475	-18.55109
1546.87500	-24.39299	2.78682	42.42930	-9.28813
1550.78125	-26.41255	-11.31939	53.70711	-2.03978
1554.68750	-38.10241	-14.54662	46.04718	-15.74380
1558.59375	-29.64580	-12.93871	55.71320	-11.71892
1562.50000	-21.18918	-13.74831	53.69416	0.76751
1566.40625	-22.80587	-11.73742	22.66416	-9.71311
1570.31250	9.02062	-5.69716	18.63049	12.44361
1574.21875	3.77744	-15.37113	43.60795	16.46840
1578.12500	-27.65623	-47.60936	33.12771	4.77900
1582.03125	-19.60265	-29.07840	11.76836	10.81846
1585.93750	-4.69918	2.34627	33.92519	12.02274
1589.84375	-11.55400	9.99817	52.05252	13.22699
1593.75000	-9.94717	14.02374	46.00402	18.05775
1597.65625	-7.93753	-0.88836	37.13507	19.26205
1601.56250	-11.16596	-8.14476	37.93659	20.46630
1605.46875	14.61676	-8.14854	27.05320	33.35569
1609.37500	24.68516	-11.77879	16.16983	32.94829
1613.28125	6.14541	-3.32116	41.95316	21.25893
1617.18750	-1.91817	4.33066	36.71079	16.01639
1621.09375	-6.75826	2.71516	7.69543	6.34157
1625.00000	-7.97205	-9.77960	21.79368	13.18689
1628.90625	-4.75358	-10.58933	33.07145	14.39121
1632.81250	-7.57908	16.40326	21.78500	-4.55099
1636.71875	-5.56938	10.75854	14.52776	3.50318
1640.62500	12.55752	6.72549	10.89697	17.60118
1644.53125	5.70267	14.78024	24.99508	11.95568
1648.43750	-14.85182	15.98516	29.42290	8.72778
1652.34375	-13.24499	14.36953	16.92770	1.87352
1656.25000	-12.84704	16.78314	14.10291	-0.14559
1660.15625	-6.80806	25.24084	17.32207	7.50557
1664.06250	5.27477	29.66925	21.34710	21.20072
1667.96875	-4.40058	32.08289	12.88126	10.31713
1671.87500	-8.43498	22.00564	8.44464	6.28332
1675.78125	14.52700	32.07519	15.29008	28.03706
1679.68750	31.84807	48.18854	3.19775	24.00330
1683.59375	12.09952	36.09663	0.37286	17.95493
1687.50000	-4.82851	42.13653	0.77137	17.54759
1691.40625	2.41922	54.62336	6.00492	9.08157
1695.31250	8.86111	54.61949	21.71475	13.10643
1699.21875	12.88544	48.57182	27.75420	12.69921
1703.12500	4.01607	42.12111	17.27354	6.24796
1707.03125	4.41416	46.14659	2.76371	3.42309
1710.93750	14.07941	55.00704	0.34186	-1.81951
1714.84375	11.25382	46.94427	-5.30351	-12.30024
1718.75000	16.48684	47.34319	3.15385	-3.44030
1722.65625	5.19976	61.03901	9.19372	-7.07110
1726.56250	6.40354	56.20002	-11.35995	-7.07553
1730.46875	24.93328	62.24002	-25.06408	5.81375
1734.37500	14.45208	55.78924	-10.16019	-9.50208
1738.28125	18.87938	47.32378	4.34073	-13.13291
1742.18750	16.85966	60.21354	3.53039	-11.92875
1746.09375	24.91311	65.44761	9.56987	-5.48651
1750.00000	45.86039	49.72945	7.55078	-1.46180
1753.90625	36.99082	42.87575	-10.98829	-3.07806
1757.81250	29.73299	56.57149	-19.45406	-3.08259
1761.71875	37.38370	44.07670	-13.81746	-1.47530
1765.62500	35.36420	42.05816	-16.23960	3.75839
1769.53125	34.15045	75.49745	-28.33216	6.97735
1773.43750	35.35413	87.58134	-27.12792	8.98741
1777.34375	35.75200	72.26606	-10.20922	2.13298
1781.25000	36.95564	45.26575	-2.55777	-9.15366
1785.15625	38.96517	28.74164	-19.88814	-9.56126
1789.06250	43.39233	28.73763	-44.06849	0.10443
1792.96875	38.55211	25.91299	-46.89367	-7.55585
1796.87500	25.65323	33.96774	-25.54277	-10.78382
1800.78125	15.97785	39.20200	-16.27977	-10.78833
1804.68750	17.58447	53.70355	-11.04619	-20.46315
1808.59375	19.99705	77.87542	-26.76500	-22.07948
1812.50000	17.17141	69.00700	-51.75111	-18.45763
1816.40625	32.47769	34.35088	-38.86165	-7.58309
1820.31250	41.73994	41.19670	-42.49232	3.69428
1824.21875	46.97289	73.42719	-48.13776	-1.14554
1828.12500	63.08492	54.88831	-30.41342	-3.97068
1832.03125	78.79406	13.38235	-31.62683	18.58877
1835.93750	71.53615	-0.72428	-43.31639	30.26920
1839.84375	71.93396	39.16182	-40.09748	32.68216
1843.75000	92.07528	65.34825	-25.99953	47.18297
1847.65625	110.20201	67.35888	-37.68914	59.66908
1851.56250	135.58142	35.12043	-39.70823	79.00512
1855.46875	150.48468	9.73173	-32.45981	98.34114
1859.37500	164.17921	40.75338	-48.98416	120.90065
1863.28125	180.69414	43.97291	-46.97372	144.66891
1867.18750	181.89780	33.08985	-29.24929	157.55800
1871.09375	199.62149	34.29457	-27.64226	180.11739
1875.00000	239.10350	28.24643	-38.92894	214.36189
1878.90625	255.21556	8.90168	-44.17157	241.75642
1882.81250	260.85147	-34.21606	-48.60834	257.46606
1886.71875	286.63370	-42.27882	-51.43336	277.60785
1890.62500	303.55148	-5.61637	-43.37948	305.80832
1894.53125	306.76962	8.48187	-28.87882	320.30899
1898.43750	316.43448	-10.46016	-26.86892	330.78040
1902.34375	330.93454	-34.64021	-33.72329	347.69852
1906.25000	340.59940	-34.24164	-22.84859	365.01962
1910.15625	344.22046	-32.23126	-8.75055	371.86450
1914.06250	351.06485	-38.27935	-9.15815	377.90356
1917.96875	340.98633	-35.06015	-14.40093	382.73386
1921.87500	330.10190	-33.85567	-2.31768	371.85001
1925.78125	326.87314	-43.93317	10.57145	374.26282
1929.68750	324.85315	-83.42451	9.76087	373.45206
1933.59375	325.65363	-87.86092	16.20296	369.82086
1937.50000	312.75467	-47.97509	21.83929	366.18958
1941.40625	307.51120	-31.86216	29.08733	360.14081
1945.31250	310.72946	-20.98741	38.35014	356.91260
1949.21875	292.18933	-20.18579	39.55435	342.80527
1953.12500	284.93118	-34.69548	34.31170	330.30966
1957.03125	268.40570	-33.49090	29.06905	313.38174
1960.93750	256.71539	-80.63801	31.07896	306.12405
1964.84375	261.54510	-99.98283	33.49178	307.73102
1968.75000	239.37863	-16.17743	20.19022	294.02646
1972.65625	209.95941	43.85510	4.87401	255.74327
1976.56250	189.80766	45.05965	23.40409	222.69820
1980.46875	188.59343	12.82084	60.46922	213.42587
1984.37500	189.79684	-16.19454	72.55258	209.79457
1988.28125	174.07710	-10.96077	32.25500	189.24022
1992.18750	165.20728	2.73467	-10.46018	183.59424
1996.09375	157.54634	5.95383	12.09923	179.96297
2000.00000	155.12340	-4.12369	40.29959	163.43788
2003.90625	159.55040	-3.72496	37.07146	159.80664
2007.81250	157.53052	3.12065	30.21704	164.63690
2011.71875	151.88419	2.31056	28.19778	150.93243
2015.62500	144.22330	-1.72296	31.01367	133.60165
2019.53125	139.78577	-15.42677	40.67937	130.37344
2023.43750	145.42157	-35.57749	41.48061	131.57747
2027.34375	140.17824	-28.32893	30.99977	128.75215
2031.25000	115.59415	-0.53093	14.87788	117.06229
2035.15625	111.96246	19.20837	4.39700	109.40172
2039.06250	110.74820	30.08312	19.30066	107.38216
2042.96875	96.64011	26.85529	23.32528	105.76550
2046.87500	92.20251	20.00119	19.69427	94.47852
2050.78125	99.44988	9.52074	22.91306	95.68233
2054.68750	115.96455	2.26369	24.52010	112.60045
2058.59375	109.91514	5.07986	-2.48092	98.49294
2062.50000	84.52506	-3.38597	-11.35002	67.86532
2066.40625	77.26691	-10.64294	28.13252	69.06925
2070.31250	74.84390	9.90238	29.33661	67.45263
2074.21875	85.71763	12.31575	11.19998	58.58313
2078.12500	89.33859	-11.46137	17.64212	67.44267
2082.03125	74.42488	-7.03338	24.88999	74.69051
2085.93750	66.36095	13.51182	5.14151	65.41813
2089.84375	63.53502	29.62473	-0.50432	57.75751
2093.75000	61.91781	32.84374	28.50197	54.12601
2097.65625	64.32989	21.15456	47.43521	56.94146
2101.56250	80.44167	11.88304	36.14877	72.65079
2105.46875	67.13961	10.67002	-2.94015	62.16971
2109.37500	43.36142	9.05395	-18.65942	37.18317
2113.28125	47.78825	8.24378	-5.36764	35.96949
2117.18750	55.43855	-15.13051	5.90957	34.75578
2121.09375	48.98624	-20.37299	20.41025	29.10979
2125.00000	47.77202	12.25998	22.42019	30.31364
2128.90625	46.96073	29.58167	18.38629	27.08527
2132.81250	29.22635	27.56259	16.36695	24.66277
2136.71875	22.37117	25.54364	17.57095	22.64314
2140.62500	25.18633	21.51008	26.83349	16.19130
2144.53125	28.80741	8.61202	24.81396	19.81269
2148.43750	31.21958	-11.53888	10.70646	30.68685
2152.34375	38.46688	0.94763	5.06060	33.09942
2156.25000	42.49083	11.01661	2.23542	29.06510
2160.15625	34.82976	-0.26977	1.42491	23.82207
2164.06250	35.63017	5.36689	12.70229	22.20538
2167.96875	36.02766	23.09159	21.15911	24.61796
2171.87500	30.78417	22.28146	8.26061	25.82176
2175.78125	32.39046	11.80084	-0.60874	31.45775
2179.68750	34.80262	5.75241	13.08598	24.19996
2183.59375	27.14144	6.15102	22.34856	12.91288
2187.50000	27.94174	4.53499	21.53805	16.93716
2191.40625	38.41241	4.53062	20.72745	22.17019
2195.31250	31.55717	11.37608	6.61997	30.22371
2199.21875	39.20741	8.55122	-10.30790	40.69497
2203.12500	38.79886	-30.94043	-3.05998	28.19916
2207.03125	18.64673	-18.45407	15.87299	13.68863
2210.93750	10.17983	36.34007	16.27131	1.99866
2214.84375	8.96564	43.58849	13.44609	-1.63269
2218.75000	17.82462	32.70504	7.80020	12.06200
2222.65625	24.26612	15.37465	-10.33656	15.68342
2226.56250	24.26075	14.16146	-22.42949	10.44032
2230.46875	18.61418	17.78344	-11.95816	23.32910
2234.37500	23.04086	2.87043	24.70381	38.63538
2238.28125	26.25882	4.07467	21.87864	20.90136
2242.18750	32.29728	12.53174	-10.76348	13.64357
2246.09375	28.26245	6.88624	9.78109	7.59453
2250.00000	34.70376	-16.89111	44.42818	11.21581
2253.90625	43.15974	-16.49253	48.85548	21.68682
2257.81250	18.57545	4.45556	43.20950	14.02607
2261.71875	8.09379	6.06287	32.72839	12.00628
2265.62500	19.37024	12.10236	30.30600	21.67141
2269.53125	24.19979	13.70969	12.16938	31.33660
2273.43750	7.67406	4.43785	-7.98200	18.84062
2277.34375	17.33883	8.86560	-10.40439	8.76225
2281.25000	27.00359	11.68169	-11.61804	8.75717
2285.15625	10.07512	2.00685	-6.78781	7.54336
2289.06250	13.29303	0.79363	-2.76349	16.40274
2292.96875	22.95793	4.41564	16.16926	26.06803
2296.87500	22.95249	-1.22986	37.11663	23.64537
2300.78125	14.48543	-0.83140	31.87349	13.56703
2304.68750	5.21251	1.17877	21.79520	11.95016
2308.59375	7.22159	-2.85494	11.31413	13.55669
2312.50000	19.70687	-5.67988	-4.00206	20.80429
2316.40625	19.70133	7.61250	-10.85658	19.99325
2320.31250	18.88997	20.90465	6.46481	12.33238
2324.21875	24.92837	15.25898	11.69828	14.34183
2328.12500	24.11686	-4.08616	-2.00613	14.33664
2332.03125	15.64966	-22.22253	1.21235	11.51096
2335.93750	12.82358	-4.90097	27.80070	11.10292
2339.84375	7.98290	22.89676	43.10702	13.51530
2343.75000	5.55976	20.07170	19.73203	11.09256
2347.65625	12.40401	-3.70574	4.01272	15.51962
2351.56250	20.05419	-2.50150	7.63399	24.37897
2355.46875	23.27203	11.59661	13.27003	12.28588
2359.37500	9.96973	3.53351	14.47394	4.22221
2363.28125	-1.31802	-2.51505	-10.10979	13.88734
2367.18750	3.91448	11.98580	-12.53226	14.28499
2371.09375	3.10316	31.32203	17.68271	14.68280
2375.00000	-0.12583	28.09406	15.26033	5.00729
2378.90625	6.31547	2.70478	1.15274	4.19627
2382.81250	15.98018	-23.08737	5.58000	11.44378
2386.71875	15.57155	-21.88309	19.67755	6.60339
2390.62500	1.06038	-0.12932	32.56633	4.58350
2394.53125	2.26354	12.75995	19.66761	4.17529
2398.43750	5.48138	23.63459	4.35140	5.37885
2402.34375	3.86397	29.67398	5.15223	0.53849
2406.25000	18.36382	29.66947	10.38526	8.18893
2410.15625	14.73196	21.60642	8.36557	11.00430
2414.06250	3.04145	16.36383	-0.50392	4.14931
2417.96875	-1.79924	13.94159	-2.92653	6.96464
2421.87500	-3.81946	1.04323	2.30673	2.93011
2425.78125	4.23358	-2.18473	5.52540	1.71607
2429.68750	12.28665	-4.60687	-2.94114	3.32263
2433.59375	7.44591	-0.58217	-6.16978	6.94384
2437.50000	3.81398	22.38035	-3.35453	9.75926
2441.40625	1.39097	24.39051	-8.19488	7.73941
2445.31250	8.63820	28.01237	3.08228	14.98690
2449.21875	18.70586	40.90154	32.89431	33.51644
2453.12500	5.80647	-9.06638	26.03953	19.00576
2457.03125	-5.07821	-46.54337	19.18478	4.89797
2460.93750	-1.86030	5.02715	15.95642	13.35424
2464.84375	6.19274	36.45115	-2.98625	1.26109
2468.75000	5.78415	26.37323	1.84404	-3.98219
2472.65625	2.95804	16.29536	24.40311	4.87700
2476.56250	5.77285	-2.64697	28.02440	10.51275
2480.46875	5.76720	-9.90431	15.52858	9.29873
2484.37500	4.95580	16.68453	8.27081	5.26418
2488.28125	9.78537	22.72392	0.20720	8.48229
2492.18750	11.79431	5.39336	-3.82708	10.89453
2496.09375	17.42954	4.18005	8.25577	6.85984
2500.00000	16.21503	-2.27145	25.17377	6.04873
2503.90625	16.61225	-0.66434	23.55696	11.68448
2507.81250	19.02394	14.23947	11.86687	12.08191
2511.71875	21.83843	17.86114	14.27941	12.07635
2515.62500	21.42944	19.87108	17.49776	15.29415
2519.53125	8.52956	8.58430	-2.65365	7.22985
2523.43750	6.50871	3.74442	-9.10547	6.82111
2527.34375	3.68201	12.20128	-6.28998	13.26220
2531.25000	14.95801	18.64347	9.01647	14.86819
2535.15625	24.62212	16.22115	13.44377	18.48875
2539.06250	2.85775	10.17253	-8.72230	2.76867
2542.96875	-1.98341	3.72096	-13.56252	-0.46048
2546.87500	1.63692	-3.13355	-12.35875	2.35440
2550.78125	12.10705	6.53204	14.63259	0.33411
2554.68750	8.47472	8.94499	38.40045	2.74609
2558.59375	0.81305	4.91108	37.99248	2.74050
2562.50000	10.47747	-1.94338	28.72001	-0.08563
2566.40625	27.79752	-8.39487	10.18006	5.54976
2570.31250	28.19456	7.31473	-3.52457	13.60271
2574.21875	-0.82229	31.08297	-7.55898	-3.32594
2578.12500	8.03614	38.33104	-10.38464	1.50364
2582.03125	26.16200	30.26765	4.51861	18.82408
2585.93750	11.65059	19.78683	25.86873	3.10425
2589.84375	5.19783	11.32070	24.25195	3.90458
2593.75000	14.05641	8.89838	13.36776	11.15181
2597.65625	19.69167	10.50543	12.15385	6.71415
2601.56250	14.44777	9.29204	-2.35672	9.52927
2605.46875	17.26242	8.48146	-13.24081	14.76193
2609.37500	20.48001	2.02998	-2.76966	6.69789
2613.28125	10.40098	1.21937	14.55120	2.26030
2617.18750	22.08029	-11.27624	12.93435	12.73106
2621.09375	38.99765	-19.74247	14.94387	37.70734
2625.00000	24.88937	5.23451	19.77389	33.26968
2628.90625	6.75165	23.36175	6.87492	10.70011
2632.81250	18.83381	30.20678	-2.39777	10.69460
2636.71875	22.05148	29.79912	-10.05855	13.50963
2640.62500	22.04564	24.95918	-14.09289	12.29535
2644.53125	26.47197	15.68710	-1.60709	15.51337
2648.43750	24.85441	14.07072	-2.82096	29.61047
2652.34375	26.05735	17.28946	3.21794	22.35226
2656.25000	28.46901	-12.93503	38.26777	15.89989
2660.15625	20.40464	-22.61005	45.91839	12.67115
2664.06250	18.78715	15.66358	37.45171	8.23357
2667.96875	14.34903	34.99947	20.52358	8.63096
2671.87500	11.92565	27.33909	-3.65712	5.80497
2675.78125	21.59022	11.62019	-29.44992	15.06693
2679.68750	28.03136	5.16853	-24.62001	15.06154
2683.59375	30.04027	20.07211	13.25026	13.04152
2687.50000	23.18468	13.62046	30.97412	7.39518
2691.40625	16.32912	-9.75409	34.99825	1.34581
2695.31250	14.30863	-7.74403	26.12852	2.95214
2699.21875	25.98780	7.56269	10.40902	12.21410
2703.12500	25.98192	16.42245	3.15120	16.23794
2707.03125	22.34963	28.90846	3.95197	13.41202
2710.93750	24.35853	35.75349	8.37911	16.22713
2714.84375	19.11474	31.31653	1.92702	16.62473
2718.75000	20.72075	22.44740	-5.33097	9.76949
2722.65625	22.32671	15.59295	2.72256	15.00224
2726.56250	21.11218	3.09744	16.01429	13.78818
2730.46875	16.27125	-2.14542	19.23270	5.72425
2734.37500	5.78932	5.50550	19.63075	5.71888
2738.28125	11.02170	-1.75207	16.40230	5.31061
2742.18750	31.96820	-16.26238	9.95020	19.40762
2746.09375	31.96216	0.65597	-1.33714	26.25172
2750.00000	32.35922	25.23002	-2.55103	19.39639
2753.90625	28.32412	44.96886	19.20223	14.15291
2757.81250	-2.70751	35.29378	21.21177	7.70040
2761.71875	-3.92237	17.56019	-8.20740	-0.76690
2765.62500	8.15948	21.98774	-7.40661	-1.57843
2769.53125	0.49761	8.68630	19.98758	-3.59889
2773.43750	-1.12034	-13.47963	34.48785	-7.63407
2777.34375	13.37891	-13.88724	42.13839	-1.19311
2781.25000	28.68401	4.64283	16.34583	1.21855
2785.15625	23.03664	11.89080	-13.87909	4.43616
2789.06250	9.73370	18.73589	-0.58754	7.65378
2792.96875	16.57737	18.73125	17.53912	6.84212
2796.87500	34.70306	7.84750	17.13106	9.65681
2800.78125	20.99729	16.70726	-1.81169	0.78654
2804.68750	13.33561	24.35824	-23.97797	10.04817
2808.59375	19.37361	23.14471	-46.54714	27.77152
2812.50000	10.10037	15.48430	-30.83795	13.26051
2816.40625	4.45353	15.47959	17.10563	1.56998
2820.31250	6.05956	10.63971	46.91744	-1.25596
2824.21875	6.05392	4.18800	42.88301	0.35043
2828.12500	5.24231	6.60072	40.46028	3.16568
2832.03125	13.69829	2.56662	43.27574	7.99556
2835.93750	20.13982	-2.27334	18.69201	13.63145
2839.84375	22.14905	0.94519	-1.45967	17.25276
2843.75000	12.87626	-1.07435	-0.25608	16.03891
2847.65625	7.63282	11.41177	-22.42256	14.01927
2851.56250	11.25380	15.83928	-41.36561	9.98493
2855.46875	10.84543	3.74660	-2.28670	9.97985
2859.37500	9.63127	20.26195	36.79230	11.58648
2863.28125	4.38787	27.10697	36.78712	4.73165
2867.18750	1.96507	25.49052	31.94679	5.53251
2871.09375	-3.68130	25.08280	10.58628	4.31871
2875.00000	3.16314	18.22814	-3.92443	2.29909
2878.90625	9.60476	11.77627	14.20224	7.93516
2882.81250	20.47861	4.11556	14.19707	17.60050
2886.71875	30.14345	1.29012	1.70104	14.37200
2890.62500	9.18565	0.88228	-5.55688	6.71117
2894.53125	14.01536	-7.18124	1.28775	6.70599
2898.43750	24.48615	-1.14222	9.74393	1.05984
2902.34375	4.73712	14.16426	8.12692	1.86066
2906.25000	-1.31231	9.32413	8.12161	3.46725
2910.15625	1.09982	8.91638	-6.79219	2.25338
2914.06250	0.28850	9.71733	-21.30303	7.88933
2917.96875	-8.17861	10.11532	-6.39985	12.31643
2921.87500	-20.67507	15.75151	6.89162	8.28187
2925.78125	-28.73931	20.98476	10.10985	5.85909
2929.68750	-9.80710	15.33883	13.73106	28.82088
2933.59375	-14.64783	0.42548	13.32294	14.71296
2937.50000	-41.64971	4.04688	13.31770	-13.90042
2941.40625	-37.62599	4.04196	10.49197	-15.11453
2945.31250	-30.37881	-0.39521	-16.91251	-4.64370
2949.21875	-28.77278	2.01730	-20.94702	2.20067
2953.12500	-25.15207	-3.62865	4.43238	-1.43104
2957.03125	-24.35181	-19.34781	17.72396	4.60762
2960.93750	-26.77498	3.21139	14.09235	4.19935
2964.84375	-25.16891	32.62041	12.07241	14.26727
2968.75000	-9.86327	25.76568	18.51400	12.24720
2972.65625	-4.22792	15.68765	25.35859	0.95971
2976.56250	-3.02481	1.17734	26.56227	8.61002
2980.46875	17.92183	-49.59671	1.57546	25.52769
2984.37500	9.85744	-65.71880	-24.21724	18.67245
2988.28125	-12.30954	9.22136	-18.17852	4.56450
2992.18750	-3.85371	56.35929	-7.30459	13.42355
2996.09375	7.82561	55.54852	18.47772	9.79185
