 	TP9	AF7	AF8	TP10	
-1000.00000	-8.01675	-9.30208	-9.14283	-5.72840
-996.09375	-10.43471	-5.67568	-9.14291	0.71822
-992.18750	-6.40582	-1.24344	-3.09903	2.73248
-988.28125	-4.79447	-6.07868	-1.48734	-10.96753
-984.37500	-3.98906	-7.69043	0.12441	-3.71519
-980.46875	5.27782	0.36811	6.57124	4.74591
-976.56250	8.50077	2.38269	6.16819	1.92504
-972.65625	10.51495	0.77099	-1.08465	1.11884
-968.75000	18.57318	3.18847	-2.29357	11.19180
-964.84375	14.94654	7.21764	0.12392	17.23545
-960.93750	3.26128	2.38237	4.95897	6.35610
-957.03125	2.85814	-3.66167	5.76469	10.38525
-953.12500	11.72246	0.36750	0.52649	15.22029
-949.21875	6.88711	1.17323	-1.89114	12.39969
-945.31250	5.27536	4.79956	4.95860	11.99670
-941.40625	11.72222	9.23164	4.55567	13.20546
-937.50000	12.12512	7.21684	3.34679	5.95267
-933.59375	1.24608	-0.43889	4.15259	-3.31471
-929.68750	2.45496	-2.85654	10.59946	4.74397
-925.78125	9.30476	1.57563	13.82282	13.60849
-921.87500	6.08135	4.39601	5.76402	12.39977
-917.96875	5.67855	4.79887	5.76388	2.72957
-914.06250	2.45521	2.78417	6.97257	-5.32890
-910.15625	-2.78276	2.38118	1.73440	-6.13457
-906.25000	0.84372	0.76940	-2.29493	1.92427
-902.34375	4.47029	-3.26001	1.33144	10.78905
-898.43750	0.84409	-4.87191	2.54012	10.38634
-894.53125	13.33513	-4.46910	-2.29508	16.43051
-890.62500	1.65028	-2.05169	-1.08636	9.98382
-886.71875	-41.06012	-0.84300	0.52524	-27.08553
-882.81250	-47.50684	1.17153	-4.30993	-40.78488
-878.90625	-45.08908	1.17144	-9.14511	-40.38163
-875.00000	-63.22058	-1.64912	-13.17444	-54.88682
-871.09375	-72.89071	-4.46970	-12.77157	-67.78032
-867.18750	-77.72565	-4.06690	-11.56277	-78.65912
-863.28125	-81.35175	-1.24645	-7.93640	-75.43536
-859.37500	-81.75433	-1.64949	-8.33944	-68.58522
-855.46875	-76.11299	3.18558	-12.77173	-71.40535
-851.56250	-67.24813	6.40901	-7.93655	-75.03141
-847.65625	-59.59214	0.76799	-1.48974	-63.34605
-843.75000	-54.35370	-2.05260	-2.29563	-50.04898
-839.84375	-47.10061	3.18547	-6.32495	-48.43686
-835.93750	-48.71201	8.42350	-1.48980	-40.37796
-832.03125	-45.48824	4.79710	1.73367	-39.16887
-828.12500	-37.42931	1.17062	-0.28098	-43.60080
-824.21875	-37.02604	1.17051	-3.50450	-38.36240
-820.31250	-35.01110	0.36454	-5.92213	-30.70634
-816.40625	-31.78734	1.17027	-4.31056	-29.09424
-812.50000	-21.71386	2.37897	0.92742	-22.24410
-808.59375	-15.66972	6.00527	5.76249	-15.79693
-804.68750	-10.83432	8.42269	6.56835	-15.39368
-800.78125	-8.41648	6.40792	5.76243	-17.00516
-796.87500	-13.65440	2.78145	1.73311	-17.81080
-792.96875	-10.43073	2.78132	4.95644	-10.96067
-789.06250	-9.22163	2.37825	6.16514	-10.96033
-785.15625	-16.47408	-0.03948	-0.28178	-12.16885
-781.25000	-12.84752	-1.65127	0.92699	-16.60085
-777.34375	-5.99746	0.76624	2.13573	-12.97421
-773.43750	-4.38556	-0.84565	2.53857	1.93450
-769.53125	-9.22052	-4.47212	5.76195	5.15828
-765.62500	-12.84673	-3.26343	2.94134	-6.92937
-761.71875	-12.84650	-2.86068	0.92657	-6.12328
-757.81250	-10.83161	-2.45788	1.73234	-0.88494
-753.90625	-10.02553	2.37713	0.52342	-6.92868
-750.00000	-4.38436	5.19754	-3.90889	-4.51092
-746.09375	2.86857	3.58579	-9.14708	0.32452
-742.18750	2.46581	0.36224	-1.08859	-4.51048
-738.28125	-2.77216	-0.44370	0.12012	-3.30144
-734.37500	-5.59246	-4.07018	-1.49164	-11.35973
-730.46875	-6.80092	-4.47319	1.32888	-9.74771
-726.56250	-10.02417	1.97353	-1.49178	-0.88291
-722.65625	-10.02397	4.39107	2.13454	-12.16468
-718.75000	-3.97983	-0.04122	2.94033	-12.56745
-714.84375	-7.60608	2.77927	-3.90953	-13.37305
-710.93750	-8.81464	4.39087	-7.13305	-10.14919
-707.03125	-8.41140	-0.04144	-11.96831	-10.95459
-703.12500	-8.00819	-0.84736	-10.35661	-20.62453
-699.21875	4.48291	2.77896	1.32835	-5.31282
-695.31250	8.51243	6.40523	7.77515	3.55197
-691.40625	0.85694	6.00229	-1.08937	-7.72984
-687.50000	-1.96333	6.40514	-11.16271	-4.90894
-683.59375	-0.75426	8.01679	-6.32762	-0.87927
-679.68750	8.51342	6.80788	-3.50713	-0.47595
-675.78125	7.30498	4.39026	-5.52179	-2.08733
-671.87500	-3.17086	2.37559	-3.10421	1.53945
-667.96875	0.05284	1.56966	6.16316	10.40424
-664.06250	2.47065	1.56954	1.32797	-1.68336
-660.15625	-0.34973	4.38993	-9.55126	-7.32406
-656.25000	2.87391	5.19568	-2.70148	3.55547
-652.34375	6.50052	2.37510	3.74529	7.98799
-648.43750	8.91831	2.77800	7.37165	11.61475
-644.53125	-0.34881	0.76331	8.17747	4.36240
-640.62500	-8.00417	-3.66901	6.96866	-3.69576
-636.71875	1.66644	-3.26615	2.93935	3.15448
-632.81250	2.87560	-4.47506	-3.91048	6.37838
-628.90625	-0.75039	-5.28103	-4.71641	-0.06810
-625.00000	11.33782	-1.65472	-2.70175	4.76741
-621.09375	19.39674	3.98623	2.13339	15.64692
-617.18750	13.75604	5.59789	2.93927	16.05025
-613.28125	6.10062	-3.26657	-3.10464	2.75387
-609.37500	-4.37523	-9.71352	-5.92509	-2.08084
-605.46875	-4.37492	-8.90773	-4.31347	-1.67743
-601.56250	4.48988	-6.89311	-4.71655	-0.46827
-597.65625	6.10186	-3.66975	-6.32832	7.99354
-593.75000	8.92265	-1.65521	-5.11958	14.44082
-589.84375	10.53474	-1.25232	-6.73133	14.84420
-585.93750	11.34091	-0.04360	-11.56648	7.18887
-582.03125	11.34123	1.56817	-10.76069	-4.09283
-578.12500	7.71519	-1.25238	-5.11970	1.14563
-574.21875	5.29788	-6.89354	0.52121	5.17530
-570.31250	5.70114	-3.26721	-1.09056	1.14634
-566.40625	12.14819	3.98545	-4.31411	0.74367
-562.50000	9.32787	1.16479	-9.55231	2.75861
-558.59375	3.68712	-0.84991	-9.14942	5.57956
-554.68750	8.52262	1.16468	0.52080	1.95349
-550.78125	4.49351	-0.44710	-0.28510	2.35675
-546.87500	0.86736	3.17921	-1.49393	9.20691
-542.96875	6.91162	5.19384	4.14705	13.63942
-539.06250	7.31488	1.97036	-0.28530	18.07194
-535.15625	10.13568	3.98502	-4.71764	8.80491
-531.25000	13.76241	1.56735	-4.71771	7.59646
-527.34375	16.18020	5.19358	1.72907	19.68460
-523.43750	14.97170	6.40227	2.53478	13.23796
-519.53125	9.73387	3.17873	2.13183	4.77674
-515.62500	1.67548	5.19332	-0.68869	9.20931
-511.71875	0.06407	4.79039	-4.71808	14.44778
-507.81250	4.49657	1.16394	6.96688	15.25391
-503.90625	1.67629	0.76103	9.38439	10.01600
-500.00000	12.15269	4.79030	1.32569	13.23971
-496.09375	25.85246	4.79023	-1.49495	28.14837
-492.18750	5.30321	6.40185	4.54900	8.00199
-488.28125	-22.09582	5.99888	5.35479	-27.05270
-484.37500	-30.95998	2.37236	1.72832	-25.44062
-480.46875	-36.19783	0.76057	6.56345	-27.45503
-476.56250	-43.85324	-1.65711	10.99554	-43.16904
-472.65625	-59.16426	-3.26887	4.14564	-55.25662
-468.75000	-69.23730	-0.44845	0.51917	-62.91206
-464.84375	-73.26644	-1.65738	2.53375	-64.52362
-460.93750	-74.87785	-2.46331	-1.89855	-63.31441
-457.03125	-61.17766	-2.06046	-4.71921	-66.53736
-453.12500	-53.92432	-4.47805	-2.70462	-64.92503
-449.21875	-48.28260	-1.25463	-5.52525	-55.25407
-445.31250	-43.04375	1.56582	-2.70477	-40.74784
-441.40625	-43.04292	-6.49277	-1.09312	-35.50890
-437.50000	-30.95411	-6.49274	-0.69021	-32.68744
-433.59375	-24.10339	3.58049	5.75655	-28.65719
-429.68750	-26.92302	0.35698	3.74185	-27.85042
-425.78125	-26.92215	-3.67239	0.51837	-28.25252
-421.87500	-22.08617	-3.26945	-0.69043	-23.41650
-417.96875	-22.48830	-5.28418	-1.89932	-23.41567
-414.06250	-16.44361	-3.26953	4.14457	-23.81781
-410.15625	-16.84587	4.38609	4.95037	-19.38485
-406.25000	-22.08329	5.59492	-1.89947	-30.26329
-402.34375	-18.05333	-1.25489	-7.13762	-34.29187
-398.43750	-21.67901	-4.88140	-4.72019	-20.18859
-394.53125	-23.69300	-2.86683	5.75591	-20.18793
-390.62500	-20.46893	-1.25508	12.20272	-27.84305
-386.71875	-17.64787	4.38590	6.15873	-25.82781
-382.81250	-18.85612	5.99767	-0.28819	-22.60374
-378.90625	-21.27314	3.58010	-3.10873	-16.15631
-375.00000	-18.85510	-0.44922	0.92050	-11.32062
-371.09375	-10.39310	-4.88157	4.94980	-15.75234
-367.18750	-10.39265	-4.07584	6.15855	-14.54303
-363.28125	-17.24203	0.35631	5.35260	-11.31905
-359.37500	-12.80942	3.98264	3.33787	-7.69220
-355.46875	-11.60019	2.37085	-1.49740	-12.12388
-351.56250	-12.40565	-2.86732	-6.33262	-19.37613
-347.65625	-8.37599	-7.70258	-1.90049	-18.97278
-343.75000	-7.56975	-2.86756	4.14331	-2.45217
-339.84375	-2.33119	8.01148	8.57543	8.83053
-335.93750	4.11614	9.62307	5.75478	-0.83924
-332.03125	-5.15076	1.56434	0.91953	-14.53829
-328.12500	-12.80583	1.96710	-0.28937	-13.32877
-324.21875	-7.56701	6.80215	-4.72172	-6.88107
-320.31250	-5.14860	2.77268	-3.51300	-3.65665
-316.40625	-9.57988	0.75780	-3.11013	-9.29655
-312.50000	-7.16116	1.56338	-2.30432	-14.93638
-308.59375	-3.93646	-0.85446	-0.69248	-7.68231
-304.68750	-6.75564	1.56290	-0.69244	-12.11318
-300.78125	-2.72506	3.57730	2.93379	-5.66490
-296.87500	-3.52967	-2.86987	2.93374	-5.26052
-292.96875	-7.55769	-5.69068	4.54552	-14.52655
-289.06250	-3.52712	-1.25876	1.72493	-2.84020
-285.15625	-5.94340	-1.25909	-7.13960	4.01095
-281.25000	-9.56862	-0.85650	-2.30453	0.38589
-277.34375	-8.35865	-2.06556	6.15696	-8.07438
-273.43750	-6.74572	-1.66286	5.75395	-4.04384
-269.53125	-0.70070	-1.66307	0.11291	-2.02795
-265.62500	5.74721	-1.66330	-0.69302	1.19669
-261.71875	-1.50457	-1.26057	-2.30486	0.79484
-257.81250	-5.13008	-4.48421	-2.30489	-4.03924
-253.90625	1.31761	-2.87273	-1.09614	2.40866
-250.00000	5.34763	-0.05242	-5.93139	-3.23149
-246.09375	10.18342	0.75332	-5.93158	-2.82776
-242.18750	4.94580	0.35017	-3.11128	10.06659
-238.28125	1.72269	-4.48517	-2.70846	2.00845
-234.37500	6.55815	-4.48531	-3.51450	2.00873
-230.46875	2.12609	-1.26198	-4.32051	7.24708
-226.56250	2.12625	-0.45622	-3.51478	2.00927
-222.65625	5.75272	-3.67976	-4.72372	2.81534
-218.75000	5.75273	-1.66518	-6.33562	5.63599
-214.84375	7.36447	-2.47102	-5.12701	-0.40793
-210.93750	10.18483	-6.50034	-1.50085	-8.86957
-207.03125	7.36410	-3.27692	-1.09807	-4.03458
-203.12500	3.33462	-2.47105	-3.91875	-1.21425
-199.21875	-3.51543	-6.50032	0.51326	-1.61737
-195.31250	-5.12736	-6.50023	2.52773	6.03795
-191.40625	-2.30710	-6.09721	-8.35161	6.44059
-187.50000	2.52784	-5.69419	-10.36650	-0.40947
-183.59375	2.52754	-1.66483	-2.71099	0.79897
-179.68750	-1.09913	-0.85893	2.12397	5.63395
-175.78125	5.75046	-4.48517	2.52670	11.67770
-171.87500	4.54140	-7.30559	0.91484	11.27448
-167.96875	7.36164	-4.08203	-4.32341	16.91529
-164.06250	18.24046	2.36497	-5.93528	20.54134
-160.15625	14.21086	3.17088	-1.90615	12.48250
-156.25000	8.97247	-0.85837	0.10837	9.25888
-152.34375	10.98688	0.35055	0.91410	13.28797
-148.43750	5.74857	-0.45521	3.33158	9.25844
-144.53125	7.76287	-4.48450	5.74897	8.85527
-140.62500	14.61235	-0.05231	1.31662	10.86975
-136.71875	13.40331	-1.66400	1.31640	8.85499
-132.81250	12.59728	-6.09620	1.71908	15.30171
-128.90625	17.43220	-2.87266	-4.32505	20.94259
-125.00000	16.22314	-0.45502	-5.53404	20.94240
-121.09375	17.02888	2.36554	6.95661	21.34522
-117.18750	15.82000	2.76855	9.77692	18.52451
-113.28125	13.80523	2.36563	1.71817	9.65992
-109.37500	12.59629	-0.45479	7.76197	4.82463
-105.46875	9.77570	-2.06649	4.13545	2.80995
-101.56250	10.98440	-0.45470	1.71764	2.00407
-97.65625	7.35803	-0.85763	6.14974	10.46558
-93.75000	2.92573	1.56003	5.34373	17.31532
-89.84375	2.52276	4.78350	2.52298	10.06251
-85.93750	2.52269	1.55999	-1.50649	0.39214
-82.03125	3.32855	1.15703	1.31392	-0.41379
-78.12500	8.16365	5.58926	9.77528	5.63011
-74.21875	10.58115	2.76872	8.96925	6.03298
-70.31250	3.32835	-1.26053	0.91046	-2.42851
-66.40625	1.71651	0.35122	-0.29858	-4.44315
-62.50000	0.10474	-2.87225	-0.29882	2.00374
-58.59375	2.11940	-2.06643	3.32746	10.46536
-54.68750	0.10471	1.15699	8.56541	12.48007
-50.78125	-6.34226	5.99216	2.92421	-3.23419
-46.87500	-2.71579	8.81269	-3.92568	-2.83112
-42.96875	-5.93910	1.55999	0.50638	6.43645
-39.06250	-9.56545	1.96289	-1.10547	-0.01032
-35.15625	-4.73016	1.96284	0.50608	-1.62189
-31.25000	0.50806	1.15691	9.77331	2.81048
-27.34375	-3.92413	3.97742	9.77316	-1.21862
-23.43750	-8.35630	0.35099	1.71445	0.39329
-19.53125	-5.13275	-2.06663	2.11729	8.45197
-15.62500	-1.10337	0.75385	0.10253	4.82564
-11.71875	-2.31211	3.17128	-4.32989	2.81108
-7.81250	-3.92377	5.18584	6.14610	-2.02394
-3.90625	1.31434	5.18572	4.93707	-3.63548
0.00000	1.31442	3.57388	-3.52466	2.00568
3.90625	-8.35578	1.55913	-1.51016	-0.00878
7.81250	-13.99661	1.55907	3.32492	-7.26130
11.71875	-11.57892	4.78244	2.51886	-10.48453
15.62500	-7.54948	1.15592	-1.91350	-12.09605
19.53125	-13.19030	-0.05296	-5.54001	-11.28998
23.43750	-9.56372	3.17039	-4.33130	-5.64861
27.34375	2.52448	0.75274	1.71248	-6.05126
31.25000	-2.31043	-2.47075	4.12994	-8.87147
35.15625	-6.33946	-1.66494	1.30929	-4.84184
39.06250	-7.54805	3.97604	-0.30260	-1.21518
42.96875	-6.74188	6.79645	-0.70561	1.60564
46.87500	1.71982	5.18457	-0.30282	2.41177
50.78125	4.54060	1.96107	1.30882	-4.03483
54.68750	6.55554	1.15520	3.32337	-1.61691
58.59375	2.52647	0.34928	1.71152	2.41279
62.50000	-6.74065	-0.45663	-2.31790	6.03949
66.40625	0.51239	-1.26251	-3.12386	3.21920
70.31250	4.54189	-4.48599	0.09952	-3.22751
74.21875	-7.94875	-8.51535	3.32289	0.39917
78.12500	-8.75442	-6.90376	0.50223	0.80240
82.03125	0.51325	-2.06874	3.32265	-0.80899
85.93750	0.91636	2.36341	10.57527	4.42944
89.84375	0.51371	5.58679	8.15756	7.25028
93.75000	4.94610	7.60137	2.91931	7.65351
97.65625	7.36383	0.34853	-2.31897	13.69775
101.56250	4.94639	-8.11312	-7.55720	9.26583
105.46875	-3.91778	-8.91907	-3.93092	-0.80712
109.37500	-4.72334	-6.09865	0.90411	0.80491
113.28125	0.91793	-1.26347	2.51576	3.62581
117.18750	2.52991	1.15404	-1.51357	2.41728
121.09375	11.79757	1.55695	-5.54295	10.87912
125.00000	19.45349	1.95982	-8.76649	9.26771
128.90625	21.06547	0.34808	-7.55777	8.86514
132.81250	17.03641	-2.87549	-1.11094	20.14755
136.71875	18.24546	-3.68147	0.09778	21.75959
140.62500	21.06631	-4.48742	0.09771	15.31302
144.53125	20.26075	-0.45816	-3.52875	16.52226
148.43750	19.45508	6.39155	-9.97573	11.28456
152.34375	13.81432	3.57097	-9.16986	17.32884
156.25000	15.42632	0.34747	-3.93182	12.09112
160.15625	25.90280	3.97383	0.50023	10.88276
164.06250	25.09716	-1.26431	1.30599	22.56805
167.96875	21.06815	-3.27905	-0.70877	15.31569
171.87500	17.03914	1.15303	-3.93231	4.43697
175.78125	11.39835	-2.07051	-2.72360	4.84020
179.68750	11.39866	-5.29404	-1.91783	13.30218
183.59375	11.39895	-5.69702	2.11142	14.51136
187.50000	9.78752	-4.08540	1.70838	10.48237
191.40625	5.35554	-8.92058	-4.73870	5.64750
195.31250	5.35584	-6.10011	-7.55936	-0.39614
199.21875	4.95321	-0.45912	-9.57415	-3.21628
203.12500	3.34187	-1.66798	-4.33618	0.81345
207.03125	9.38622	-4.89147	-1.51579	7.26079
210.93750	6.16317	-8.11495	1.30467	0.81431
214.84375	2.13419	-4.48858	0.90162	-2.00579
218.75000	2.94039	0.34650	-2.72489	2.42682
222.65625	1.32909	-0.86232	-5.94852	0.00968
226.56250	3.74699	-1.66818	-5.54575	-5.22792
230.46875	2.13561	1.55526	0.49809	0.81639
234.37500	-2.69924	-1.66828	-1.11369	3.23434
238.28125	-4.71364	-5.29479	-9.97837	-8.45029
242.18750	4.95693	0.74914	-7.15799	-12.07623
246.09375	5.36018	1.95781	-0.71120	2.02674
250.00000	-1.48928	-0.45974	0.09454	8.07104
253.90625	2.54032	-0.05686	-3.12902	4.04215
257.81250	2.94347	0.74900	1.30312	-0.79254
261.71875	4.15253	1.95766	8.15279	1.22247
265.62500	7.37624	0.74881	3.31751	6.05792
269.53125	2.13838	-0.46007	0.49683	0.01432
273.43750	-3.90536	-4.08656	1.30261	-0.38825
277.34375	-4.71101	-7.71299	3.31714	3.64139
281.25000	-6.32246	-9.72766	0.89944	-0.38751
285.15625	-2.29283	-6.50428	-0.30947	6.86561
289.06250	3.34851	2.76301	1.30214	9.28357
292.96875	0.52834	3.16588	-0.30978	-2.80396
296.87500	7.78132	1.15123	6.53999	4.04611
300.78125	11.81083	2.36000	8.55456	2.03174
304.68750	4.96120	-0.05767	1.70457	-6.02661
308.59375	7.37905	1.95689	4.12198	6.86744
312.50000	13.02034	3.97152	8.95694	13.71750
316.40625	8.99118	-0.46081	4.92749	9.68850
320.31250	9.39438	0.34495	4.12151	11.70347
324.21875	5.76830	3.56832	0.49506	12.10669
328.12500	7.78317	2.76245	-6.35478	6.46601
332.03125	16.64780	-0.86401	-7.56371	6.86931
335.93750	16.64801	2.76232	-2.32574	17.34581
339.84375	8.18667	4.77689	2.50927	8.48165
343.75000	2.54592	-0.46134	4.92673	-6.82935
347.65625	6.97842	-0.46146	2.91197	-2.39666
351.56250	11.00796	-3.28206	-3.53502	6.46824
355.46875	11.00815	-3.28216	-11.19074	8.88613
359.37500	11.81436	-2.07354	-10.38502	12.10993
363.28125	11.81477	-2.07366	-3.93826	16.54269
367.18750	13.42696	1.95556	-4.74426	12.51396
371.09375	16.65101	3.97018	-2.32676	15.73808
375.00000	14.23409	3.97010	3.31417	18.96224
378.90625	13.02599	-1.67104	3.31409	9.29257
382.81250	20.27933	-7.31223	-5.14757	8.08453
386.71875	21.08580	-3.68594	-8.37114	14.53222
390.62500	17.86298	1.14911	-3.53609	17.35339
394.53125	14.23716	2.76073	0.89607	18.15994
398.43750	11.41722	2.76064	4.11942	10.50491
402.34375	11.82073	0.74594	6.93981	9.69975
406.25000	15.04472	-4.49225	6.13383	10.50620
410.15625	10.61303	-2.07479	-0.71613	0.83641
414.06250	10.21064	4.77501	-2.73090	4.86629
417.96875	11.01702	2.76029	0.08951	9.29905
421.87500	4.16773	-1.26909	-1.52232	4.86732
425.78125	4.16819	-0.06042	-0.71652	6.88254
429.68750	1.75102	-7.31322	2.10385	7.28593
433.59375	-3.48665	-12.55135	1.29789	8.09224
437.50000	1.34896	-4.89569	5.72994	10.10732
441.40625	6.99033	1.95403	2.10346	0.84037
445.31250	6.58775	-2.88117	-5.55235	-6.00891
449.21875	0.54410	-3.68712	-7.56713	-0.36732
453.12500	-2.27614	-1.26966	-4.34383	-2.38157
457.03125	-2.67868	-6.10495	-4.34396	-8.82804
460.93750	-1.87245	-3.68738	-8.37335	-5.20129
464.84375	-3.48388	-2.07578	-6.76172	-6.00665
468.75000	-8.31872	-4.09055	-5.15004	-8.82668
472.65625	-6.70664	-2.88187	-4.74726	-11.24381
476.56250	-5.09463	-4.49368	-8.77668	-19.30195
480.46875	-3.07969	-1.27030	-8.77681	-18.49571
484.37500	-5.09403	-1.27035	-0.71829	-7.21326
488.28125	-6.30243	-4.49381	-0.71845	-3.98937
492.18750	-3.07860	-0.06164	-6.35964	-7.21245
496.09375	-1.06359	2.75885	-3.13632	-7.21196
500.00000	1.35436	0.34117	-0.71889	-4.39094
503.90625	2.96639	-4.09119	0.89262	8.90624
507.81250	-0.65960	-3.68835	0.89247	9.71252
511.71875	-4.68856	0.74381	6.53341	6.08656
515.62500	0.14689	5.57887	6.53332	10.11624
519.53125	6.99704	7.19045	-0.71952	0.04337
523.43750	4.98264	7.99624	-5.55489	-4.38853
527.34375	8.20634	5.17563	-5.55507	-3.98524
531.25000	6.99782	0.74340	0.89169	0.44734
535.15625	11.83328	3.56383	3.30916	12.13266
539.06250	20.29509	6.38423	-0.31741	20.59450
542.96875	17.87774	1.95189	4.11463	20.19188
546.87500	6.99881	-8.92732	8.94960	8.50727
550.78125	15.46058	-6.91281	3.71132	16.96913
554.68750	31.17511	-3.68949	4.91999	33.08665
558.59375	32.78704	-9.73353	5.72572	31.47531
562.50000	36.41352	-13.35999	6.53148	40.34000
566.40625	45.27810	-7.71896	8.54597	45.57833
570.31250	47.29296	-2.88384	4.51652	47.19036
574.21875	42.05500	-5.70442	4.11344	51.21991
578.12500	36.81704	-9.73386	9.35143	46.78789
582.03125	31.17611	-4.89885	8.54545	36.31197
585.93750	27.54983	-4.09312	12.17163	37.92392
589.84375	28.35571	-5.30200	4.11287	39.13275
593.75000	29.56459	-4.09324	-3.94590	37.52123
597.65625	28.35585	-8.52552	3.70954	35.90977
601.56250	23.92363	-7.31689	4.11234	30.67192
605.46875	23.92364	-4.49643	6.52986	33.08968
609.37500	23.92373	-0.46723	9.35026	39.13383
613.28125	20.29744	1.54731	4.11206	26.24026
617.18750	20.29749	2.75602	-0.32029	21.80821
621.09375	26.74449	-0.46747	-0.72328	25.03185
625.00000	29.16222	-4.49680	1.69412	32.28474
628.90625	21.50659	-2.88513	3.70865	30.67332
632.81250	12.23926	-4.49687	0.08221	18.98861
636.71875	11.03054	0.33822	3.70842	15.76535
640.62500	17.07466	6.38210	6.52884	11.73628
644.53125	18.28355	1.14394	2.09646	14.15421
648.43750	18.68664	0.33803	-2.33591	11.33394
652.34375	17.88095	4.77018	-3.94772	6.09611
656.25000	15.46354	3.56129	-2.73903	5.69347
660.15625	10.22564	2.75536	-3.94797	-2.36498
664.06250	4.98776	0.33769	0.08119	2.47043
667.96875	1.76452	-4.09460	-0.32189	8.91758
671.87500	9.42040	-0.06535	-1.53082	4.48559
675.78125	11.83817	3.15802	4.11008	0.85940
679.68750	8.21196	-0.46840	3.30410	6.50069
683.59375	8.21211	-1.67728	-1.12827	12.14194
687.50000	7.80936	-0.06565	0.08039	7.30707
691.40625	5.79490	-1.27443	0.88607	-0.75130
695.31250	1.36274	-2.48329	-3.94925	-2.76576
699.21875	-2.26362	-4.90093	-4.35245	-7.60080
703.12500	-2.66643	-3.28921	-1.12926	-1.55662
707.03125	2.57179	-0.06589	-0.32361	6.09933
710.93750	5.79533	-0.87182	-0.32381	-1.55609
714.84375	-1.05447	-1.27482	-0.32404	-1.95896
718.75000	-1.05437	-0.06619	-6.36816	-0.74998
722.65625	-1.45715	-3.69266	-7.17419	-4.37622
726.56250	-8.70991	-6.51331	-5.56274	-11.22592
730.46875	-3.87471	-3.28999	-10.39809	-11.22579
734.37500	-3.06882	-3.69305	-9.59242	-10.01681
738.28125	-5.48632	-6.11081	-1.13106	-8.00195
742.18750	-4.68031	-6.11094	1.68926	0.45978
746.09375	-3.47147	-4.90223	-4.75777	0.86289
750.00000	-0.65085	-1.67895	-5.96665	3.68364
753.90625	4.99019	-1.27617	-3.14635	2.07204
757.81250	0.96098	-2.08220	2.09158	-12.43326
761.71875	-3.47118	-0.06769	2.09138	-8.80666
765.62500	0.15534	2.34978	-4.35577	5.29609
769.53125	0.55840	-1.27670	-4.35596	7.71394
773.43750	1.76721	-6.91794	-3.14734	5.29650
777.34375	7.81130	-6.51521	0.47877	4.08789
781.25000	6.60265	-5.30663	2.09030	6.50571
785.15625	0.96177	-0.87449	-2.74504	4.49124
789.06250	0.96193	1.94586	-2.34239	0.86510
792.96875	3.37970	-2.08358	0.47786	0.86531
796.87500	1.36528	-4.90417	4.10409	3.28312
800.78125	3.38018	-5.30717	4.50686	0.06000
804.68750	9.82736	-4.09842	5.71539	8.52184
808.59375	0.96314	-2.48673	3.29768	18.59542
812.50000	-3.87177	0.33369	-9.59627	7.71661
816.40625	2.57534	-0.47224	-9.19350	2.88166
820.31250	5.39599	-4.50164	0.07370	6.91129
824.21875	7.41079	-6.91935	3.29697	4.49396
828.12500	-3.06524	-6.11356	0.07335	-0.34090
832.03125	-7.49733	0.73622	-0.73265	-6.78749
835.93750	-4.67662	1.94491	4.50531	-8.80185
839.84375	-4.27358	1.54198	0.07291	-2.75766
843.75000	0.15884	7.98872	-4.35946	0.46602
847.65625	-0.24393	5.16797	-4.35957	-2.75718
851.56250	-5.07894	-1.68197	-1.13628	-3.56282
855.46875	-2.66122	0.73550	3.29574	-3.56266
859.37500	2.97992	6.37638	0.47496	3.69033
863.28125	4.99476	7.18217	-1.94272	6.91407
867.18750	4.18909	9.19677	0.07179	0.06445
871.09375	4.99508	11.21142	-5.16647	-1.94994
875.00000	3.78644	0.73513	-6.37540	3.69132
878.90625	4.59251	-5.30894	-2.34630	4.49735
882.81250	2.57806	-2.08556	-3.95823	-6.38155
886.71875	-0.24230	4.36124	-6.37607	-6.78419
890.62500	0.96664	8.79341	-1.54114	1.67755
894.53125	-3.46550	5.97286	2.89095	-3.15749
898.43750	2.98145	7.98742	7.72593	-0.73973
902.34375	7.41373	5.56973	12.15795	4.49850
906.25000	2.98153	-1.68309	6.11382	2.48403
910.15625	1.77281	-2.48900	2.08439	-1.54506
914.06250	5.80221	2.74900	-1.13919	-9.20052
917.96875	4.19048	4.76355	-1.13929	-1.94754
921.87500	0.96706	6.77810	4.09876	2.88780
925.78125	3.38465	4.76336	0.47223	-2.75299
929.68750	-5.07686	-2.08656	0.06915	-10.00550
933.59375	-3.06212	-3.29538	5.30709	-13.22880
937.50000	4.19071	-1.68374	1.68050	-4.36420
941.40625	-1.45019	-1.28083	-1.14018	-1.54347
945.31250	7.81729	1.13666	2.88893	6.91825
949.21875	15.87594	7.18054	1.27705	12.96240
953.12500	6.60859	8.38923	-0.33484	8.12736
957.03125	2.57935	3.95694	6.91775	4.90412
960.93750	5.39993	-1.68421	8.12639	0.87505
964.84375	3.38537	-3.29601	2.48514	8.93391
968.75000	-2.25562	-2.49025	-1.94727	8.53117
972.65625	-3.46434	-2.08748	-5.97680	2.48743
976.56250	-5.88177	-1.68470	1.67860	-5.16806
980.46875	-5.07581	-1.28189	5.30485	-0.33270
984.37500	-3.06107	-2.08792	3.29013	0.47336
988.28125	-4.67269	-4.50554	0.06658	-14.03184
992.18750	-0.24042	-6.11733	-8.39511	-10.80815
996.09375	1.37137	-4.10278	-5.57478	-4.36108
1000.00000	-1.85197	-2.49118	6.91590	-2.34616
1003.90625	-2.25479	1.94085	10.54212	2.08636
1007.81250	-4.26935	7.58177	4.49796	3.69836
1011.71875	-1.85161	10.80509	-0.74032	0.87807
1015.62500	4.59546	3.95516	1.67711	-1.13633
1019.53125	8.22196	-0.47719	2.88580	2.89321
1023.43750	5.80454	4.76082	0.46807	4.90814
1027.34375	7.01338	5.96954	2.48262	9.34065
1031.25000	8.22230	3.14885	10.54113	19.81716
1035.15625	7.41661	2.34290	4.89986	20.22046
1039.06250	5.40216	4.35750	2.07920	8.93874
1042.96875	6.20820	4.35742	2.88494	6.52140
1046.87500	12.65524	-0.07495	1.67603	12.96854
1050.78125	13.05830	0.32787	3.69053	9.34242
1054.68750	13.46134	4.35703	4.49626	8.53683
1058.59375	8.62640	0.73055	4.09313	14.17814
1062.50000	3.79136	1.13337	0.86946	9.74618
1066.40625	-2.65530	1.13335	2.07807	5.31426
1070.31250	-0.23757	-2.89603	3.28672	-1.93810
1074.21875	2.58319	-6.11958	0.06307	0.88268
1078.12500	-7.89277	-5.71667	2.48040	5.31518
1082.03125	0.16602	-2.89624	-5.17534	-1.53430
1085.93750	23.53616	4.75937	-14.44284	14.58322
1089.84375	15.47779	10.80325	-6.38444	16.59821
1093.75000	-23.20332	3.95339	-2.35532	-14.42716
1097.65625	-47.37885	3.14744	-0.74370	-36.58806
1101.56250	-58.66068	7.98262	-3.16146	-52.30193
1105.46875	-71.55431	4.35619	-7.99672	-66.40416
1109.37500	-84.44789	3.55030	-11.62326	-81.71516
1113.28125	-90.49154	9.19125	-7.59416	-92.59396
1117.18750	-97.34113	8.38542	-5.57972	-95.41412
1121.09375	-109.42883	-3.70248	-4.77403	-98.23432
1125.00000	-109.02570	-9.34358	-3.56535	-92.99588
1128.90625	-93.71411	-3.70255	-11.62404	-98.63665
1132.81250	-85.25230	0.32674	-14.84754	-88.56306
1136.71875	-72.35825	-4.10556	-11.62418	-63.58112
1140.62500	-62.68766	-7.73199	-5.98329	-61.56614
1144.53125	-59.06104	-8.53794	0.46336	-52.29846
1148.43750	-55.43437	-9.34397	3.68663	-41.01609
1152.34375	-56.64299	-10.14994	6.90988	-44.23920
1156.25000	-61.88087	-13.77635	5.70091	-45.85070
1160.15625	-55.43375	-7.73242	3.68609	-41.41822
1164.06250	-42.94265	-8.13541	4.49184	-38.19452
1167.96875	-45.76299	-16.19410	2.47702	-41.82059
1171.87500	-46.56869	-17.00003	0.46225	-31.74706
1175.78125	-36.89812	-17.00011	-0.34374	-30.53795
1179.68750	-34.48036	-13.37387	0.86493	-24.09083
1183.59375	-20.37750	-6.12121	1.67067	-22.07583
1187.50000	-14.33325	-3.70367	2.47640	-23.68710
1191.40625	-19.16817	-5.71839	3.28213	-11.59889
1195.31250	-22.39141	-6.12144	4.89365	-10.79266
1199.21875	-14.73550	1.13121	4.49059	-9.58355
1203.12500	-8.69127	-2.89821	2.47571	-16.03002
1207.03125	-11.51150	-6.52465	1.66970	-14.82088
1210.93750	-10.30246	-1.68954	4.49015	-14.82049
1214.84375	-11.10806	3.95147	6.50472	-16.43182
1218.75000	-9.09316	6.77190	4.89282	-12.40220
1222.65625	-3.45199	3.54836	3.28097	-10.38719
1226.56250	-1.03421	-2.49568	0.46028	-6.76052
1230.46875	-6.67497	2.33940	-0.34572	-4.34273
1234.37500	-5.06306	6.36859	-1.15174	2.50748
1238.28125	-0.63065	5.96562	-5.58416	-2.32737
1242.18750	0.17535	5.96561	-2.76375	-4.34173
1246.09375	2.99599	3.54794	3.68302	-2.72972
1250.00000	0.98144	2.33901	2.07122	-5.95294
1253.90625	-1.03306	2.74186	4.48868	-7.16143
1257.81250	-3.04751	0.32415	1.26508	-7.16114
1261.71875	-9.89718	-0.07889	-6.79376	-14.01076
1265.62500	-7.07658	1.93573	-5.18221	-17.63696
1269.53125	-5.86756	-2.49650	-2.76482	-9.57813
1273.43750	-7.07619	-7.33175	-4.37679	-8.36913
1277.34375	-11.91125	-4.91418	-4.37695	-14.00996
1281.25000	-16.74634	-6.12307	-2.76529	-12.80094
1285.15625	-14.73155	-8.94367	0.45793	-5.14505
1289.06250	-10.70212	-1.28805	1.26361	-6.35359
1292.96875	-5.86676	-2.49695	0.45750	-5.95036
1296.87500	-9.89592	-11.76447	0.86026	-12.79991
1300.78125	-5.46360	-9.74994	2.87470	-11.18798
1304.68750	-3.04581	-5.72073	2.47158	-7.96424
1308.59375	-6.26907	-6.92958	-3.97537	-9.97854
1312.50000	-5.46304	-5.31791	-7.19894	-12.39582
1316.40625	-8.68624	-5.31791	-7.19912	-10.78379
1320.31250	-9.89475	-10.55602	-3.97586	-6.75417
1324.21875	-3.44773	-7.33264	-1.55847	-10.38019
1328.12500	3.40231	-0.48288	-1.96149	-10.78274
1332.03125	2.99954	0.32286	0.85882	1.30543
1335.93750	-3.44721	0.32275	-2.36486	-0.30605
1339.84375	-3.84989	-2.49785	-6.39440	-7.15560
1343.75000	-2.64079	-4.91557	-5.58873	-5.14052
1347.65625	-9.89333	-2.90104	-1.15658	-5.54300
1351.56250	-5.86394	-3.30408	6.49904	6.14226
1355.46875	1.79178	-3.30425	4.48424	5.33664
1359.37500	0.18014	-0.48390	3.27529	-5.13934
1363.28125	1.38898	0.32179	6.49863	2.91953
1367.18750	13.87990	1.93338	5.69261	9.36670
1371.09375	11.05943	3.54498	5.28961	1.30837
1375.00000	0.58335	-3.70799	2.87190	-9.97341
1378.90625	7.43319	-9.34925	2.87177	4.93525
1382.81250	11.86554	-2.09670	4.88628	13.39711
1386.71875	2.59827	1.52956	6.09488	-3.92864
1390.62500	0.58374	-3.70868	10.12401	-1.91376
1394.53125	6.22478	-3.30588	9.72090	8.96567
1398.43750	11.06003	1.93201	10.92950	16.62157
1402.34375	15.49241	1.93182	12.13813	25.08340
1406.25000	19.92477	1.52870	6.89990	23.06903
1410.15625	13.88101	0.31975	10.12327	18.63703
1414.06250	8.24011	-0.08330	10.12319	12.59332
1417.96875	13.07544	-0.48633	2.06447	6.95256
1421.87500	7.43454	-3.70991	4.07897	7.75869
1425.78125	10.65811	-3.30708	7.70516	8.56483
1429.68750	11.06114	-3.30721	4.88449	9.37094
1433.59375	4.61443	-4.51619	5.69015	14.60931
1437.50000	8.24085	-3.71052	5.28711	8.56564
1441.40625	2.19705	-2.90480	-1.15992	12.99817
1445.31250	-2.63793	-2.09907	-3.17471	10.17795
1449.21875	3.80901	0.72138	-1.16021	0.50802
1453.12500	2.60034	-3.30803	2.46592	4.53763
1457.03125	1.79454	-5.32286	3.27161	-3.11778
1460.93750	1.39178	-2.50242	2.06260	-6.74384
1464.84375	-3.44328	-3.71140	-1.56398	-0.69961
1468.75000	0.98911	-3.71161	-3.57881	2.12116
1472.65625	7.43612	0.31754	-3.57899	5.34482
1476.56250	6.63037	2.33207	2.06189	10.18022
1480.46875	10.25686	-1.29441	5.68800	3.33068
1484.37500	7.03353	-3.71216	-5.19134	-5.13066
1488.28125	3.40729	-5.72697	-1.16225	0.10768
1492.18750	9.04844	-2.50367	6.49327	5.74900
1496.09375	8.24273	3.13719	9.31361	13.80785
1500.00000	3.00480	3.54006	6.89585	12.19633
1503.90625	-1.02429	-2.90690	-5.19217	0.91458
1507.81250	1.39353	-2.50405	-2.37184	1.31785
1511.71875	4.21427	-0.89249	-2.37204	-2.30827
1515.62500	-0.21776	-4.51899	-11.63954	-5.12846
1519.53125	1.39418	-1.29574	-5.19272	-7.54574
1523.43750	3.81194	-0.89304	4.47753	-2.71021
1527.34375	0.58874	-3.31074	3.67149	-0.29232
1531.25000	-3.44045	-0.89333	-0.35801	0.11083
1535.15625	-1.02266	2.73295	-1.56701	3.33459
1539.06250	8.64787	1.52403	2.86507	1.72317
1542.96875	13.48318	1.92680	0.44727	2.52924
1546.87500	5.42481	3.53842	1.25302	4.54420
1550.78125	-0.61891	-0.49103	2.86462	-2.70818
1554.68750	-1.02168	-4.52045	0.84982	-2.30495
1558.59375	-4.24491	-6.53520	-1.97088	-0.69282
1562.50000	-1.42415	-4.92364	-5.19452	-3.51300
1566.40625	-4.64746	-8.14719	-3.98587	-1.90106
1570.31250	-6.25907	-10.96779	-3.58314	-1.09493
1574.21875	-1.82671	-8.14740	-5.59803	1.72595
1578.12500	0.18803	-5.72988	-7.61291	-2.70602
1582.03125	-4.64696	-7.74463	-3.18085	-3.91453
1585.93750	-1.82627	-8.95358	-3.18101	4.14437
1589.84375	-4.24371	-3.71562	-5.19584	-5.12276
1593.75000	-8.27284	-1.29813	-2.77841	-2.70489
1597.65625	-3.84046	-4.92469	-4.79328	-9.15151
1601.56250	2.60658	-2.50724	-7.21100	-24.46264
1605.46875	-0.61673	-1.29854	-6.80830	-3.10712
1609.37500	-9.07811	-2.91035	-3.18207	11.80164
1613.28125	-9.88375	-1.70160	-0.36167	0.92279
1617.18750	-3.03374	1.11886	-2.77935	-7.94144
1621.09375	3.01038	-0.49285	-7.61478	-0.68857
1625.00000	3.41342	0.31296	-7.61498	2.13215
1628.90625	1.39893	1.92461	-5.60048	3.34127
1632.81250	3.41381	-5.73109	-2.37715	3.34158
1636.71875	-6.25641	-8.14876	-2.78015	-9.55191
1640.62500	-14.71783	-2.10492	-0.76558	-11.96915
1644.53125	-2.62968	-0.09038	4.47241	-1.89563
1648.43750	5.42906	3.13300	5.27810	4.55152
1652.34375	7.84674	7.96811	0.03983	7.77526
1656.25000	4.62335	-0.89651	-5.19843	8.98432
1660.15625	0.99700	-8.14933	-3.18394	8.58157
1664.06250	6.63809	-2.10542	-2.78113	-7.93836
1667.96875	11.07034	5.14725	1.65093	-5.92352
1671.87500	7.04111	9.17645	6.08307	11.40266
1675.78125	1.80318	6.35585	5.67995	3.34430
1679.68750	-4.24047	4.74411	1.24757	4.95635
1683.59375	1.40082	7.96757	0.44152	10.19481
1687.50000	14.69747	4.74404	3.66485	6.97157
1691.40625	10.26508	-1.70296	2.05298	3.34525
1695.31250	0.19169	-0.49422	-1.17069	2.13648
1699.21875	3.81773	5.54963	2.45542	8.58326
1703.12500	11.07009	6.75830	5.27571	13.41818
1707.03125	13.89022	5.54947	1.64905	12.61199
1710.93750	12.27798	-0.09157	0.44000	6.97061
1714.84375	10.66585	-2.91213	1.24561	0.92621
1718.75000	8.24781	-0.89757	1.24532	-2.70053
1722.65625	2.20339	2.72875	4.06556	4.14889
1726.56250	8.24697	4.34035	2.05064	2.53687
1730.46875	9.05243	9.57834	-3.99356	-7.13384
1734.37500	-0.21534	7.16063	-0.77032	4.14798
1738.28125	3.81376	-2.10686	0.84119	7.77426
1742.18750	9.45462	0.31064	-5.60593	-3.50794
1746.09375	11.06610	4.74275	-3.18858	-4.71691
1750.00000	5.42495	0.71331	2.85516	-1.89648
1753.90625	4.61896	4.74252	2.45207	1.32693
1757.81250	3.81291	7.96594	1.24319	-3.50821
1761.71875	3.81277	0.71314	0.43706	-4.31405
1765.62500	-0.21663	-0.49576	4.06320	-1.49346
1769.53125	-12.70753	0.30996	1.64534	-7.94040
1773.43750	-9.88705	-3.31651	-1.98124	-5.52282
1777.34375	-1.82852	-3.31658	-6.01072	8.17683
1781.25000	-3.44034	2.72730	-9.63733	5.35637
1785.15625	1.39485	7.56238	-3.19072	-1.09055
1789.06250	9.45344	6.75648	-1.17634	4.55052
1792.96875	3.40938	3.53294	-3.19120	-4.31388
1796.87500	-1.02290	3.93580	0.03204	-10.35770
1800.78125	0.58896	6.35326	1.64354	-10.76041
1804.68750	3.81245	5.14434	3.25510	-9.95436
1808.59375	3.00671	3.93547	2.04610	0.92498
1812.50000	0.99217	10.38222	-2.38631	1.32817
1816.40625	-1.82819	10.78509	-3.59526	-1.49208
1820.31250	-5.05150	0.71174	0.83684	0.52290
1824.21875	0.58968	-6.13818	1.64252	0.52323
1828.12500	3.81319	-7.74992	2.44821	1.32935
1832.03125	-0.61892	-4.12367	4.46275	8.17939
1835.93750	-7.46867	1.11436	4.05963	7.37383
1839.84375	-6.66255	3.12899	-0.37278	-6.72841
1843.75000	-5.05065	1.11431	-0.77580	-1.89298
1847.65625	-4.24463	-2.10920	-1.17889	-4.31027
1851.56250	-5.05034	-2.51215	-11.25231	-13.17441
1855.46875	-12.30301	1.11413	-7.22321	-1.48919
1859.37500	-15.52639	-0.09470	-1.17945	-3.10070
1863.28125	-9.48235	-5.33286	-6.01477	-14.38240
1867.18750	-9.07931	-2.51241	-4.00027	-14.38208
1871.09375	-10.28800	-4.52715	-2.38871	-5.11443
1875.00000	-11.49672	-10.16826	-6.01515	-3.90541
1878.90625	-3.03509	-7.75077	-6.41823	-1.89057
1882.81250	-1.02035	-4.93043	-5.61260	0.93018
1886.71875	-9.48181	-4.93055	-5.20983	-3.09886
1890.62500	-8.27295	-6.54233	3.65449	-1.48689
1894.53125	1.80034	-0.49850	6.07197	2.13965
1898.43750	7.03851	1.51602	4.46012	3.75164
1902.34375	-0.61711	-4.93100	6.47462	-1.08335
1906.25000	-6.66101	-6.13991	2.44511	0.12563
1910.15625	-4.64628	-3.31949	-0.77847	4.55809
1914.06250	-5.04922	-5.33428	-4.00208	6.16998
1917.96875	3.41235	-8.15482	-7.22566	3.34971
1921.87500	7.44172	-4.93147	-3.19651	-0.67926
1925.78125	-1.01973	-4.93157	2.84729	-8.73748
1929.68750	-7.06351	-7.75213	0.83250	-13.16936
1933.59375	-10.68975	-9.36395	-4.00282	-7.52805
1937.50000	-3.83979	-8.15523	-4.80894	-10.54383
1941.40625	-1.01914	-2.11133	-1.98855	-8.90632
1945.31250	0.59278	-0.49964	-2.39164	-3.14273
1949.21875	-0.61589	-8.15541	-6.82402	-4.02888
1953.12500	-5.04799	-10.17018	-5.61538	-2.59785
1957.03125	-0.61561	-9.36445	1.63710	4.88265
1960.93750	11.47234	-5.73816	2.03979	4.81709
1964.84375	14.29288	1.11155	-4.00436	3.20666
1968.75000	9.86077	1.51444	-6.42218	4.74899
1972.65625	13.48716	-3.32083	-5.21357	7.92015
1976.56250	13.08435	-8.15613	4.45663	20.30996
1980.46875	7.44341	-6.94741	4.85939	18.15036
1984.37500	10.66693	-0.09772	-3.60231	2.71359
1988.28125	15.90510	5.94626	-1.99076	7.47495
1992.18750	9.45825	3.52860	3.24712	10.36685
1996.09375	3.01144	-0.50077	-6.02046	0.27892
2000.00000	9.05553	-0.09795	-8.84117	3.69379
2003.90625	17.92013	-2.51551	2.03784	12.30241
2007.81250	9.45871	-7.35075	-1.18579	9.38818
2011.71875	3.81792	-6.94784	-10.05050	-0.09341
2015.62500	3.81814	-2.51566	-4.81262	8.85409
2019.53125	4.62427	-1.70988	-1.58947	3.35190
2023.43750	4.62458	-10.17148	-0.78384	-1.06542
2027.34375	0.59560	-17.02127	-0.78401	8.47647
2031.25000	0.59588	-17.42421	2.43921	1.52194
2035.15625	-5.44785	-17.82717	4.05076	-0.70533
2039.06250	-4.23876	-10.97734	-4.00804	3.02169
2042.96875	4.62597	-6.14221	-6.42585	3.30672
2046.87500	-1.41777	-14.60381	-5.21726	4.74038
2050.78125	-5.44691	-17.02140	1.63238	4.33247
2054.68750	-3.02907	-10.57456	4.85567	7.45903
2058.59375	5.83567	-9.36578	-3.60609	11.56561
2062.50000	10.67108	-6.14241	-4.81510	12.92843
2066.40625	10.26832	-0.50146	1.22870	11.88085
2070.31250	16.71534	0.70729	-1.59204	2.69734
2074.21875	13.89491	-1.71034	0.01951	5.54326
2078.12500	11.07448	-4.93384	-1.59249	18.10357
2082.03125	13.49218	-6.54558	-4.81606	7.25075
2085.93750	7.44831	-0.90463	-7.63666	0.48544
2089.84375	-3.02778	0.70708	-13.27779	-3.78617
2093.75000	-5.04238	-3.72524	-9.65161	-4.43907
2097.65625	-5.44531	-2.91945	-6.42837	-6.37654
2101.56250	-5.44523	-6.94878	-5.62277	-13.32261
2105.46875	-3.83338	-4.12829	-5.62302	-7.68610
2109.37500	-11.48901	-1.30774	-12.07010	-1.01482
2113.28125	-13.50362	-6.94880	-12.87609	0.88102
2117.18750	0.19603	-8.96349	-3.20588	2.99592
2121.09375	-1.41562	-8.15774	-0.78844	5.20142
2125.00000	-3.43028	-6.14319	1.62881	9.93233
2128.90625	1.40492	-9.36671	2.43442	2.14787
2132.81250	-1.81852	-13.39608	-4.41555	-1.06181
2136.71875	1.80789	-9.76977	-7.23625	16.40240
2140.62500	7.04606	-4.53180	-7.63939	6.81563
2144.53125	0.19636	-2.51726	-6.83371	-8.70918
2148.43750	-6.25048	-5.33792	-1.59579	-3.56492
2152.34375	-1.01240	-10.17319	2.03040	-1.00115
2156.25000	2.61398	-9.77033	-3.20787	0.80141
2160.15625	4.62865	-5.74109	-12.87837	-0.42146
2164.06250	13.89615	-2.11479	-12.47562	5.29176
2167.96875	9.86692	-1.30891	0.01504	11.26178
2171.87500	-4.23564	-2.51776	5.25298	7.50915
2175.78125	-1.41500	-1.71196	-2.40289	5.75191
2179.68750	3.82311	-4.12962	-4.01472	5.65136
2183.59375	6.24079	-6.95018	-1.19433	12.44977
2187.50000	7.04671	-10.17370	-5.62674	18.82737
2191.40625	9.06142	-9.77082	-4.41811	24.06596
2195.31250	9.06148	-7.35341	-4.01532	24.80568
2199.21875	5.83819	-8.96525	-7.23893	11.73721
2203.12500	10.67349	-6.54771	-2.80685	9.54256
2207.03125	13.49416	-8.15952	1.22228	15.50624
2210.93750	18.73237	-10.98009	0.81916	18.04549
2214.84375	18.32952	-10.98019	-4.01618	17.66755
2218.75000	13.09159	-9.77149	-5.22520	3.73240
2222.65625	17.12096	-7.75687	-6.43423	6.24149
2226.56250	21.55326	-9.77157	-13.68722	10.16428
2230.46875	19.94166	-6.95116	-8.85230	11.60892
2234.37500	15.91242	-6.95124	-4.42026	10.12408
2238.28125	9.06267	-14.60702	-4.01756	2.99199
2242.18750	7.85402	-16.62177	-6.03251	5.36823
2246.09375	11.88341	-13.39841	-11.27089	9.24981
2250.00000	10.27178	-5.74276	-9.65941	7.97937
2253.90625	12.68949	1.50996	-5.22734	-4.27358
2257.81250	16.31587	-1.31061	-4.01875	0.24737
2261.71875	7.45151	-5.74298	-2.00431	6.52083
2265.62500	10.67511	-3.72843	-2.40744	4.30286
2269.53125	13.89868	-0.90802	-4.42230	1.91896
2273.43750	4.63135	-2.11691	-9.25773	2.27571
2277.34375	0.60219	-5.74330	-10.06391	0.73613
2281.25000	10.67557	0.70358	-8.04945	5.67099
2285.15625	15.91377	3.92692	0.81474	12.65111
2289.06250	4.22888	1.10624	4.03798	11.15696
2292.96875	-5.44141	-2.11730	1.62014	10.02672
2296.87500	4.63198	-2.52027	2.42573	5.26238
2300.78125	7.45261	-0.50566	-0.39496	6.04223
2304.68750	5.03517	-0.50566	5.64884	19.38723
2308.59375	7.45286	2.31479	4.43994	13.12936
2312.50000	5.43826	-0.90874	-5.23058	2.45814
2316.40625	2.61780	-7.75861	-3.61908	-4.70973
2320.31250	11.88528	-2.92358	-6.03688	2.39712
2324.21875	11.07952	-2.52072	-1.20197	5.57538
2328.12500	7.05036	-6.55005	3.23010	-5.45970
2332.03125	8.25929	-3.72959	-1.20231	6.16224
2335.93750	0.60378	1.50846	2.02095	9.50016
2339.84375	-9.46939	0.70255	2.02072	1.98905
2343.75000	-1.00773	-2.92389	1.61754	10.30152
2347.65625	4.63338	-4.53564	-1.20319	8.17459
2351.56250	2.61878	-4.13283	-3.21813	0.18562
2355.46875	3.02169	-3.72995	-3.21835	-5.29675
2359.37500	1.81293	-1.31239	4.84009	-4.85268
2363.28125	-3.42509	1.10513	4.83992	2.54105
2367.18750	-3.02207	-0.90961	-4.83058	-10.43635
2371.09375	-7.45428	-2.11852	-4.83073	-12.65253
2375.00000	-7.85715	1.10484	-4.02499	-0.34729
2378.90625	-11.08056	1.10473	-3.21937	-1.20512
2382.81250	-7.05131	-1.31290	-3.62264	-0.78146
2386.71875	3.02184	-9.77452	-4.02581	-4.47800
2390.62500	-3.82798	-12.19222	0.00328	-6.16208
2394.53125	-5.84263	-4.53664	2.01775	5.40920
2398.43750	5.03644	-2.92510	0.00295	7.69342
2402.34375	9.46869	-1.71640	-3.22068	-3.69378
2406.25000	-1.00749	-1.71651	0.40549	-3.36295
2410.15625	-2.61919	-2.52249	2.82284	8.37425
2414.06250	5.84238	5.93898	2.01671	7.13636
2417.96875	13.09521	2.31253	1.21069	8.54603
2421.87500	15.10990	-5.34327	2.41928	11.93738
2425.78125	11.48353	1.50648	5.23970	12.65384
2429.68750	12.69240	7.55037	8.06011	16.85389
2433.59375	16.31872	6.34149	11.68637	9.66778
2437.50000	10.27477	7.55018	13.70081	13.84304
2441.40625	5.43968	11.17644	13.70065	17.10214
2445.31250	6.64854	5.13228	9.26823	14.15959
2449.21875	9.46903	6.34091	2.82117	7.99413
2453.12500	9.06605	4.32609	4.83567	5.74912
2457.03125	8.66315	3.52013	8.05897	13.51020
2460.93750	3.42503	7.54935	4.43245	4.95151
2464.84375	0.60453	7.54925	6.44689	3.17026
2468.75000	-2.21601	5.53450	9.67012	3.55296
2472.65625	-5.03651	1.90802	4.43197	6.25758
2476.56250	-1.00721	1.90796	5.64053	9.15794
2480.46875	-7.85705	-4.53897	1.20814	-0.74098
2484.37500	-11.48347	-7.76254	-3.22428	5.07199
2488.28125	-10.27464	2.71356	-2.41866	9.17177
2492.18750	-4.63357	9.56323	3.22219	7.96860
2496.09375	2.61917	11.57776	10.07183	7.63529
2500.00000	0.20159	5.53377	9.26583	7.68140
2503.90625	-1.41007	-0.10734	8.45981	10.19616
2507.81250	0.20167	3.11603	9.26546	5.51032
2511.71875	5.43981	9.56288	6.84766	14.10445
2515.62500	6.24567	9.15986	4.42988	20.62619
2519.53125	3.02224	0.29533	5.63839	7.25207
2523.43750	-1.40991	0.69821	-2.82329	-3.61679
2527.34375	8.26044	11.57724	-1.61474	-4.20762
2531.25000	11.08100	10.36836	3.22030	-1.52688
2535.15625	1.81365	3.51846	-1.21215	5.82142
2539.06250	2.21669	2.30956	-2.42120	2.40378
2542.96875	-6.64764	-3.73445	-2.82428	-5.74255
2546.87500	-9.87096	4.32411	-4.43625	-8.29597
2550.78125	3.82870	12.38264	-1.61600	3.38175
2554.68750	9.87271	12.38255	6.03952	9.15397
2558.59375	11.48443	14.80008	2.41295	2.40398
2562.50000	4.23173	7.95017	-2.82523	0.19376
2566.40625	-8.25910	-2.52619	0.39798	0.90121
2570.31250	-7.45326	-0.51166	-1.61685	-2.19686
2574.21875	3.02296	5.53220	-6.85507	-3.22394
2578.12500	-3.42392	6.33790	-5.24346	-0.40284
2582.03125	-11.88533	6.33779	0.80029	-8.77319
2585.93750	-7.45303	4.72604	-2.02042	-8.44626
2589.84375	-0.60313	3.51715	-5.24403	-1.34025
2593.75000	2.21745	3.11406	-1.21485	-3.10894
2597.65625	4.23213	-0.91538	3.62017	7.68249
2601.56250	-2.21477	-0.51253	4.42591	12.08307
2605.46875	-1.00599	1.50202	-1.61829	1.94064
2609.37500	6.24670	1.90482	-5.64785	-2.91383
2613.28125	1.00854	-0.10986	-14.10963	-7.42567
2617.18750	1.00851	-2.93036	-17.73622	-10.81308
2621.09375	3.82899	-3.33329	-4.03679	-14.19611
2625.00000	8.26119	-0.10999	4.82746	1.84353
2628.90625	8.26116	-0.91593	7.24487	-1.67990
2632.81250	3.42606	-1.72185	4.82709	-9.72863
2636.71875	-3.02077	1.50154	-4.44049	3.74412
2640.62500	-1.81193	2.30736	-6.45534	-1.38165
2644.53125	0.20274	2.71028	2.00598	1.33745
2648.43750	-4.63239	-1.72205	-2.42649	-0.05598
2652.34375	-5.84119	-6.15442	-6.05302	-7.19871
2656.25000	-9.46758	-2.93110	-3.63563	-5.45992
2660.15625	-6.64695	6.33619	-8.87390	-7.89783
2664.06250	-8.25868	5.12731	-5.65063	-12.87335
2667.96875	-15.10852	-3.73723	-0.81560	-10.53362
2671.87500	-13.89979	-0.51386	-4.84515	-5.88167
2675.78125	-11.88521	1.09774	-2.83068	-6.19184
2679.68750	-8.66182	-2.12585	1.19841	-2.71825
2683.59375	-10.67655	-0.91723	-2.42816	-2.50905
2687.50000	-5.84148	3.91780	-2.02539	3.55412
2691.40625	6.24631	1.90296	4.01839	0.26512
2695.31250	-1.00648	-2.12641	0.79477	-10.94340
2699.21875	-0.20069	-0.11183	-1.62303	-5.58552
2703.12500	9.87253	2.70863	3.61486	-8.26406
2707.03125	7.45491	11.17007	-1.62342	-0.90614
2710.93750	7.45492	12.37873	-2.42942	8.01681
2714.84375	10.27543	-1.72390	4.42024	-0.77771
2718.75000	5.03736	-4.14161	-1.62398	1.63329
2722.65625	1.41099	0.69353	3.21102	6.12752
2726.56250	-2.21551	0.69347	9.25477	-3.36421
2730.46875	1.41084	1.90212	0.79308	0.04644
2734.37500	-3.42437	-0.11266	-4.84813	7.38087
2738.28125	-6.24489	-4.14211	-0.81898	0.40352
2742.18750	-13.90055	-6.55978	5.22473	-4.46147
2746.09375	-14.70642	-2.12764	4.82154	0.61257
2750.00000	0.20205	5.52804	12.87989	-3.50092
2753.90625	2.61966	7.13969	12.47678	-4.19811
2757.81250	1.41091	10.36302	6.02969	8.05155
2761.71875	-3.02129	9.55704	4.82068	-0.94508
2765.62500	-3.82709	7.94521	7.23807	5.38351
2769.53125	-6.64755	2.30404	8.44666	9.86443
2773.43750	-0.20069	5.52741	0.79077	-0.46101
2777.34375	5.03741	7.94495	-2.02994	2.41626
2781.25000	0.20225	-0.11380	-0.41850	-5.48308
2785.15625	8.66377	-0.11389	6.83402	0.47371
2789.06250	11.08134	2.30365	9.25142	7.50422
2792.96875	7.05212	5.52703	11.26585	4.89078
2796.87500	7.05219	7.13865	12.87735	1.22648
2800.78125	11.48448	1.90049	4.01273	0.86382
2804.68750	11.08156	3.10920	4.81841	8.85121
2808.59375	5.03765	8.34719	11.66811	11.57925
2812.50000	5.84356	9.15299	11.26496	1.38011
2816.40625	9.87288	5.52659	3.20620	2.87059
2820.31250	6.24651	2.30307	6.83242	7.62086
2824.21875	8.66412	7.13817	8.44403	9.56487
2828.12500	12.69339	10.76449	10.05551	12.82128
2832.03125	5.84347	7.54092	14.48752	0.28704
2835.93750	10.27550	1.89974	9.65211	10.16815
2839.84375	9.06663	3.51138	6.02556	14.78887
2843.75000	8.26079	4.31710	9.65166	4.62983
2847.65625	13.49883	4.31699	6.83089	14.85544
2851.56250	4.23135	6.33156	-1.63090	6.44460
2855.46875	1.81368	5.12265	0.38353	-5.48971
2859.37500	7.45466	6.33130	7.23313	1.01360
2863.28125	0.20185	5.52534	1.99484	0.89748
2867.18750	-0.20110	0.69013	-2.84047	-0.04696
2871.09375	5.84289	-1.32458	7.63546	7.36101
2875.00000	3.02226	-0.11593	0.38252	8.68048
2878.90625	7.85737	-2.53354	-7.67629	12.23054
2882.81250	15.91586	-2.13073	-3.24429	17.30750
2886.71875	8.26002	8.74834	-0.42398	13.64545
2890.62500	12.69215	8.34532	0.78470	8.67566
2894.53125	32.83860	-2.13092	1.99334	27.69616
2898.43750	38.07655	-3.33971	4.00777	33.12921
2902.34375	35.25600	-5.75741	2.39579	27.67076
2906.25000	51.37320	0.28641	-2.84247	45.85944
2910.15625	59.02876	9.15076	-0.82802	53.50107
2914.06250	53.79058	6.33020	4.81276	50.75066
2917.96875	56.61105	0.68915	3.20088	55.65176
2921.87500	57.41684	-0.92267	6.02119	60.19378
2925.78125	44.92590	-2.93738	7.22980	45.02010
2929.68750	34.44962	-4.14625	-4.85836	34.65609
2933.59375	36.06126	-1.32576	-8.48495	33.52010
2937.50000	34.04650	-1.32585	-9.29106	31.84996
2941.40625	30.42008	-3.34056	-15.73816	24.21895
2945.31250	28.40537	-4.95238	-6.87392	24.02151
2949.21875	25.98768	-4.14661	-0.02427	30.71063
2953.12500	15.51139	2.30024	5.21365	30.39887
2957.03125	8.66150	-6.56427	3.60169	27.80486
2960.93750	14.70536	-12.20541	-4.45715	6.37776
2964.84375	14.30236	-5.35569	0.78073	5.42871
2968.75000	9.46715	-11.80260	2.79518	10.23557
2972.65625	6.64657	-8.98223	-9.69586	1.09274
2976.56250	8.25827	-6.16189	-14.53118	9.67064
2980.46875	10.27290	-8.57956	-7.27860	17.14825
2984.37500	11.88460	-6.56497	-8.89057	14.22431
2988.28125	17.92849	3.10528	-11.30835	16.74626
2992.18750	22.36067	13.98437	1.18225	13.29252
2996.09375	26.38988	7.53740	6.01714	15.32269
