 	TP9	AF7	AF8	TP10	
-1000.00000	-2.21695	-4.74343	0.48891	16.02612
-996.09375	7.05038	-0.31133	2.10209	9.17660
-992.18750	20.34696	4.12068	-2.73163	7.56526
-988.28125	5.84139	1.29998	-2.73007	-0.08993
-984.37500	-7.85834	-1.92362	-2.32561	-4.92480
-980.46875	-1.00872	-4.74421	1.30218	-3.71571
-976.56250	3.82637	-1.11804	4.93006	-2.50669
-972.65625	-1.41190	1.29936	11.78134	4.34352
-968.75000	-0.60628	-2.32715	4.53005	9.17896
-964.84375	3.01985	-2.32731	-6.34751	-2.50584
-960.93750	-5.84489	-5.95388	-3.92844	-16.20518
-957.03125	5.03404	-3.93940	0.90825	-4.92297
-953.12500	7.04839	-2.32786	-3.92545	7.56793
-949.21875	-6.65154	-7.56616	-4.32690	5.55340
-945.31250	3.82435	-8.77512	0.50969	6.76235
-941.40625	6.24160	-6.76067	-1.50346	-2.90774
-937.50000	5.43548	-3.13454	-1.09898	-3.71339
-933.59375	8.25574	-3.94060	-0.29164	7.56889
-929.68750	7.04669	-2.32904	-1.90190	3.94277
-925.78125	5.43477	1.29714	2.53183	-1.69800
-921.87500	9.46391	2.10283	5.75675	1.92866
-917.96875	2.61399	0.89393	2.53478	16.83734
-914.06250	-0.20660	2.10252	-1.09006	6.76432
-910.15625	1.80786	1.69946	2.13495	-5.72620
-906.25000	-8.26562	-1.52410	1.33061	1.12399
-902.34375	-0.20704	0.08752	1.73513	5.55652
-898.43750	11.88074	4.92264	4.55715	5.95971
-894.53125	1.80739	2.10198	6.97626	3.13948
-890.62500	2.21021	-3.13623	2.94848	10.79547
-886.71875	10.67164	-1.92757	2.54706	2.33431
-882.81250	9.46264	0.08692	8.99547	8.37846
-878.90625	5.03031	2.10144	3.75887	18.85483
-875.00000	8.25359	1.29544	5.37206	12.00528
-871.09375	17.92356	2.50407	6.98533	13.21429
-867.18750	6.23829	3.30975	4.16631	6.76754
-863.28125	-0.61171	3.30957	6.18245	-4.51429
-859.37500	1.40276	2.90648	7.79569	-8.94628
-855.46875	2.61141	-1.12308	4.97667	2.33606
-851.56250	0.19365	-1.52617	0.94884	7.17145
-847.65625	2.61106	-1.92932	5.78545	0.32183
-843.75000	1.80502	-1.92955	11.83087	-2.90136
-839.84375	-5.04494	2.09954	8.60889	-5.72171
-835.93750	11.07219	4.51692	-0.65707	5.96352
-832.03125	17.51893	1.29324	-0.25268	9.59019
-828.12500	13.08653	1.69601	0.15173	9.99342
-824.21875	14.29517	4.91929	0.15321	24.49924
-820.31250	12.68329	4.51614	4.58692	26.11124
-816.40625	19.13013	2.09835	0.55915	24.09690
-812.50000	42.90291	-0.72230	0.56067	30.94699
-808.59375	50.96132	-0.31953	9.42663	46.66158
-804.68750	42.09674	-1.93148	13.45739	49.48239
-800.78125	54.99044	-3.14046	5.80319	41.42421
-796.87500	56.19922	-2.73768	11.44575	53.10967
-792.96875	40.48485	-1.12612	10.64131	55.12468
-789.06250	50.96093	3.70894	1.77835	57.13960
-785.15625	60.22821	2.90294	7.82378	66.40717
-781.25000	46.93142	-1.52944	11.45168	59.96048
-777.34375	47.33430	-3.14130	8.63259	66.81054
-773.43750	53.37816	-2.33550	9.43994	74.06358
-769.53125	45.31941	-0.32096	14.27659	58.34967
-765.62500	39.27533	3.30525	9.84585	43.03854
-761.71875	37.26058	1.29047	6.22099	49.48567
-757.81250	33.63408	-1.93311	8.64001	55.52998
-753.90625	18.72563	-1.53025	8.23858	52.70990
-750.00000	13.48751	0.08134	11.46350	40.21949
-746.09375	16.71085	0.48418	9.85326	44.65218
-742.18750	16.71077	2.09576	3.81086	48.27893
-738.28125	15.50194	5.31912	5.02115	31.75916
-734.37500	4.21968	0.88680	12.27534	26.11851
-730.46875	13.48694	0.48367	10.66504	24.10414
-726.56250	13.48683	2.49819	5.42842	27.73077
-722.65625	4.62224	2.49807	7.04166	35.38672
-718.75000	1.39865	0.08033	11.47535	29.74596
-714.84375	2.20442	-1.12860	13.08851	28.13455
-710.93750	13.88927	2.90061	9.46364	31.76113
-707.03125	5.83048	2.49752	5.43577	21.28523
-703.12500	-0.61651	-0.32308	3.01973	13.22700
-699.21875	6.63614	0.07970	0.60359	6.78050
-695.31250	0.59212	0.48252	0.60504	2.75154
-691.40625	-4.64603	-0.72640	4.63585	-3.29211
-687.50000	3.41243	0.88522	5.44315	13.22823
-683.59375	-3.84038	3.70559	-0.19644	20.07829
-679.68750	-6.25800	6.92892	-0.19503	13.22894
-675.78125	-4.24336	8.94347	0.61221	11.61761
-671.87500	4.21800	9.74922	0.61364	0.33572
-667.96875	7.44134	8.94327	0.21216	5.97699
-664.06250	-7.06420	6.52554	4.64575	12.82710
-660.15625	-1.42322	2.49610	4.64722	7.99228
-656.25000	-5.45268	3.30184	1.02234	5.97788
-652.34375	-7.87045	4.91347	-2.60265	1.14296
-648.43750	-3.03542	2.09278	-0.58655	3.56075
-644.53125	0.59087	3.30146	-0.98797	4.36706
-640.62500	0.18774	2.89841	1.83398	0.74102
-636.71875	-0.61817	4.91293	6.26762	-0.06468
-632.81250	-0.21527	6.92743	4.25436	-2.88492
-628.90625	-9.88574	3.70379	3.44986	1.14470
-625.00000	-1.42432	4.10654	0.22785	1.95080
-621.09375	4.21656	4.91234	1.03506	4.36856
-617.18750	-1.82754	3.70342	5.46863	1.54805
-613.28125	12.27493	2.09154	3.85833	12.02449
-609.37500	17.10994	5.71779	1.44212	21.69518
-605.46875	-12.30421	6.12053	2.24946	14.44265
-601.56250	-18.75124	3.29989	5.87726	7.19001
-597.65625	4.21553	6.12024	8.69923	-1.27135
-593.75000	-12.70774	10.14944	3.46256	-19.40315
-589.84375	-30.43684	8.13466	2.25521	-29.47631
-585.93750	-32.04872	6.11984	3.46535	-34.31105
-582.03125	-43.73384	4.91100	0.24337	-39.14591
-578.12500	-58.23941	4.50796	-2.17282	-44.78691
-574.21875	-50.98671	4.10493	-3.38021	-45.99553
-570.31250	-37.28734	1.68730	-4.99047	-41.56300
-566.40625	-35.27288	0.88137	-8.21250	-32.29539
-562.50000	-34.46704	3.70181	-9.41993	-25.44549
-558.59375	-28.02036	2.49294	-9.82150	-23.02784
-554.68750	-22.37954	-0.32765	-6.59664	-22.62476
-550.78125	-11.09766	-1.53655	-4.58062	-16.98351
-546.87500	-11.90369	-3.95425	-4.98211	-9.32760
-542.96875	-19.15665	-1.13384	-4.17489	-0.46296
-539.06250	-14.32174	0.88078	-5.38236	-6.50669
-535.15625	-19.96293	-1.53690	-3.36633	-21.01196
-531.25000	-16.73968	1.68649	-3.76794	-20.60882
-527.34375	-3.84616	2.08931	-9.40758	-26.24982
-523.43750	-6.66685	1.28338	-4.97394	-11.74433
-519.53125	-13.51694	3.70092	-0.94325	3.16429
-515.62500	-9.89075	1.28328	-2.15066	-1.26775
-511.71875	-10.69678	-3.95489	-2.55225	-11.74389
-507.81250	-8.68239	-3.14915	0.26966	-10.93793
-503.90625	-10.29443	-1.53751	1.47978	1.55307
-500.00000	-17.54745	-2.34347	-1.33934	-8.11706
-496.09375	-14.72719	-0.32894	-3.35260	-5.69931
-492.18750	-5.86301	2.89440	-4.55999	4.77704
-488.28125	0.18084	1.28254	-0.93215	-2.87847
-484.37500	-12.31007	-4.35855	0.68098	-12.14575
-480.46875	-16.74246	-6.77626	0.68239	-15.77204
-476.56250	-0.22253	-3.95589	-1.33087	-14.96616
-472.65625	17.90918	-3.15014	-4.14998	-3.28087
-468.75000	13.87986	-0.73263	-2.13396	6.38984
-464.84375	-18.35463	2.08776	-3.74433	-19.80041
-460.93750	-41.72470	0.47599	-6.96630	-35.11161
-457.03125	-41.72486	-1.13588	-9.78544	-35.11152
-453.12500	-43.73956	-1.94189	-10.58990	-41.15521
-449.21875	-53.00703	2.08724	-8.97683	-46.39294
-445.31250	-52.60428	5.71349	-7.36370	-52.03359
-441.40625	-50.18678	2.08691	-8.57110	-56.86837
-437.50000	-46.15756	4.10138	-15.01659	-54.04753
-433.59375	-32.45793	7.32465	-8.16537	-35.10942
-429.68750	-31.24922	4.50398	-4.13470	-31.88560
-425.78125	-36.08454	3.29501	-11.38608	-44.77917
-421.87500	-32.45816	2.48899	-14.20530	-42.36123
-417.96875	-28.02605	0.87712	-12.99515	-25.43767
-414.06250	-18.75860	2.89160	-10.97910	-22.21379
-410.15625	-22.38495	-0.33198	-8.56008	-29.46612
-406.25000	-19.56446	-3.55557	-10.97627	-29.86858
-402.34375	-25.60839	-3.55571	-13.79539	-23.82424
-398.43750	-27.22003	-4.76466	-9.76470	-24.62974
-394.53125	-20.77330	-3.55601	0.71293	-27.04684
-390.62500	-20.37046	-1.94446	-2.91201	-21.80820
-386.71875	-17.95281	-1.54164	-14.99859	-19.39021
-382.81250	-6.26786	0.87583	-5.72981	-9.31641
-378.90625	-7.07350	0.87571	0.71851	-6.09242
-375.00000	-15.93785	-0.73615	-0.89175	-14.55355
-371.09375	-10.29679	-0.33326	1.52722	-16.16489
-367.18750	-17.54933	-0.33333	1.52865	-12.53795
-363.28125	-15.13152	2.89003	-7.33437	-3.26989
-359.37500	-9.49031	2.88993	-6.12417	-11.32790
-355.46875	-6.66965	2.08391	3.14464	-16.96835
-351.56250	7.03015	4.50137	-0.48035	-5.28274
-347.65625	-3.04306	1.68075	-5.31409	0.76163
-343.75000	-18.35437	0.87480	-2.89508	-6.49074
-339.84375	-11.90730	2.08348	-0.47610	-11.32540
-335.93750	1.38967	2.88933	2.34588	-2.86324
-332.03125	1.79270	3.69510	-1.68206	-4.47445
-328.12500	-7.07167	3.69505	-0.87476	-11.32376
-324.21875	-21.57703	4.90378	1.54415	-0.04123
-320.31250	-17.54759	3.69494	-2.08084	8.01789
-316.40625	0.18155	-0.73734	0.33815	-0.04022
-312.50000	-2.63884	-0.73738	-0.86928	-12.53059
-308.59375	-9.08560	3.29188	-3.28550	-10.51537
-304.68750	-4.25025	1.68015	-2.47826	-7.69439
-300.78125	3.00265	1.27714	-1.67102	-10.11153
-296.87500	6.22610	1.68003	-3.28133	-5.27602
-292.96875	0.18219	-0.33469	-0.86234	-3.66396
-289.06250	-3.04117	2.88869	3.97420	2.78334
-285.15625	-2.63822	6.91791	6.79607	2.38079
-281.25000	2.59983	3.69438	4.37988	-17.36242
-277.34375	-3.04130	-0.33499	-0.45398	-17.76497
-273.43750	-17.14383	2.88840	-0.04972	-5.27374
-269.53125	-3.84710	8.52930	3.17506	-5.67635
-265.62500	5.01737	9.73800	5.59395	-2.04959
-261.71875	-4.25006	7.32029	9.62465	4.80064
-257.81250	1.79387	3.69381	2.77617	-2.85461
-253.90625	5.42027	2.48487	-3.66936	-10.91287
-250.00000	-8.27932	2.08184	-0.84747	-14.13592
-246.09375	-10.29397	4.09640	0.36264	-12.12093
-242.18750	-9.08521	4.90218	1.57267	-4.86783
-238.28125	-6.66772	1.27563	-1.24650	-0.03229
-234.37500	-4.25020	2.88727	-1.64812	-0.83775
-230.46875	3.40546	5.70765	-1.24378	1.58019
-226.56250	6.62890	0.46941	0.36940	-1.64286
-222.65625	-9.08542	-3.15714	2.78830	-10.10397
-218.75000	-7.47378	-1.54553	3.59549	-6.88022
-214.84375	2.59932	0.87192	-2.44708	-5.26807
-210.93750	-3.04178	1.67766	-4.05741	-4.05894
-207.03125	-12.71206	1.67756	4.80838	-20.98173
-203.12500	-13.92078	3.28912	8.03321	-34.27822
-199.21875	-6.66805	0.87146	9.24334	-1.64067
-195.31250	-2.23600	-1.14340	10.45349	6.41837
-191.40625	-4.65368	-0.33769	6.02257	-4.05750
-187.50000	-1.43028	3.28848	4.41218	-6.87782
-183.59375	-7.87725	2.48243	5.62229	-9.29497
-179.68750	-3.84797	-1.95004	6.42960	6.82268
-175.78125	0.98718	-0.74146	4.81926	11.65826
-171.87500	-4.25092	0.87007	4.82064	1.18243
-167.96875	5.82229	4.09323	5.62790	-7.27869
-164.06250	9.85159	4.09303	0.79413	-15.33703
-160.15625	-4.65384	2.07821	2.40720	-7.68124
-156.25000	-10.69776	-1.14542	5.22905	0.37776
-152.34375	0.58428	-1.54852	6.43925	10.45157
-148.43750	9.44872	0.46592	4.02305	8.03445
-144.53125	3.00188	0.06277	2.81565	1.58801
-140.62500	-8.28025	0.86849	10.06987	3.20013
-136.71875	3.40473	-1.54927	7.25085	-9.29029
-132.81250	21.13373	-2.75821	5.23766	8.43924
-128.90625	23.95435	-3.16131	10.88004	42.28588
-125.00000	36.04229	-7.19077	15.71663	45.50971
-121.09375	41.28029	-8.80262	21.76203	37.85428
-117.18750	45.71247	-5.98228	17.73417	35.83982
-113.28125	36.84804	-4.37068	17.73556	41.88404
-109.37500	39.66855	-7.19139	12.09590	50.74895
-105.46875	46.51842	-5.98271	2.82992	45.10830
-101.56250	47.72715	-5.57989	9.68119	39.87062
-97.65625	48.53308	-6.38595	7.66795	42.69155
-93.75000	35.23641	-3.16265	8.07228	40.27426
-89.84375	33.62463	-3.56567	8.07365	36.24517
-85.93750	38.45975	-8.40100	5.25454	42.69230
-82.03125	32.81878	-8.80403	9.68823	53.16886
-78.12500	30.40113	-6.78955	4.45151	40.27549
-74.21875	36.04200	-3.16338	-0.78522	31.81424
-70.31250	35.23609	-2.76055	-3.60440	30.20271
-66.40625	30.40089	-3.56649	-4.81179	21.74134
-62.50000	27.58041	-3.16371	-7.22804	21.74167
-58.59375	25.16284	-3.16382	-1.98857	20.93623
-54.68750	23.95409	-2.35802	2.84802	31.00983
-50.78125	16.70138	-3.16406	1.23774	18.51933
-46.87500	15.49267	-4.37292	4.86546	10.86402
-42.96875	25.56596	-2.76136	6.07573	23.75819
-39.06250	25.56603	3.28241	5.67425	24.56441
-35.15625	34.02764	5.29695	2.85515	27.78816
-31.25000	39.26580	3.68517	0.84189	23.75921
-27.34375	13.47826	6.90852	-0.36550	13.28338
-23.43750	11.86659	6.90845	0.44173	16.10412
-19.53125	10.25490	5.29666	-0.76579	11.26922
-15.62500	19.52223	6.90836	-2.37621	11.67249
-11.71875	23.55148	3.68484	-0.36024	13.28446
-7.81250	13.47816	0.46136	2.05872	12.47878
-3.90625	25.56611	3.28184	-0.35754	14.89657
0.00000	32.01305	5.29647	-2.37091	19.73211
3.90625	21.53695	3.68474	-3.57840	-2.42885
7.81250	7.83732	3.28176	-3.17411	-5.24915
11.71875	9.85188	0.86422	-1.15813	16.10631
15.62500	15.49295	-0.34459	0.45500	12.88298
19.53125	22.74583	-0.34461	-0.75251	14.89777
23.43750	23.55177	-1.95638	-7.60114	3.61591
27.34375	5.01707	-4.37395	-9.61447	-10.88928
31.25000	2.19666	-1.55349	-8.80725	-6.45658
35.15625	13.47886	3.28163	-8.40293	-1.62116
39.06250	38.05770	1.26695	-5.17815	3.61706
42.96875	19.52296	-3.16538	-4.37094	-4.03837
46.87500	-12.71143	-0.34491	-1.14607	-8.06746
50.78125	3.00292	2.07255	-3.56229	-3.23196
54.68750	16.70258	-1.95681	-5.97851	-2.82857
58.59375	8.24116	-4.37434	-3.55967	-2.82824
62.50000	0.98849	-3.97139	-5.17008	-6.05141
66.40625	11.06196	-0.74790	-9.19812	-0.81296
70.31250	16.70338	2.47569	-9.19687	-1.61831
74.21875	-1.83092	4.08756	-6.77805	-6.45281
78.12500	-11.09778	-0.74742	-3.55349	-10.48151
82.03125	1.39359	-8.00003	1.28289	-7.25750
85.93750	17.91431	-6.38819	-3.14812	-2.82467
89.84375	8.64744	-3.97046	-8.78787	-4.43589
93.75000	-6.26065	-1.95570	-6.36895	-15.71738
97.65625	-5.45446	-2.35849	-1.53252	-14.10524
101.56250	3.00725	-4.37309	-2.73997	-6.44911
105.46875	16.70696	-1.14969	-8.78268	-8.86639
109.37500	3.81339	-4.37310	-7.57262	-6.44856
113.28125	14.28976	-5.17901	-1.12450	2.41618
117.18750	30.00423	-0.34378	0.48847	-0.80702
121.09375	18.72232	1.26792	1.69845	2.41676
125.00000	26.78115	0.86501	0.89385	8.86382
128.90625	12.67862	-0.74677	0.49222	4.02885
132.81250	-8.67657	0.86494	-0.71531	-8.05879
136.71875	-3.03547	3.28239	-6.75798	-14.10254
140.62500	1.39681	2.07350	-5.54797	-6.44665
144.53125	-3.43828	-1.55288	4.52658	2.82091
148.43750	3.81441	-1.15002	2.11022	0.00056
152.34375	19.93147	0.46168	-1.51491	4.43295
156.25000	19.12561	1.67040	0.90399	17.32674
160.15625	12.27586	-0.34432	-0.30345	18.93864
164.06250	11.46992	0.86438	-4.73429	-2.41635
167.96875	23.55787	5.29650	-5.53890	-10.07170
171.87500	50.95715	10.13166	-2.31414	26.99794
175.78125	29.19885	14.96674	-2.31285	27.40091
179.68750	-17.94403	10.53444	-0.29694	2.01655
183.59375	-29.22599	4.89342	-1.10148	-26.18846
187.50000	-39.70210	0.86409	1.31744	-43.51433
191.40625	-55.41648	1.66985	-2.71052	-62.45187
195.31250	-57.43125	4.89318	-6.73849	-74.94253
199.21875	-60.65479	5.29594	-3.11083	-59.63096
203.12500	-48.56697	6.50462	-7.94465	-50.36333
207.03125	-48.16406	6.10155	-10.36090	-61.64518
210.93750	-44.13482	1.66926	-1.89801	-55.19812
214.84375	-38.89678	0.46038	-4.31427	-31.82798
218.75000	-53.40230	2.47495	-12.77449	-48.34801
222.65625	-45.34369	2.47488	-13.57900	-60.03271
226.56250	-24.79422	4.08648	-9.54836	-41.90063
230.46875	-24.39121	2.07173	-4.71182	-30.21538
234.37500	-18.34724	-1.15181	-6.72517	-31.42394
238.28125	-21.97364	2.47450	-9.54438	-36.25894
242.18750	-40.50851	2.47442	-3.90197	-38.27342
246.09375	-33.25576	-2.36076	-2.28892	-38.67618
250.00000	-16.73564	-4.77841	-12.76379	-37.46723
253.90625	-2.63317	-5.18141	-15.18004	-34.64656
257.81250	-12.70650	-6.39026	-10.34363	-30.21417
261.71875	-29.22670	-6.39030	-5.10419	-26.18476
265.62500	-15.12420	-1.15227	-1.87940	-19.73763
269.53125	-16.73595	-5.18165	-3.89273	-35.85458
273.43750	-24.79471	-9.61392	-5.10019	-26.98983
277.34375	-19.15373	-2.36127	0.13921	-13.69296
281.25000	-29.22696	-1.15263	3.76686	-32.22760
285.15625	-24.39182	-3.16738	-3.48454	-33.03321
289.06250	-5.05113	-3.97333	-3.48318	-10.46888
292.96875	2.20173	-3.16758	0.95044	-2.40997
296.87500	-9.88613	-1.95890	1.35478	-20.54145
300.78125	0.99298	0.05565	3.37079	-27.79399
304.68750	3.00760	0.86150	-0.65719	-13.69132
308.59375	-8.67739	-2.76495	-3.07343	-11.67649
312.50000	-3.03642	0.45843	-3.47500	-5.63232
316.40625	-10.28916	1.26421	1.76450	-7.64665
320.31250	-5.85678	-0.34753	3.78051	-31.82214
324.21875	11.87223	0.45828	-1.45625	-8.85501
328.12500	14.69268	3.68165	-1.85777	17.33558
332.03125	3.41065	5.69619	5.39634	-0.39319
335.93750	-8.67727	4.08432	5.80059	-36.65671
339.84375	-6.66268	2.87550	-0.24199	-9.66009
343.75000	-7.87142	2.47247	1.37113	9.27800
347.65625	-13.51244	2.06944	8.22230	-21.34448
351.56250	-5.45383	3.68113	11.44710	-18.12085
355.46875	0.18721	4.48693	4.19569	-7.24149
359.37500	-0.61855	4.08391	-2.24984	-13.28519
363.28125	3.00786	1.66630	0.16916	-0.39124
367.18750	-0.38659	-1.15433	-0.23239	-1.19687
371.09375	4.02432	-0.34852	-1.84268	-12.07570
375.00000	5.32684	0.45719	4.60564	-5.22556
378.90625	0.58473	1.66587	7.02460	-2.00186
382.81250	9.15529	4.48626	7.42899	3.23654
386.71875	10.20444	5.69498	1.38645	4.44551
390.62500	12.39679	7.30657	-0.62678	-14.89512
394.53125	10.39018	8.51528	4.20979	-5.22456
398.43750	-5.89082	4.48587	3.00243	-0.38914
402.34375	0.44644	4.08280	-4.65179	-14.08849
406.25000	6.71167	6.90326	3.00527	19.75795
410.15625	1.04940	6.09727	11.46820	25.39909
414.06250	-2.27818	4.48552	8.64910	3.23810
417.96875	9.36650	0.45618	5.82995	-4.41742
421.87500	6.22874	-1.15564	8.24895	-4.41721
425.78125	-15.29991	-2.36445	8.25035	3.23864
429.68750	-11.48174	1.26185	3.01358	-22.95173
433.59375	0.36592	4.08232	2.61199	-17.31051
437.50000	1.22948	4.48523	7.44851	10.08888
441.40625	-8.15306	4.88814	3.42059	-10.05747
445.31250	-17.55571	1.26167	4.63075	-28.59222
449.21875	-1.02022	1.26161	7.45261	-22.95100
453.12500	5.43237	1.66453	10.27450	17.74517
457.03125	-5.72109	-3.17072	14.70812	26.60975
460.93750	-15.30188	-2.76783	9.47140	-3.60981
464.84375	-8.11734	-0.75327	6.24935	-5.22132
468.75000	7.85586	-0.75335	9.07121	14.52244
472.65625	2.04589	1.26123	7.46085	7.26987
476.56250	-4.23067	1.66412	5.44756	5.25542
480.46875	-5.54994	0.05232	9.07527	19.76119
484.37500	-9.55246	-3.17116	11.89714	-1.19101
488.28125	0.64093	0.05227	6.25737	-4.01123
492.18750	9.14813	3.67867	2.22941	0.42110
496.09375	14.56836	2.87275	3.43958	9.28560
500.00000	13.44552	3.67851	3.03800	4.85361
503.90625	17.62217	4.88723	6.26287	12.10671
507.81250	16.01535	4.48415	11.09943	16.13649
511.71875	-3.47745	-0.35115	12.71260	-4.81524
515.62500	-1.70115	0.05160	5.46131	15.73499
519.53125	3.80913	2.06615	1.03054	6.87128
523.43750	-4.76426	3.67780	1.03208	-9.64794
527.34375	-2.83350	6.90111	1.03364	-26.57016
531.25000	0.03455	2.46870	4.25866	-10.85507
535.15625	-3.47514	-3.57540	8.69249	17.75391
539.06250	4.62396	1.66256	-0.57333	16.54596
542.96875	11.52518	5.69171	0.23410	5.66762
546.87500	4.53012	4.07982	4.66792	-19.31328
550.78125	4.77594	4.48261	2.25188	6.07214
554.68750	11.26288	5.69127	-0.16420	17.35497
558.59375	11.85911	3.67647	1.85198	0.83560
562.50000	7.65777	7.70562	1.04766	-14.07216
566.40625	5.46594	7.30251	-3.38313	-10.44507
570.31250	12.36049	-2.36790	7.09457	16.55200
574.21875	17.93790	2.87007	5.88726	6.07643
578.12500	15.44192	12.54022	-1.76694	-25.35162
582.03125	24.72918	10.52545	2.26380	9.70400
585.93750	33.81736	0.45210	1.05648	43.14783
589.84375	42.93601	-1.96559	-2.16550	68.13007
593.75000	66.11390	3.67540	-3.37291	58.05732
597.65625	78.23014	2.46655	5.49299	55.64023
601.56250	58.70676	-2.36868	8.31491	76.19020
605.46875	66.61428	-3.57762	1.46648	74.57899
609.37500	81.59538	-3.98069	4.69125	74.98233
613.28125	65.53838	-3.57787	4.69263	62.49181
617.18750	65.24377	-0.75749	5.09693	60.88038
621.09375	66.07114	0.85418	9.53056	56.04549
625.00000	61.94815	-0.75769	8.32315	50.40466
628.90625	63.06398	-0.75780	4.29520	52.41957
632.81250	55.70220	-0.75789	3.89356	59.67265
636.71875	46.99753	0.04786	6.71549	62.09060
640.62500	46.01410	-0.75806	1.07572	33.07994
644.53125	45.60333	-4.38448	-0.13180	36.70657
648.43750	41.33507	-5.99632	13.16621	79.82034
652.34375	39.83311	-5.19055	13.16750	53.63025
656.25000	40.01495	-1.16132	6.72199	49.60134
660.15625	30.36616	0.04742	4.70866	34.69320
664.06250	24.82962	-0.75849	1.48650	16.15875
667.96875	26.88466	0.04731	9.54642	39.12619
671.87500	28.41086	0.85315	9.54776	14.54767
675.78125	40.67237	-2.37038	7.13147	24.62107
679.68750	26.78106	-2.37045	9.55039	43.96218
683.59375	16.94816	0.04702	0.28430	11.72811
687.50000	20.91976	-0.75887	3.10614	10.51962
691.40625	14.99108	-3.98233	4.31631	25.42839
695.31250	13.11193	-5.59405	-4.14389	14.95258
699.21875	14.30549	-2.77360	-4.94838	9.71481
703.12500	17.92637	-1.96781	4.32033	33.48791
707.03125	23.03598	0.04678	3.51578	29.05585
710.93750	24.96113	4.88193	-0.10934	36.30876
714.84375	20.59715	1.65841	10.36818	49.20270
718.75000	17.92068	-0.75926	5.13141	25.83292
722.65625	23.32788	0.44951	0.29760	26.63896
726.56250	25.97814	-1.56516	1.91068	28.25103
730.46875	19.64186	1.65823	-2.92310	18.17805
734.37500	9.13917	2.46402	-0.90717	28.65448
738.28125	9.42221	0.04635	-5.74102	10.92568
742.18750	15.42055	-2.37127	-7.75438	-16.47334
746.09375	12.82067	-1.96846	-12.58833	-5.19101
750.00000	13.13783	3.67253	-13.79584	29.86418
753.90625	11.78207	3.67244	-9.36229	41.95235
757.81250	16.20965	2.06060	-8.55515	11.73285
761.71875	10.31807	0.85180	-4.52455	11.32998
765.62500	5.72180	1.65759	-8.14975	17.37411
769.53125	-0.19056	3.67217	-10.16313	8.51002
773.43750	-1.68954	2.06035	-6.13252	-2.36868
777.34375	-0.39593	1.25448	-4.11660	-19.69423
781.25000	-6.48645	-1.16315	-3.30948	-13.24690
785.15625	-12.64628	-3.58073	-6.53152	-2.36743
789.06250	-13.49187	-0.76026	-9.75361	-6.39639
792.96875	-6.28964	-2.77494	-11.36400	2.06560
796.87500	-2.51715	-5.59545	-8.94500	6.90128
800.78125	-3.16515	-3.58080	-10.55542	-0.75402
804.68750	-5.62215	-0.76029	-13.77759	-4.78321
808.59375	-5.81497	1.25436	-12.97037	-1.96249
812.50000	-6.04538	-0.76029	-6.92520	-0.35071
816.40625	-10.30007	-2.37200	-6.52103	-9.21510
820.31250	-5.10632	-3.98377	-8.13154	-15.66190
824.21875	-1.01310	-1.96914	-3.69805	-11.22967
828.12500	-1.74023	-1.16328	-1.27929	-7.60327
832.03125	5.89583	-4.38669	-3.69558	-8.00607
835.93750	4.06065	-0.76042	-7.32064	-3.17089
839.84375	3.80690	-0.35753	-10.54268	4.48498
843.75000	16.89315	-1.16345	-7.31791	19.79663
847.65625	16.05927	4.07467	-3.69023	15.76755
851.56250	-6.32175	2.06006	-3.68892	-13.24341
855.46875	-27.12261	2.06012	-4.49343	-35.00142
859.37500	-48.55023	3.26893	-4.49211	-43.05972
863.28125	-62.30989	2.86599	-5.69959	-62.80303
867.18750	-67.65596	3.26885	-10.53347	-81.74047
871.09375	-84.19731	3.26886	-14.15855	-84.56085
875.00000	-88.13284	3.67173	-18.18656	-92.21622
878.90625	-79.98099	0.04527	-23.02040	-95.03650
882.81250	-80.67758	2.05993	-27.45121	-84.96294
886.71875	-75.19604	11.32724	-23.42056	-71.26292
890.62500	-63.73598	10.92428	-13.74893	-68.03905
894.53125	-58.08657	3.67149	-11.73280	-66.02378
898.43750	-54.62339	0.44802	-11.32849	-53.93515
902.34375	-49.09146	0.85092	-10.92410	-53.53142
906.25000	-35.16980	-1.16388	-8.90804	-40.63673
910.15625	-38.81663	-3.58147	-4.47431	-36.20352
914.06250	-53.42556	3.67123	-4.47275	-53.93140
917.96875	-50.64458	2.86526	-7.69470	-48.69225
921.87500	-50.15502	-12.04333	-6.08158	-45.46783
925.78125	-43.47770	-12.44643	-8.09478	-45.46672
929.68750	-29.58533	-4.79089	-9.70492	-30.96006
933.59375	-35.06286	-10.43210	-6.07706	-26.92970
937.50000	-26.94552	-8.01462	-10.91078	-27.33170
941.40625	-20.20987	-1.56784	-13.32693	-26.52481
945.31250	-28.80598	-0.35915	-12.51963	-30.15009
949.21875	-19.11966	-0.76217	-9.69762	-41.83422
953.12500	-25.56033	-1.56810	-6.87567	-34.98357
957.03125	-28.25181	-1.97114	-6.06849	-14.83630
960.93750	-15.67106	-1.16539	-5.26137	-8.79175
964.84375	-23.39469	2.86388	-8.88648	-12.82070
968.75000	-22.32995	5.68434	-14.52631	-16.44679
972.65625	-13.63448	3.66965	-8.07818	-12.01444
976.56250	-1.37628	-0.76263	0.78760	-27.72867
980.46875	-15.58957	0.44611	-3.24049	-34.57849
984.37500	-19.18946	3.66951	-2.03040	-16.04362
988.28125	-8.19049	2.86367	-1.62616	-8.38794
992.18750	-9.35380	3.66953	-2.43071	-23.29645
996.09375	2.51325	2.86370	5.22628	-21.68481
1000.00000	2.19599	-1.16562	8.85396	14.57883
1003.90625	-9.34219	-3.58309	4.01995	13.36987
1007.81250	-5.30854	-2.77718	-0.00816	2.49058
1011.71875	-1.83504	0.44631	4.42531	12.56369
1015.62500	3.56687	3.66981	8.05300	-11.20934
1019.53125	7.06167	2.05811	4.83086	-24.90908
1023.43750	4.93423	-0.35935	10.87608	-3.15110
1027.34375	-4.01511	-2.37392	10.07143	5.71305
1031.25000	-10.01242	-3.17977	3.22280	-6.77796
1035.15625	-9.49364	-6.40320	9.67091	-23.70122
1039.06250	-6.63344	-9.22367	5.23984	-3.95787
1042.96875	-7.79167	-6.80604	9.67328	12.56207
1046.87500	-11.96701	-3.58256	13.70384	0.07100
1050.78125	-2.05165	-1.16500	9.27279	-12.42015
1054.68750	0.00237	-0.76205	10.88569	-3.95888
1058.59375	-4.23728	0.84967	1.61948	-6.77961
1062.50000	-7.63350	-1.56799	4.84412	-26.52340
1066.40625	-11.03472	-3.98563	12.09802	-5.57117
1070.31250	-2.93202	-0.35927	9.27864	9.74026
1074.21875	-4.20508	-0.35934	4.04177	6.11383
1078.12500	-12.34270	-1.56818	-2.40380	-36.99976
1082.03125	-13.12898	-2.77702	-0.38792	-30.14999
1085.93750	0.79393	-3.58291	4.85135	12.15755
1089.84375	-0.56415	-0.76247	8.07602	-8.79499
1093.75000	-8.81536	1.25212	8.07722	-12.01849
1097.65625	-2.34061	-0.35962	6.46665	-18.06239
1101.56250	-2.12088	-2.37432	3.24437	8.93391
1105.46875	-2.27237	-0.35971	0.42501	-1.54246
1109.37500	-1.79719	0.04315	-0.78260	-32.16518
1113.28125	-6.57243	-1.97153	4.05375	-16.45088
1117.18750	-10.09076	-2.37444	6.47254	-6.37761
1121.09375	-4.42847	-4.79204	7.68257	17.79829
1125.00000	-4.52221	-8.41846	7.68383	25.85694
1128.90625	-0.98904	-7.20970	3.25276	-8.79504
1132.81250	-3.51574	-8.82142	5.26864	-13.22721
1136.71875	-9.40005	-6.80682	2.44937	0.47244
1140.62500	-9.17489	-2.37464	-3.19050	-11.21243
1144.53125	-5.15357	-3.98648	2.45176	-3.55669
1148.43750	-0.55762	-7.20999	7.28813	23.03685
1152.34375	-4.47737	-6.00125	6.48344	-10.80939
1156.25000	-0.66941	-8.41893	4.06696	-13.62995
1160.15625	4.99285	-8.82189	1.24763	10.14294
1164.06250	3.88820	-4.38970	1.65174	11.75464
1167.96875	5.54019	-2.77804	5.27918	10.94878
1171.87500	3.43976	-1.56931	1.25103	-18.86805
1175.78125	5.62780	1.25109	3.26683	-16.45049
1179.68750	4.22712	2.45977	7.29739	16.18704
1183.59375	-2.38256	4.47427	0.44880	10.54615
1187.50000	1.58887	-4.39032	-4.38523	11.75483
1191.40625	3.31560	-12.44912	-0.35480	16.18697
1195.31250	-5.81651	-8.82287	2.86975	-3.15360
1199.21875	-6.23472	-1.97323	-5.18773	-27.32935
1203.12500	-7.04627	-0.36160	-2.36601	-7.18278
1207.03125	-2.74267	-1.97347	2.47029	21.82830
1210.93750	0.39111	-0.36182	-0.34900	-12.82351
1214.84375	-10.41979	-0.36193	0.45799	-12.01747
1218.75000	-5.03761	-1.16798	4.89139	6.92047
1222.65625	3.18995	-1.97396	9.32479	6.11477
1226.56250	1.00497	-0.76528	0.46149	0.87668
1230.46875	-0.89913	-2.78005	-2.35787	10.94994
1234.37500	-0.92573	-5.60067	3.68728	11.35307
1238.28125	-0.23981	-5.19791	4.09134	-20.88121
1242.18750	5.35560	-1.57163	0.46609	-16.04600
1246.09375	3.56161	1.24875	0.46723	21.42675
1250.00000	6.69928	2.86041	-1.14335	-7.18107
1253.90625	19.04311	7.69548	1.67838	-5.97222
1257.81250	18.63561	6.88958	8.93230	41.17067
1261.71875	5.08856	2.45728	8.93341	24.65073
1265.62500	4.92463	-1.57206	8.93454	10.95135
1269.53125	12.71165	-3.58673	6.11513	6.51937
1273.43750	7.18304	-2.78090	8.93685	4.50490
1277.34375	7.26763	-4.79556	10.14678	6.92251
1281.25000	13.26483	-3.58679	10.95370	13.36948
1285.15625	7.10469	-2.78097	12.96946	10.14603
1289.06250	4.64720	-4.39270	10.55307	6.11679
1292.96875	12.25213	1.65119	8.94254	29.08405
1296.87500	18.03905	0.03939	10.55538	27.47239
1300.78125	9.73524	-1.57230	4.91558	11.35530
1304.68750	0.83141	0.03943	-2.73902	-10.40276
1308.59375	5.07087	0.44238	2.09721	8.93804
1312.50000	6.04937	6.88924	3.30717	34.32279
1316.40625	4.61535	7.69504	-3.54142	30.29356
1320.31250	6.18280	3.66567	-3.94317	18.20564
1324.21875	1.81464	2.45685	0.49018	-18.05803
1328.12500	0.68470	0.03924	3.31182	-15.23736
1332.03125	-3.36416	-2.37835	4.92477	15.78826
1335.93750	-4.39341	-2.37840	4.11997	9.34143
1339.84375	13.08179	-1.97557	-0.31117	0.88011
1343.75000	12.46832	-2.78152	-1.92172	7.32703
1347.65625	-3.27407	-0.76698	4.12344	28.27946
1351.56250	-5.10574	2.05343	7.75100	17.80341
1355.46875	-2.93972	-2.78176	4.93154	-3.95468
1359.37500	3.03196	-6.40814	0.90315	10.95373
1363.28125	-0.65451	-3.18472	6.14221	15.78905
1367.18750	-1.97135	-1.57304	8.15813	16.59515
1371.09375	0.02212	0.84446	-0.30210	1.68670
1375.00000	-0.28702	1.65016	1.71384	7.73072
1378.90625	-0.59673	-2.78219	3.72979	21.83356
1382.81250	1.93005	-3.58813	-2.71586	-12.01241
1386.71875	10.63493	0.03812	0.91176	13.37239
1390.62500	7.58922	-0.76782	6.55401	38.75710
1394.53125	5.17958	-2.37959	4.94363	23.04292
1398.43750	10.25394	-0.76800	2.93026	7.73184
1402.34375	12.15903	-5.20042	8.16966	6.92646
1406.25000	20.84223	-8.42405	13.00597	42.38483
1410.15625	16.38899	-1.57438	10.99259	29.89440
1414.06250	4.60003	0.84310	-0.69089	-23.29201
1417.96875	22.69184	-1.97753	-6.73344	-0.72751
1421.87500	38.49189	1.64875	-1.49401	53.26541
1425.78125	44.36259	5.67793	-1.08973	53.66853
1429.68750	60.67185	8.09545	-10.75873	29.09012
1433.59375	77.75780	8.49828	-13.57807	48.43109
1437.50000	85.87455	6.08064	-7.93567	91.54478
1441.40625	74.07468	1.64840	-4.71093	88.72426
1445.31250	63.86632	-1.17221	4.15476	72.60735
1449.21875	67.91116	1.64825	4.96202	57.29638
1453.12500	63.88782	-2.38109	11.41009	69.78754
1457.03125	62.00199	-7.61921	15.44065	75.83162
1460.93750	67.32980	-1.57532	13.42729	73.01128
1464.84375	59.60606	0.84227	10.20518	69.78826
1468.75000	54.22399	0.84219	4.16236	68.98270
1472.65625	58.89019	2.05080	5.37241	55.68608
1476.56250	57.85188	-0.76977	0.13555	47.62759
1480.46875	53.30922	0.84193	-1.47493	40.77797
1484.37500	50.11256	1.64771	2.95856	28.69017
1488.28125	44.59158	2.45350	0.54221	23.04932
1492.18750	39.39915	3.25930	-2.68001	14.99078
1496.09375	35.14919	3.25926	-3.48471	29.49626
1500.00000	42.08488	4.46803	-8.31882	51.25454
1503.90625	32.56171	4.46798	-7.91469	44.40482
1507.81250	14.03178	0.43861	0.14513	19.02050
1511.71875	23.95267	-3.18787	-0.25653	-3.14048
1515.62500	25.72852	-5.20260	-0.65826	16.20026
1519.53125	18.34471	-5.20267	6.19276	44.80855
1523.43750	12.59143	-5.60562	0.95594	32.72083
1527.34375	11.70119	-4.39685	-5.48980	3.71001
1531.25000	12.15124	-4.39689	-0.25048	-6.76608
1535.15625	10.25289	-8.42633	2.57126	-5.55721
1539.06250	15.53108	-6.81468	-5.88913	11.36615
1542.96875	10.34392	-6.00894	-4.67919	32.31879
1546.87500	6.57190	-5.60607	-3.87222	19.02229
1550.78125	7.22035	-5.60612	-7.90036	0.48767
1554.68750	8.06602	-5.60615	-6.69039	17.00804
1558.59375	16.31776	-3.59156	-4.27169	17.00810
1562.50000	15.74247	-5.60629	-1.85305	5.72615
1566.40625	4.28292	-3.59174	-6.68706	19.42604
1570.31250	-2.92547	-2.38302	-3.86546	19.02332
1574.21875	1.03999	-3.99483	-3.05851	12.17362
1578.12500	6.60228	-0.77146	-9.50420	7.33860
1582.03125	5.81615	-2.78619	-3.45910	10.15929
1585.93750	1.60738	-4.39792	-1.44331	-4.34599
1589.84375	-7.40610	-2.78625	-1.03931	-5.55466
1593.75000	-12.43354	-1.98045	1.37938	3.71288
1597.65625	-6.76420	-1.17465	1.78343	2.10144
1601.56250	5.54393	1.64585	-1.84187	3.31042
1605.46875	7.40732	2.85460	-3.85533	2.50465
1609.37500	-1.38465	4.46623	-0.22776	-0.31584
1613.28125	-9.38295	6.07787	-0.22664	9.35471
1617.18750	-18.54203	3.66028	-3.04605	-12.40327
1621.09375	-25.77337	4.06311	-4.65663	-49.87562
1625.00000	-26.26994	3.66009	-3.04386	-4.74738
1628.90625	-25.15415	3.65997	0.18067	-7.97069
1632.81250	-28.48654	3.25695	-2.63874	-45.04028
1636.71875	-27.52086	0.83937	-4.24935	-11.99996
1640.62500	-25.28092	0.83933	3.81038	-9.58226
1644.53125	-24.48289	0.43634	3.40859	-20.86418
1648.43750	-22.70722	-0.36954	5.42437	-9.98492
1652.34375	-14.53876	-0.77249	3.81374	-18.84936
1656.25000	-4.28390	0.43627	-5.04971	-29.32553
1660.15625	-14.33583	-2.78722	0.18946	-11.19358
1664.06250	-17.85785	-5.60770	0.99648	10.16188
1667.96875	-12.17636	-3.19015	-0.21114	6.53576
1671.87500	-13.87356	0.43621	-2.22458	1.70071
1675.78125	-15.31163	-1.17560	-4.64104	-7.96938
1679.68750	-13.48864	-6.01080	2.61285	-11.59558
1683.59375	3.27191	-2.78741	5.03157	4.11884
1687.50000	12.48151	6.88287	-1.01135	4.52199
1691.40625	3.32939	3.65937	3.42201	-7.96872
1695.31250	0.64442	0.83884	8.66125	-22.87700
1699.21875	-1.78844	6.07683	7.85652	-8.37128
1703.12500	-3.80863	3.25630	2.61952	12.58120
1707.03125	4.12156	5.27091	4.23236	-13.20631
1710.93750	14.10539	9.30019	3.83056	-33.35267
1714.84375	5.71222	4.06207	-1.40647	7.74649
1718.75000	4.64782	3.25617	-3.01712	38.77237
1722.65625	11.66681	6.47958	-2.21014	10.97027
1726.56250	6.25848	5.27070	1.41724	-13.60831
1730.46875	1.53398	3.25598	1.41824	14.99983
1734.37500	1.50746	0.83840	1.01636	18.22339
1738.28125	2.59645	0.43541	2.22614	1.70341
1742.18750	4.16272	4.46466	-2.60786	-7.56380
1746.09375	0.35433	2.45000	-5.83019	-3.53432
1750.00000	-4.56642	1.24115	2.63242	17.01535
1753.90625	-6.32508	-1.57940	3.03647	-10.38378
1757.81250	0.52025	-3.19118	-1.79763	-6.35423
1761.71875	10.74617	0.83812	-5.82583	2.91336
1765.62500	3.32948	0.83805	0.21920	9.76329
1769.53125	-4.19480	0.43505	2.63787	-8.36849
1773.43750	-0.85872	-0.37082	-3.80800	-24.88843
1777.34375	0.43467	-6.81778	2.63996	23.86625
1781.25000	8.84927	-4.40024	2.23811	18.62817
1785.15625	7.92729	-3.59445	-5.01361	1.30228
1789.06250	-0.97702	-7.22088	-3.80384	5.33169
1792.96875	0.18106	-8.42967	3.85284	12.98739
1796.87500	-3.29960	-9.23552	5.86850	29.50746
1800.78125	-0.72450	-3.59444	1.03431	12.98724
1804.68750	8.10038	-0.37095	1.43818	-20.45595
1808.59375	1.46053	-0.77390	-3.79889	-10.38280
1812.50000	-4.41101	-0.37096	-6.21541	-1.11552
1816.40625	-7.05393	-1.98269	-0.97639	12.58405
1820.31250	-6.29237	-2.38558	-0.57243	25.47774
1824.21875	9.48579	0.03193	-2.18309	-5.54803
1828.12500	8.75865	2.44950	-2.58504	-7.56282
1832.03125	-0.52838	2.44949	3.45992	-1.11595
1835.93750	1.26280	5.26994	5.47560	22.65690
1839.84375	2.21771	6.07573	2.65611	20.23921
1843.75000	5.63356	5.26986	5.47759	13.79230
1847.65625	7.21727	5.26986	9.10503	19.03038
1851.56250	0.95338	0.43470	5.88266	-18.84510
1855.46875	-2.11865	0.43470	3.46608	-11.18942
1859.37500	-1.38515	5.67277	1.45241	0.09260
1863.28125	-2.65395	4.86692	3.46809	-8.36888
1867.18750	10.93775	0.03170	0.64867	33.13308
1871.09375	21.39268	2.85222	-5.39424	31.52150
1875.00000	4.96637	8.89617	-4.99035	1.70470
1878.90625	-14.68393	7.28441	-2.97468	-3.13026
1882.81250	-27.46853	5.67269	2.66741	-9.57697
1886.71875	-34.47784	7.68734	-1.36082	-42.61714
1890.62500	-41.14978	11.31369	-1.76267	-54.30204
1894.53125	-52.02078	12.92548	1.86480	-40.60226
1898.43750	-66.28690	5.67275	0.65703	-38.18442
1902.34375	-67.20226	4.86690	-3.37116	-57.92776
1906.25000	-57.71344	9.70202	-11.83155	-73.23891
1910.15625	-50.07887	8.09030	-17.06857	-65.58318
1914.06250	-41.72138	10.10493	-11.42653	-64.37424
1917.96875	-34.91166	5.67264	-5.38158	-54.70371
1921.87500	-38.45213	3.65796	1.46928	-17.63394
1925.78125	-40.64001	2.44916	3.88796	-27.70690
1929.68750	-36.82159	-0.37131	2.27728	-38.58578
1933.59375	-32.62936	4.06089	-2.55680	-28.10932
1937.50000	-34.98892	4.86679	-4.16740	-20.05048
1941.40625	-39.93893	3.25501	0.26581	-7.96229
1945.31250	-42.08868	0.83743	4.69904	-12.79726
1949.21875	-33.61169	5.26959	0.67076	-45.83729
1953.12500	-25.95028	13.32816	0.26885	-37.77855
1957.03125	-29.04499	8.89593	-2.55062	-26.49642
1960.93750	-19.68778	3.65775	-7.38471	-33.34597
1964.84375	-20.15864	3.65767	-0.53381	-23.67535
1968.75000	-25.13778	2.44877	3.89950	-17.63129
1972.65625	-24.90379	2.85161	3.09465	2.91824
1976.56250	-22.31585	3.25442	-0.93373	-5.14021
1980.46875	-15.57654	4.46317	-6.57374	-16.42212
1984.37500	-13.93806	3.65730	0.67997	-16.01915
1988.28125	-11.80337	1.23968	1.88981	-28.50990
1992.18750	-17.39873	1.64260	1.89088	-26.89811
1996.09375	-21.24570	2.04544	4.71238	-18.03358
2000.00000	-15.92180	3.65713	-0.52470	-29.71836
2003.90625	-11.34244	5.26875	2.69977	-9.97463
2007.81250	-13.75521	5.26867	5.11836	-3.52762
2011.71875	-11.89299	7.28324	1.09008	-18.03296
2015.62500	-2.86441	9.70075	3.91163	6.54592
2019.53125	-8.23367	8.08899	8.34492	14.20166
2023.43750	-8.34606	5.67132	2.70489	-1.51247
2027.34375	-8.02760	2.04484	4.31759	2.51704
2031.25000	-5.56288	4.86528	4.72161	-46.23740
2035.15625	0.59750	6.47684	1.49924	-28.91095
2039.06250	1.84651	4.46214	2.30612	16.21754
2042.96875	5.52382	6.47679	-1.72212	5.74146
2046.87500	13.43668	9.29728	-6.95923	24.27637
2050.78125	13.27899	8.49143	-1.72020	31.52904
2054.68750	-2.39592	4.86512	1.50413	-15.21112
2058.59375	-5.82966	5.26806	1.90794	-12.79388
2062.50000	3.66795	3.25345	3.92347	27.09598
2066.40625	7.51928	3.25344	7.55068	-4.33298
2070.31250	8.36894	6.47686	7.95446	0.50177
2074.21875	7.49868	2.44752	6.74647	23.06549
2078.12500	-0.23606	-1.17893	5.53847	-12.39281
2082.03125	3.40962	-1.98481	6.34512	-7.55789
2085.93750	5.64744	-3.59654	5.94308	4.93278
2089.84375	1.46895	-2.38778	7.95861	-10.78162
2093.75000	7.72332	-1.98489	7.15366	-1.91714
2097.65625	27.09196	0.43271	-2.51579	23.46743
2101.56250	38.99689	8.49129	-0.09734	17.02059
2105.46875	20.31062	9.29712	9.17091	1.30625
2109.37500	-13.06028	0.02969	7.96299	5.73831
2113.28125	-33.14676	-2.79086	4.74043	-5.54372
2117.18750	-33.44154	-2.79090	3.93552	-35.36043
2121.09375	-28.98797	-3.59677	3.13060	-34.55450
2125.00000	-29.48456	-3.19391	3.93740	-27.70445
2128.90625	-34.00988	-1.17929	4.74425	-29.31605
2132.81250	-24.85137	2.04415	-0.08994	-28.51018
2136.71875	-8.57431	5.26759	-0.49193	-41.40384
2140.62500	-5.93142	0.83539	7.97064	-9.16928
2144.53125	-14.80369	-4.40273	11.19507	-9.97502
2148.43750	-20.28087	-3.19403	3.54036	-18.83933
2152.34375	-16.94765	2.84994	-2.90553	4.53080
2156.25000	-6.69269	3.25281	7.16877	-11.58638
2160.15625	-7.88018	-5.61163	15.63133	-27.30048
2164.06250	-7.77578	-3.19411	7.57369	1.71075
2167.96875	-7.73524	0.02930	3.54536	12.18722
2171.87500	-0.97091	-3.19420	8.38157	5.33761
2175.78125	13.30525	0.43215	9.99427	-2.31798
2179.68750	9.89019	4.46140	1.53368	-4.73539
2183.59375	8.51896	3.25257	3.95225	3.72635
2187.50000	6.84961	-0.37379	5.56495	-15.61407
2191.40625	0.11518	-3.59727	0.32784	-12.79341
2195.31250	1.86250	-5.20907	2.34346	12.99430
2199.21875	2.65330	-6.01497	-3.29656	14.60635
2203.12500	-2.59021	-6.01504	-5.31023	-11.58384
2207.03125	-10.37416	-7.62680	3.95815	-23.26857
2210.93750	-12.07530	-10.04444	7.18261	-18.03020
2214.84375	-8.78343	-13.26792	8.79530	0.10197
2218.75000	-0.98337	-10.85037	11.21391	2.51982
2222.65625	6.84151	-7.22410	3.55920	-16.41773
2226.56250	-1.38706	-8.83583	-3.28960	8.96709
2230.46875	-8.52893	-8.43290	1.94957	9.37027
2234.37500	-3.31724	-6.82117	6.38282	-13.59661
2238.28125	-1.42231	-6.01540	-1.67481	-17.62575
2242.18750	-3.88527	-3.59784	-4.49435	-5.13465
2246.09375	-4.47026	-2.79200	4.77403	0.10367
2250.00000	0.27926	-4.00080	6.78965	2.52139
2253.90625	2.14694	-5.20961	12.83457	-11.58110
2257.81250	2.14250	-5.20963	8.40335	-5.13404
2261.71875	0.28058	-3.19500	-2.87775	18.63907
2265.62500	-2.70380	-1.98619	1.55550	4.13374
2269.53125	2.26272	-2.79203	8.40636	-9.96868
2273.43750	0.76373	-8.83603	5.98976	7.35754
2277.34375	-3.18073	-16.08886	2.76725	11.38711
2281.25000	-0.80992	-13.67139	2.76820	-0.29767
2285.15625	-2.53759	-7.22457	4.38092	-0.70033
2289.06250	1.45198	-1.98653	2.77025	-14.39974
2292.96875	3.41604	-1.18072	-2.86980	-10.37024
2296.87500	-5.30249	-4.40414	1.56348	20.65571
2300.78125	-6.75628	-1.98666	0.35572	13.40333
2304.68750	-5.18379	2.84851	-0.04618	4.53915
2308.59375	-2.95880	1.63968	-2.86569	-3.11634
2312.50000	2.45200	-7.22486	-0.84997	2.12205
2316.40625	0.61517	-9.64245	-1.65476	8.56921
2320.31250	4.60047	0.02780	-8.90646	-7.54784
2324.21875	11.51460	5.26585	-1.65270	6.95793
2328.12500	8.37017	4.86292	1.16885	0.10838
2332.03125	-5.34885	4.45991	-0.44193	-13.59107
2335.93750	-5.97502	-1.18119	5.60300	-13.18785
2339.84375	1.02415	-6.41931	8.02161	-5.12899
2343.75000	-3.61836	-0.37534	2.38153	9.37674
2347.65625	-4.04912	2.84806	6.41182	18.64431
2351.56250	2.17812	-0.37545	4.80114	17.03284
2355.46875	-0.49082	-3.19605	2.78745	11.39211
2359.37500	-4.59223	-3.59896	8.42947	2.93080
2363.28125	0.98907	6.47427	11.25101	-6.73932
2367.18750	5.31346	6.47426	9.64026	9.78115
2371.09375	8.11287	-4.00199	6.01490	10.18427
2375.00000	3.37169	-0.77862	10.85101	-8.35031
2378.90625	-1.37007	4.05648	13.26958	19.04921
2382.81250	0.35101	3.25060	7.22663	14.21429
2386.71875	5.42965	2.44473	7.63050	-3.91730
2390.62500	3.19004	4.86232	3.19929	-14.79621
2394.53125	-0.02523	3.65351	-3.24664	-19.22826
2398.43750	9.88448	6.47395	2.79821	9.37998
2402.34375	6.55166	5.26509	1.18747	4.54499
2406.25000	3.54975	-0.77886	-2.43798	-7.94563
2410.15625	5.54338	-2.39057	-1.22825	10.18657
2414.06250	5.03653	-1.98772	-2.43607	15.42500
2417.96875	7.81701	4.05621	-4.85271	-23.25611
2421.87500	11.52932	9.69724	-4.85175	-15.60017
2425.78125	12.96785	6.07081	-1.62732	36.78115
2429.68750	13.15996	0.83277	2.40289	23.88764
2433.59375	10.09930	-2.79368	-0.41665	0.51779
2437.50000	11.76905	2.44435	-0.81860	-10.76402
2441.40625	16.89256	5.26480	6.43516	10.18879
2445.31250	13.93729	0.02667	7.64499	12.20400
2449.21875	8.31219	-1.18217	2.40792	-9.55360
2453.12500	13.55672	2.84713	-3.23203	13.01120
2457.03125	18.11833	5.26460	-1.61929	36.38201
2460.93750	14.17942	2.84700	-0.40943	14.62464
2464.84375	13.70910	4.45865	-3.22880	11.40211
2468.75000	14.37169	3.24979	1.20458	10.59722
2472.65625	8.15949	2.44387	3.62323	-3.50455
2476.56250	9.13645	4.05549	-1.21079	-0.68322
2480.46875	14.66756	3.24954	-0.80675	17.44940
2484.37500	13.08317	4.45824	-2.41737	16.64423
2488.28125	18.44184	0.83183	-6.44566	4.55688
2492.18750	12.44403	-3.60050	-6.04167	1.73684
2496.09375	4.56819	0.83166	-4.02601	-0.27727
2500.00000	6.26619	0.02567	4.03362	11.40829
2503.90625	1.57844	-3.19784	3.63171	2.14145
2507.81250	8.03046	0.42848	-1.60541	-4.30496
2511.71875	8.68427	1.63719	3.23077	2.94820
2515.62500	-2.03033	-1.58635	5.64934	0.93398
2519.53125	-8.20516	-2.39228	-1.19948	7.38124
2523.43750	-9.92903	-0.37773	-9.25714	13.42551
2527.34375	-11.22196	-4.40714	-10.86792	-4.70593
2531.25000	-4.32483	-3.19849	-8.85228	-2.69080
2535.15625	-0.58204	-0.78096	-8.44833	-3.49636
2539.06250	-4.16814	-1.58689	-11.67081	-19.61327
2542.96875	-0.49074	-5.61625	-4.41712	-3.09283
2546.87500	2.58726	-9.24274	0.41896	-6.71887
2550.78125	1.22114	-3.19892	-2.40060	0.13132
2554.68750	-2.36535	-6.82537	0.42080	17.05466
2558.59375	-0.96334	-6.42256	3.24228	15.84617
2562.50000	11.75831	-0.78158	0.82567	5.77321
2566.40625	13.59571	-0.78161	-0.38212	-5.91142
2570.31250	6.79047	0.02419	8.88625	9.80315
2574.21875	1.89165	-0.78174	2.84325	23.50302
2578.12500	-0.60441	-5.21407	-3.60270	15.44482
2582.03125	1.83313	-6.42298	4.45684	13.43063
2585.93750	-1.56959	2.03850	4.05487	2.55197
2589.84375	-0.50956	2.84433	0.02649	-6.31217
2593.75000	0.10416	1.23250	2.84789	-4.70021
2597.65625	2.14729	4.05291	5.26636	-12.35557
2601.56250	1.56177	1.23236	1.23799	9.80596
2605.46875	-5.84201	1.63527	1.23893	17.46194
2609.37500	-4.96351	4.85866	6.07497	18.67102
2613.28125	-5.30598	5.66447	1.64356	-9.13081
2617.18750	-8.42090	2.44101	-1.98189	-35.72394
2621.09375	-3.56411	-1.58832	3.66005	-1.07160
2625.00000	0.77467	6.47025	6.07856	15.04590
2628.90625	3.50225	9.29073	2.85600	7.39048
2632.81250	7.42281	2.03796	-0.76950	1.74970
2636.71875	1.53884	-0.78253	-0.76862	6.58516
2640.62500	-3.07080	0.82921	-2.78237	-10.33768
2644.53125	2.56248	-2.39431	-2.78145	-3.48764
2648.43750	3.93524	-1.18562	-3.58641	17.86798
2652.34375	-1.99882	0.82903	-1.16790	5.78031
2656.25000	-0.20529	1.23187	2.05648	-7.51616
2660.15625	7.87495	5.66410	3.66905	-12.35104
2664.06250	4.35311	-0.78282	6.49042	6.18402
2667.96875	9.63179	-0.37991	-2.37308	6.18431
2671.87500	11.15814	1.23178	-13.25133	-6.30620
2675.78125	-2.36777	-3.60336	-8.41525	-3.88835
2679.68750	-0.94752	0.02295	0.45006	-2.67932
2683.59375	6.14285	-0.37998	4.07738	1.35030
2687.50000	7.69698	1.23169	2.46655	11.02097
2691.40625	10.22992	6.06681	-1.56188	19.07984
2695.31250	7.94787	1.63463	-2.76978	6.99206
2699.21875	4.70941	-1.99177	-0.75421	6.18654
2703.12500	6.31584	0.02292	3.67888	-5.09534
2707.03125	6.99334	0.42598	1.26212	-9.12452
2710.93750	6.09807	2.44073	4.88927	10.21616
2714.84375	1.33118	2.03787	3.68127	5.78381
2718.75000	9.53394	6.47020	7.71135	7.79834
2722.65625	16.55270	9.69372	13.75602	19.88620
2726.56250	1.47387	-1.18538	-0.34574	-3.08088
2730.46875	-8.89182	0.02342	5.29614	-14.36296
2734.37500	-9.72438	10.49962	4.08812	-9.93078
2738.28125	-24.75273	7.27617	-1.55217	-5.49871
2742.18750	-26.00721	1.63515	-5.17770	-10.33388
2746.09375	-14.10163	15.73765	-7.59449	-15.97496
2750.00000	-22.24606	26.21382	0.06200	-25.64530
2753.90625	-44.55435	23.39330	-7.59289	-53.04456
2757.81250	-77.19642	20.97567	-15.65070	-69.16174
2761.71875	-96.78743	20.16983	-22.09682	-77.62337
2765.62500	-113.87450	20.57270	-16.85797	-106.23156
2769.53125	-133.08385	19.36391	-19.67772	-141.68936
2773.43750	-134.18008	25.40783	-34.98830	-150.15091
2777.34375	-144.97473	31.45173	-41.03143	-148.13625
2781.25000	-155.09485	40.31611	-39.82181	-163.44759
2785.15625	-163.26950	42.73368	-41.02981	-175.53542
2789.06250	-177.00903	38.30140	-41.43193	-194.07016
2792.96875	-171.82161	39.51015	-32.56672	-190.04088
2796.87500	-148.70880	35.07791	-22.89559	-153.37411
2800.78125	-147.74529	31.45148	-25.31240	-170.70009
2804.68750	-160.27547	31.04853	-24.50575	-170.29701
2808.59375	-156.03596	25.40753	-16.84921	-149.34448
2812.50000	-138.53737	27.42217	-14.43075	-140.47998
2816.40625	-123.85400	24.19871	-13.22116	-129.19781
2820.31250	-114.22763	18.55762	-7.17630	-124.36244
2824.21875	-93.21107	18.15469	0.48023	-109.45388
2828.12500	-72.58272	14.52825	3.70455	-91.32187
2832.03125	-56.48486	10.90183	8.94348	-66.34005
2835.93750	-41.39672	5.26070	11.76481	-59.49007
2839.84375	-20.29498	-0.78328	12.57155	-32.49345
2843.75000	-5.99975	-4.81263	13.78114	0.95006
2847.65625	6.86618	-8.43910	18.61716	15.05267
2851.56250	30.82223	-6.42448	20.63264	28.75242
2855.46875	41.44998	-8.84203	17.00709	32.78188
2859.37500	44.60131	-15.28899	21.84313	36.81144
2863.28125	52.19711	-15.69203	20.23221	49.30238
2867.18750	59.34187	-11.66273	16.60670	60.58464
2871.09375	64.55872	-13.67746	17.81631	63.00237
2875.00000	63.84669	-20.52729	18.62301	82.34322
2878.90625	63.93997	-20.52736	19.42971	83.95508
2882.81250	67.67552	-17.30397	17.41586	60.98816
2886.71875	70.33652	-20.12451	17.81962	67.43521
2890.62500	65.67924	-20.52750	19.43210	69.45012
2894.53125	60.85221	-18.51290	16.61238	76.30019
2898.43750	63.10633	-21.33344	6.53987	71.86815
2902.34375	63.39987	-22.94525	9.76416	50.91580
2906.25000	62.00957	-19.31891	16.61487	71.86830
2910.15625	63.19729	-18.91603	11.78044	82.34473
2914.06250	67.52562	-18.91608	7.75195	63.81013
2917.96875	66.27669	-15.28978	4.12644	44.06677
2921.87500	58.30375	-15.28983	2.91846	48.09618
2925.78125	60.54803	-16.09573	8.96320	67.83986
2929.68750	62.75470	-14.88697	4.12887	47.29043
2933.59375	53.24721	-19.72222	-4.73478	44.87295
2937.50000	51.69344	-23.34861	0.90707	69.45174
2941.40625	55.60774	-15.29007	1.31082	66.63133
2945.31250	53.86069	-12.06669	0.90865	54.14064
2949.21875	51.86145	-14.08140	-1.91106	49.30565
2953.12500	52.67312	-11.26092	-0.70148	50.91752
2957.03125	60.86049	-10.45509	10.17848	49.30592
2960.93750	64.17381	-10.45513	5.74703	46.88863
2964.84375	56.04729	-11.26103	-4.32534	40.03892
2968.75000	45.83012	-12.46990	3.33120	50.51533
2972.65625	43.24361	-7.23189	4.13781	38.83065
2976.56250	37.77305	-6.42611	-2.30833	26.74282
2980.46875	31.21583	-10.05248	-2.71047	36.01040
2984.37500	26.81046	-12.06717	2.12555	23.92271
2988.28125	26.93063	-12.87308	-1.09713	37.21954
2992.18750	36.24389	-4.81454	-8.75205	41.65203
2996.09375	31.59115	-7.23218	-5.52780	30.37029
