 	TP9	AF7	AF8	TP10	
-1000.00000	6.00695	1.74786	3.98963	13.55650
-996.09375	15.70625	2.14309	6.04940	7.91267
-992.18750	27.20739	3.42796	4.06278	8.09371
-988.28125	20.72872	6.97300	-1.06936	5.77302
-984.37500	20.52103	4.24124	0.55217	2.47470
-980.46875	1.77930	2.07017	6.20880	4.25994
-976.56250	-16.69751	0.02692	9.72251	0.00876
-972.65625	-3.19944	-4.89125	10.47195	4.32716
-968.75000	3.84054	-0.21509	9.20720	9.13944
-964.84375	-6.81633	1.46057	7.44914	1.88596
-960.93750	-3.32912	-6.02755	7.25000	-2.33448
-957.03125	-4.72444	-7.43345	7.68307	-5.81956
-953.12500	-17.37798	-6.07074	4.71422	-14.99450
-949.21875	-21.89242	-3.74695	7.01105	-22.09995
-945.31250	-26.59634	-4.41031	6.37855	-25.82744
-941.40625	-30.68537	-8.42453	-3.75372	-28.80545
-937.50000	-33.81068	-9.74876	-8.11825	-27.32383
-933.59375	-39.90511	-8.17874	-9.99321	-38.99285
-929.68750	-47.99203	-10.08911	-8.47717	-56.49474
-925.78125	-67.01454	-11.76372	-6.28885	-64.12994
-921.87500	-79.89603	-14.77423	-11.07641	-70.73220
-917.96875	-85.43728	-20.60360	-15.10662	-77.42080
-914.06250	-82.86967	-15.65407	-16.32844	-84.99784
-910.15625	-90.15749	-11.20253	-17.52728	-91.60692
-906.25000	-104.68986	-16.17379	-19.67879	-104.94528
-902.34375	-106.64655	-21.03184	-21.96068	-116.43831
-898.43750	-112.07491	-23.05762	-21.32887	-111.81166
-894.53125	-116.86105	-19.23321	-19.12919	-114.33553
-890.62500	-111.30455	-13.15062	-19.74985	-125.40315
-886.71875	-113.41843	-19.26135	-23.32156	-124.07730
-882.81250	-116.98611	-22.75178	-23.90656	-122.00893
-878.90625	-117.76930	-23.13672	-22.33998	-121.25171
-875.00000	-113.67962	-20.12593	-22.02181	-116.53975
-871.09375	-104.97346	-16.35531	-21.60430	-113.94752
-867.18750	-105.27378	-15.39715	-21.65769	-116.66935
-863.28125	-99.63569	-14.28201	-22.95072	-112.02455
-859.37500	-83.59914	-15.18070	-21.35032	-99.31695
-855.46875	-79.37749	-13.09237	-17.75225	-94.04205
-851.56250	-77.19742	-9.55231	-15.04453	-88.65546
-847.65625	-65.73535	-9.43023	-13.89131	-85.11684
-843.75000	-59.83445	-9.31356	-13.04383	-75.20195
-839.84375	-60.34988	-9.24311	-15.52576	-66.98165
-835.93750	-59.89888	-9.00678	-18.40482	-70.63187
-832.03125	-54.56085	-4.84605	-16.60168	-69.66340
-828.12500	-50.79430	-1.37639	-13.73307	-65.66042
-824.21875	-48.34988	-3.81150	-14.32874	-63.51411
-820.31250	-41.99264	-4.90146	-14.12034	-54.08253
-816.40625	-39.54143	-3.42965	-11.88609	-46.32749
-812.50000	-37.45945	-1.44537	-8.15371	-46.08435
-808.59375	-33.84058	0.68836	-8.30115	-48.60572
-804.68750	-26.89920	1.42148	-9.47755	-41.89690
-800.78125	-19.67636	1.89307	-7.85311	-32.83436
-796.87500	-19.52711	0.82867	-9.87376	-32.43082
-792.96875	-23.06794	1.44303	-6.63193	-30.40489
-789.06250	-23.31875	1.17779	-2.44356	-29.49736
-785.15625	-22.47210	-0.86735	-3.32578	-29.67954
-781.25000	-20.00661	-0.12304	-4.77016	-25.81689
-777.34375	-15.98784	1.76604	-3.89732	-20.90552
-773.43750	-18.63685	5.42057	-3.98444	-23.83350
-769.53125	-27.27146	3.29587	-3.82934	-26.84797
-765.62500	-25.38970	0.60117	-5.14306	-22.81839
-761.71875	-14.78893	-0.05317	-4.85959	-14.10484
-757.81250	-10.40466	0.20290	-5.22883	-8.95385
-753.90625	-6.84016	4.43582	-6.26037	-11.06153
-750.00000	-4.58410	6.62000	-6.02538	-4.77562
-746.09375	0.62224	6.22435	-3.24892	6.50591
-742.18750	11.27949	6.55068	-2.06704	13.57421
-738.28125	18.96411	6.63154	-1.76903	18.30900
-734.37500	23.19838	9.36280	-0.56894	20.79805
-730.46875	32.67004	12.33926	-2.59805	25.05333
-726.56250	42.27958	11.96437	-4.09592	29.70403
-722.65625	45.70184	11.64395	-2.82967	31.82914
-718.75000	48.73229	9.38498	-3.57847	37.89256
-714.84375	50.11884	10.12634	-2.62515	41.91922
-710.93750	48.24054	16.40522	-0.81315	38.48054
-707.03125	48.02132	13.78123	-2.05104	42.36515
-703.12500	52.61342	12.01510	-3.51337	51.93962
-699.21875	56.72205	15.73475	0.63777	60.65342
-695.31250	56.99098	12.36830	4.89777	61.55706
-691.40625	56.64495	7.11453	4.55491	59.69659
-687.50000	54.52933	11.25874	4.89118	63.85261
-683.59375	54.57699	10.49400	5.55832	63.02735
-679.68750	54.60249	7.56865	5.25214	60.37927
-675.78125	50.25221	6.82514	3.87079	58.74369
-671.87500	49.02824	5.80575	5.83890	55.67215
-667.96875	49.32850	4.78472	9.06426	54.70166
-664.06250	45.95224	4.66985	9.07838	56.23127
-660.15625	39.94052	4.24708	8.66649	58.00178
-656.25000	40.77047	3.57677	9.61025	58.84585
-652.34375	45.14201	4.00211	11.49033	59.45631
-648.43750	50.97055	6.02736	10.85957	58.85564
-644.53125	55.35101	5.42588	10.67554	60.16735
-640.62500	59.46202	1.35741	12.10318	63.57590
-636.71875	60.76728	4.24415	14.87010	64.66428
-632.81250	53.85600	8.53994	14.24735	61.78665
-628.90625	51.81585	6.90973	13.89064	59.01141
-625.00000	53.76737	5.51020	14.78232	61.14588
-621.09375	52.31115	5.76832	13.15704	61.37075
-617.18750	51.39981	4.00382	12.80850	56.83639
-613.28125	54.22038	3.69399	16.52014	53.39693
-609.37500	52.28351	7.00978	19.35295	50.75914
-605.46875	48.46195	7.33851	16.56178	46.68954
-601.56250	47.89082	4.20089	13.45210	44.92591
-597.65625	46.90207	2.46660	10.28527	45.81610
-593.75000	43.41595	1.94649	10.64760	46.37394
-589.84375	38.28746	-0.94501	9.90708	40.97066
-585.93750	41.45995	1.63870	6.74316	36.15577
-582.03125	44.58055	3.92432	5.34396	40.01893
-578.12500	43.63169	4.08048	4.49096	42.05639
-574.21875	39.16975	5.70918	3.87885	42.72704
-570.31250	39.65941	5.99287	4.88026	43.76808
-566.40625	40.42877	4.52053	4.66173	40.03882
-562.50000	36.32928	0.52111	2.54205	36.56875
-558.59375	29.08116	-1.21015	1.88464	40.29552
-554.68750	22.13705	2.89141	2.25623	36.80669
-550.78125	18.94072	6.85166	3.85623	30.56130
-546.87500	15.96829	4.28913	2.65435	27.33391
-542.96875	14.67126	0.45091	-1.79514	25.70759
-539.06250	20.96337	0.71567	0.46448	27.21428
-535.15625	22.12859	3.96911	4.16828	25.37851
-531.25000	20.46627	5.23890	6.01661	22.72121
-527.34375	18.45937	3.34929	1.51848	17.40362
-523.43750	15.06163	1.70884	-3.22853	15.09016
-519.53125	12.41151	-0.19619	-3.38262	17.69833
-515.62500	7.70646	-0.32249	-6.50012	14.06838
-511.71875	11.60844	3.15187	-5.57377	13.41008
-507.81250	21.32393	2.89530	-1.98009	22.76127
-503.90625	15.74198	-0.53238	-1.35051	16.40410
-500.00000	1.39520	1.31220	-1.98747	-1.16720
-496.09375	-4.61980	4.93081	-2.74832	-4.39347
-492.18750	-10.84772	6.21562	-3.52630	-10.65926
-488.28125	-19.34109	4.52251	-4.22623	-21.44150
-484.37500	-23.17540	0.58186	-5.82835	-27.96332
-480.46875	-24.99424	-2.79807	-7.42452	-24.16352
-476.56250	-20.90717	-4.84144	-4.71686	-14.31217
-472.65625	-18.28842	-2.10400	-4.37046	-18.45544
-468.75000	-20.91885	2.97495	-7.65000	-22.50767
-464.84375	-15.86152	2.23297	-8.19934	-15.25577
-460.93750	-7.94224	-0.01720	-9.20444	-9.00010
-457.03125	-6.51709	0.59147	-9.17445	-8.45589
-453.12500	-9.50037	0.34237	-6.09944	-9.57216
-449.21875	-9.17981	1.05427	-3.80268	-11.84251
-445.31250	-4.61654	0.79376	-3.22647	-8.31737
-441.40625	-4.27357	-2.41466	-3.28552	-6.46041
-437.50000	-3.77282	-0.11265	-4.42671	-6.18772
-433.59375	-3.01782	4.27791	-4.68998	-6.57490
-429.68750	-1.03190	4.78511	-1.15939	-5.94526
-425.78125	-2.72882	-1.32180	-0.58287	-5.92519
-421.87500	-2.71684	-2.72068	-3.75885	-7.28972
-417.96875	0.60589	3.13489	-4.16277	-5.11419
-414.06250	-4.07976	3.24922	-2.96717	-8.66238
-410.15625	-5.72704	2.46257	-2.55448	-8.01915
-406.25000	-7.76914	0.31173	-3.09436	-6.04668
-402.34375	-4.89125	-1.32293	-1.75008	-2.22889
-398.43750	-0.24695	-2.94586	-0.71552	3.20300
-394.53125	-2.21317	-1.53904	-0.93358	1.08141
-390.62500	-3.10414	4.54342	-0.34565	0.48942
-386.71875	-2.39816	5.68543	-0.29124	3.02337
-382.81250	-1.13134	6.62719	1.13819	4.68821
-378.90625	-3.52685	4.63045	2.70459	1.81837
-375.00000	-8.30231	3.20900	1.81379	-1.12600
-371.09375	-10.87880	2.14443	2.63401	-0.14600
-367.18750	-13.19433	-0.92680	4.19220	-4.48019
-363.28125	-6.75089	0.59127	4.51078	-1.04464
-359.37500	2.83826	-0.30752	2.48464	4.00676
-355.46875	4.64198	-1.03974	2.05327	-0.79199
-351.56250	1.98649	0.48563	5.16376	-1.44974
-347.65625	2.16619	-0.60111	4.70516	1.28286
-343.75000	5.64927	-0.48448	3.53785	3.54188
-339.84375	6.34243	1.60058	2.66754	3.70340
-335.93750	1.55530	1.43400	2.60890	0.45615
-332.03125	-1.56822	1.16248	2.39735	-1.79881
-328.12500	0.98945	1.40870	2.04241	-3.43679
-324.21875	5.44858	3.00297	0.64082	-4.51382
-320.31250	2.94145	1.10710	1.25205	-1.52901
-316.40625	0.55761	-3.06210	0.26277	-1.02659
-312.50000	2.63975	-0.67494	-0.03424	-3.20083
-308.59375	5.85590	3.07055	2.63875	-2.49861
-304.68750	3.93300	1.38607	3.47692	-2.23640
-300.78125	1.08281	-3.78340	3.48963	-0.02345
-296.87500	1.63522	-1.22142	1.46894	-0.02250
-292.96875	-3.11428	5.43685	0.27847	-2.02552
-289.06250	-6.58835	4.76859	2.04919	1.29995
-285.15625	-6.54726	1.91753	1.56987	2.72971
-281.25000	-4.08159	3.46767	0.93136	0.54872
-277.34375	-0.06252	4.14793	3.01287	1.83405
-273.43750	0.10930	1.75854	2.92569	-0.69070
-269.53125	-2.48111	2.85719	0.66312	-5.31655
-265.62500	-2.61380	3.38591	-1.45654	-5.71892
-261.71875	0.33166	0.31399	-3.99363	-1.43726
-257.81250	3.91031	-0.63884	-1.13946	2.50520
-253.90625	-1.38933	-0.83812	8.70810	-2.01979
-250.00000	-4.37102	-0.66860	11.36066	-8.62737
-246.09375	5.67080	-1.46719	8.09316	-0.16606
-242.18750	14.71669	-1.94669	10.08083	11.73773
-238.28125	10.71665	-1.86579	12.79641	11.63772
-234.37500	8.10142	-3.16381	12.38473	10.90371
-230.46875	15.96165	0.21552	10.75844	10.72711
-226.56250	16.70713	3.06413	8.85755	6.11073
-222.65625	15.69749	2.74372	5.28862	3.40107
-218.75000	15.90779	2.49944	2.92808	6.24154
-214.84375	15.28003	0.82327	3.07551	7.04517
-210.93750	14.61088	3.07284	5.29036	-1.22824
-207.03125	7.94502	3.67243	6.06709	-3.79014
-203.12500	6.09046	3.11508	5.41065	0.94948
-199.21875	3.75245	1.99961	3.11486	2.00785
-195.31250	2.81274	1.85663	2.13672	-1.11760
-191.40625	0.85511	0.22930	3.40554	-2.17208
-187.50000	-2.06622	-2.87923	6.15939	-2.04523
-183.59375	-0.00380	-4.04691	6.02064	0.35310
-179.68750	-0.38111	-2.53998	3.29679	2.13738
-175.78125	-5.13425	-3.28354	5.13879	-2.31865
-171.87500	-6.76109	-3.49705	5.49506	-5.39001
-167.96875	-6.05785	-0.48884	1.87052	-8.37516
-164.06250	-4.59898	2.61967	2.69041	-6.03965
-160.15625	-6.17865	2.59976	-0.13909	-5.07512
-156.25000	-8.16935	4.34694	0.40158	-5.03700
-152.34375	-9.43902	3.96628	3.49030	-4.42661
-148.43750	-8.84884	1.55917	0.84475	-4.22164
-144.53125	-5.67737	-1.46007	1.06351	-0.08954
-140.62500	-4.78996	-5.12565	1.28213	2.11005
-136.71875	-2.67893	-2.64195	2.43720	4.81001
-132.81250	-2.74055	-0.76385	3.82895	2.33520
-128.90625	-3.16902	-0.78244	3.06915	1.17164
-125.00000	0.79715	-0.97325	0.73725	0.08268
-121.09375	0.54976	-1.52104	-2.49988	1.51633
-117.18750	1.25025	-0.86801	0.37489	0.20553
-113.28125	-1.97311	-0.37198	4.89224	-5.65144
-109.37500	-5.11874	2.54080	4.90441	-5.46867
-105.46875	-5.31391	0.04900	2.11315	-5.91180
-101.56250	-2.66158	-5.50624	1.01802	-6.46665
-97.65625	1.18487	-3.61423	1.07450	-3.56176
-93.75000	0.92218	-0.10503	2.24258	1.02541
-89.84375	0.62895	1.03273	2.30782	2.87490
-85.93750	-2.64543	-0.01001	2.36725	2.49231
-82.03125	-5.16581	-1.35075	4.19138	2.32622
-78.12500	-8.12928	-2.80629	3.74122	-0.06846
-74.21875	-12.18831	-1.98345	3.93483	-2.21821
-70.31250	-12.10155	-0.08816	1.71265	-3.99757
-66.40625	-14.95862	-1.96341	0.68813	-5.30916
-62.50000	-12.20826	-1.93358	1.38882	-5.15281
-58.59375	-10.99492	-1.65031	-2.89505	-8.67879
-54.68750	-10.68641	-0.77226	-0.50903	-10.15300
-50.78125	-8.24183	-0.03557	2.29962	-11.96630
-46.87500	-7.58812	0.62530	1.09765	-5.92634
-42.96875	-6.87065	1.21915	1.08012	-1.10584
-39.06250	-6.62268	1.88678	-0.28682	-0.80807
-35.15625	-7.06928	3.12551	0.19334	-4.25567
-31.25000	-10.34350	1.17181	-1.98777	-4.49544
-27.34375	-8.32125	-0.31499	-2.05383	1.87184
-23.43750	-5.27233	0.86502	-1.56287	0.76712
-19.53125	-2.28150	-0.23425	-4.53754	-2.66866
-15.62500	1.47486	-0.76357	-3.62580	-0.65762
-11.71875	2.15326	1.50191	-2.29658	-0.91296
-7.81250	1.79539	1.24533	-3.13524	-0.82924
-3.90625	-0.56320	0.63807	-3.31159	-1.54532
0.00000	-2.41918	0.46796	-3.94863	1.43287
3.90625	3.65384	-0.34567	-3.09784	11.90633
7.81250	3.87293	1.74508	0.15351	10.07296
11.71875	-4.21745	4.88714	-0.14357	0.09674
15.62500	-3.21638	3.36408	-4.56623	-4.81319
19.53125	-1.81165	0.79004	-6.96836	-5.44535
23.43750	-8.60349	1.56728	-2.64897	-6.87584
27.34375	-11.22265	2.29011	0.51790	-6.18367
31.25000	-9.01781	3.74269	0.86470	-3.78881
35.15625	-8.79550	0.98609	-0.08767	-5.40117
39.06250	-8.12890	-1.26408	-3.51044	-5.59212
42.96875	-7.10666	1.35928	-1.86873	-1.82435
46.87500	-6.86638	1.91600	-1.21131	-4.95509
50.78125	-9.36612	2.22505	-3.34684	-8.03106
54.68750	-8.83186	1.96456	-1.56190	-2.89393
58.59375	-4.05638	0.36787	1.19952	0.97809
62.50000	-7.18160	1.05819	1.26711	5.28038
66.40625	-5.62023	2.22529	1.40672	4.08772
70.31250	4.02183	1.92660	0.50501	1.09145
74.21875	3.53420	1.46076	0.67855	4.73845
78.12500	4.75539	2.88245	0.72594	6.19494
82.03125	10.49629	1.48529	-0.08088	10.38569
85.93750	10.24341	-0.41507	0.71177	15.29964
89.84375	7.79094	1.61881	2.73625	16.34644
93.75000	8.56997	3.90028	0.98765	13.48450
97.65625	5.40452	3.07142	-1.29443	11.66196
101.56250	0.78206	-0.16326	1.75478	11.85650
105.46875	8.08390	1.64640	3.55150	12.95918
109.37500	8.80530	5.71420	3.33360	15.18841
113.28125	5.07975	6.45324	2.58222	15.30559
117.18750	5.94428	4.17151	2.40002	7.70382
121.09375	7.17576	3.38357	1.95177	9.26696
125.00000	8.44494	3.17092	2.67269	11.96428
128.90625	1.03382	0.49458	1.07542	8.91566
132.81250	-1.28119	1.04978	1.42482	9.82023
136.71875	0.73056	1.35908	1.74332	9.62995
140.62500	-0.96186	0.05742	-1.08862	7.02629
144.53125	-4.39585	-1.07776	2.50922	6.66030
148.43750	-8.25978	-1.97000	5.61972	0.76498
152.34375	-7.27384	-0.23620	3.14642	-7.38119
156.25000	-8.22264	-0.11958	2.38200	-8.34529
160.15625	-8.73790	-1.66086	1.51157	-4.15404
164.06250	-12.31599	-2.23045	-0.56179	-7.80391
167.96875	-13.02175	-2.09902	-1.17634	-10.46147
171.87500	-8.85214	0.56478	0.08047	-4.84650
175.78125	-1.16946	-0.25862	1.09647	-4.31159
179.68750	5.18796	-3.76623	2.11066	-3.34122
183.59375	0.78952	0.12307	3.53896	-6.06205
187.50000	-0.35184	3.31609	3.24201	-3.40104
191.40625	2.86433	2.22639	5.10917	4.55403
195.31250	2.55312	3.36235	5.94734	10.45734
199.21875	5.74684	3.43094	3.94529	7.02932
203.12500	5.09037	0.75478	4.74510	2.59798
207.03125	2.75843	0.96610	5.16634	5.02708
210.93750	2.10484	0.70076	4.51938	1.50273
214.84375	0.13115	-1.34446	3.63704	-0.69380
218.75000	4.61147	2.62326	2.99847	0.75169
222.65625	7.01870	2.90061	3.06527	3.24580
226.56250	7.19045	0.91404	4.58975	5.55623
230.46875	3.79405	2.01272	4.74480	5.76548
234.37500	-1.17385	1.33260	3.83383	1.73669
238.28125	-0.24318	2.28995	6.13185	5.21246
242.18750	-2.70851	1.33711	7.77719	6.73744
246.09375	-8.41114	-2.08557	5.53683	-1.81687
250.00000	-10.98993	-2.72195	1.33950	-3.99212
253.90625	-7.79792	-3.11766	0.48952	-3.18645
257.81250	-6.81067	-4.80590	0.05953	-4.57932
261.71875	-7.58719	-5.53091	-1.65723	-5.08222
265.62500	-6.17315	-3.60543	-1.26313	-5.01030
269.53125	-6.77447	-3.85239	-2.48656	-4.38103
273.43750	-3.61147	-3.01840	-2.77588	-2.55052
277.34375	-0.59188	-2.13002	-0.70388	-2.84267
281.25000	-1.59047	-2.77729	-1.04992	0.80351
285.15625	-2.62127	-0.42420	-1.70847	2.81580
289.06250	-2.48460	-0.59219	-0.70253	1.39202
292.96875	-3.50954	-0.39557	-0.32888	2.45636
296.87500	-1.33480	1.46469	-0.98547	-1.26569
300.78125	0.75946	0.75209	-0.05799	-1.81916
304.68750	1.43141	2.62375	3.39592	3.91972
308.59375	1.89135	3.81691	2.24693	2.86519
312.50000	-0.62696	2.32018	-1.04334	-0.23133
316.40625	1.83844	1.15250	0.02658	-0.25047
320.31250	5.08754	1.45060	1.73488	1.53399
324.21875	2.75191	2.31878	1.15921	3.92785
328.12500	0.72213	1.70230	1.51545	4.48290
332.03125	-2.20096	-0.12464	4.33780	2.70672
335.93750	-5.17437	-1.44838	3.94885	1.81899
339.84375	-1.51585	-1.06540	1.11932	-2.85730
343.75000	-1.89481	0.68180	0.04820	-4.43075
347.65625	-4.77613	2.31579	1.52518	-1.80550
351.56250	-4.18582	2.32633	4.11769	-4.42080
355.46875	-10.28168	-0.69293	2.72466	-9.55586
359.37500	-14.22940	-1.13503	1.33155	-10.17650
363.28125	-14.93888	-1.87477	1.27780	-11.90858
367.18750	-15.80633	-3.22012	0.25194	-15.99487
371.09375	-13.01131	-2.83575	2.31265	-13.93482
375.00000	-13.07440	-9.87640	4.00998	-8.97964
378.90625	-11.71008	-8.00658	2.78746	-3.51649
382.81250	-6.57728	-1.30954	4.05052	1.61967
386.71875	2.28741	-1.61939	4.94145	8.65657
390.62500	4.78298	-0.72127	4.14776	12.46584
394.53125	4.99081	-0.39262	0.55061	6.78469
398.43750	8.04619	-0.30682	1.06714	9.05054
402.34375	9.47513	0.77934	3.94410	19.61124
406.25000	16.06237	3.07973	5.11215	19.36349
410.15625	15.76917	2.60578	5.17741	11.13993
414.06250	7.25678	1.56300	3.62507	9.54872
417.96875	8.36286	2.63976	2.62860	8.57697
421.87500	11.84631	2.79586	2.17839	7.39124
425.78125	9.80200	3.21576	-0.85144	7.25631
429.68750	5.45661	4.70813	-1.05902	2.65662
433.59375	2.59965	1.62401	-2.08357	-3.08711
437.50000	-0.69384	-0.36083	-4.60634	-5.34811
441.40625	-1.09210	3.54881	-0.83164	-4.44163
445.31250	-0.78353	4.82978	3.16613	-4.30389
449.21875	-8.00916	3.95471	1.13963	-12.56375
453.12500	-10.57880	5.82436	-1.27123	-21.83503
457.03125	-11.07004	2.38891	-0.88583	-19.43199
460.93750	-10.82206	-0.56988	0.16476	-16.31345
464.84375	-11.26868	1.47465	-2.17563	-15.73160
468.75000	-10.51358	2.34145	-2.74508	-14.76238
472.65625	-5.67066	1.25758	-2.40824	-14.84173
476.56250	-5.44204	1.22877	-5.14072	-14.33451
480.46875	1.17532	4.96462	-5.29490	-8.90561
484.37500	5.33488	3.62943	-2.36853	-6.08836
488.28125	-0.43334	-3.37251	0.97531	-3.92576
492.18750	-4.01418	0.40012	3.36008	-0.61806
496.09375	2.89501	6.64272	4.79543	3.50153
500.00000	5.06882	4.86090	5.77016	8.49490
503.90625	0.66604	2.43552	3.80044	8.08974
507.81250	4.91500	1.30270	2.21656	10.28611
511.71875	6.09262	0.01246	1.11356	13.20428
515.62500	5.88549	0.90701	2.33200	14.74183
519.53125	10.51432	1.55634	7.58547	14.11028
523.43750	13.79641	2.33362	7.87552	10.66580
527.34375	16.81898	2.25063	5.80425	16.19379
531.25000	21.44210	2.49444	8.97152	24.63332
535.15625	30.93267	3.76720	13.66018	31.48329
539.06250	40.86753	5.14349	16.28135	38.14282
542.96875	41.48763	6.55807	16.31135	37.47914
546.87500	41.32574	6.30907	16.56580	37.57253
550.78125	39.63263	2.58891	14.43023	36.91485
554.68750	37.75005	-0.89492	11.78290	33.59111
558.59375	36.48221	1.13482	11.32079	31.01686
562.50000	32.95469	1.42231	10.58241	31.69350
566.40625	29.27861	0.57485	9.51318	28.48695
570.31250	27.63915	1.48505	9.82020	25.08836
574.21875	27.55491	1.42219	8.38186	24.70656
578.12500	21.12076	-1.18535	6.41453	22.13421
582.03125	16.78871	-3.38826	7.21926	18.66962
585.93750	16.53613	-3.67680	6.40005	14.31647
589.84375	12.87513	-2.04566	3.58914	8.91663
593.75000	15.26608	0.63887	3.85496	8.87532
597.65625	18.14479	1.01897	6.40776	14.30563
601.56250	15.53712	2.61960	3.81572	10.47097
605.46875	8.73655	1.20600	1.17994	1.90333
609.37500	5.42882	-1.57582	0.96184	2.92384
613.28125	9.35909	-2.85127	1.82191	9.89088
617.18750	7.00041	-3.52109	2.84826	12.36234
621.09375	5.41152	-3.90601	1.99682	13.11965
625.00000	10.71001	-4.11862	3.52340	15.81701
628.90625	13.77524	-2.76551	3.94048	16.39472
632.81250	9.44563	-1.80737	2.27500	13.67292
636.71875	5.01055	-5.52733	2.59336	9.85634
640.62500	8.95921	-4.41135	2.98460	10.47605
644.53125	10.76330	-1.11422	2.55294	7.69241
648.43750	4.07885	-0.39464	1.63395	4.61751
652.34375	3.05002	0.13034	-1.64548	3.32104
656.25000	2.90687	1.05289	-3.61890	2.35692
660.15625	3.19719	0.72036	-3.68363	-0.30183
664.06250	0.82767	-1.05795	-5.35427	-4.35487
667.96875	-1.08712	0.28231	-5.16323	-1.37156
671.87500	2.67935	0.93143	-5.51839	1.01972
675.78125	1.09440	0.10813	-5.71153	-0.86316
679.68750	-3.02460	-0.57894	-7.11515	-5.53401
683.59375	-3.39395	-2.73356	-8.91058	-7.44916
687.50000	-1.31208	-2.36099	-6.38735	-6.80298
691.40625	-2.12537	-0.63014	-4.11756	-4.89211
695.31250	-4.45133	0.50588	-5.69730	-5.43596
699.21875	-5.69003	1.78332	-5.68490	-8.86414
703.12500	-7.15252	0.31601	-7.30292	-8.86338
707.03125	-11.90227	-2.69608	-10.91130	-13.68721
710.93750	-10.94432	-1.34967	-8.73796	-8.34733
714.84375	-6.47126	1.03740	-5.59126	-6.91769
718.75000	-5.21455	0.16994	-3.40961	-9.09888
722.65625	-1.59869	2.05899	0.28335	1.05073
726.56250	0.18461	3.29592	0.59880	4.56977
730.46875	4.84661	1.97697	-1.26109	5.98765
734.37500	5.11666	2.10265	-0.96343	3.57044
738.28125	2.01784	3.05995	-2.29204	-1.41551
742.18750	3.58159	4.52469	-1.85565	1.31812
746.09375	-0.91242	4.72833	-0.46993	3.23988
750.00000	-3.49139	1.67434	-1.04101	-0.14427
753.90625	2.11795	0.47273	-1.89123	-0.14454
757.81250	2.70208	2.00781	-2.32140	-0.32876
761.71875	6.76051	4.10329	-2.02367	2.79465
765.62500	9.38314	4.41695	-0.82380	0.85182
769.53125	8.78161	5.37873	0.77313	0.67516
773.43750	11.54149	7.82438	2.49832	8.54962
777.34375	8.51705	7.90690	2.55554	7.85455
781.25000	5.50377	9.67722	0.59765	3.44214
785.15625	0.84653	9.20981	0.34195	0.61933
789.06250	1.78884	10.65353	1.75064	4.83663
792.96875	1.56969	10.44721	1.31834	2.67748
796.87500	0.11796	7.06936	0.66160	-2.25335
800.78125	1.00326	5.55100	1.99186	-2.80676
804.68750	-1.14550	3.39330	1.41636	-6.73817
808.59375	-3.10322	3.37772	3.08776	-7.38980
812.50000	-2.80114	4.29851	3.02083	-8.06873
816.40625	-1.54460	6.35426	1.67303	-4.05860
820.31250	-2.72767	7.86116	2.97830	-4.69171
824.21875	-5.46607	7.92347	0.79070	-9.95346
828.12500	-5.88405	8.91879	0.74387	-4.56313
832.03125	-8.40410	6.68894	1.95426	-4.32462
835.93750	-6.54211	7.37993	2.37101	-2.39178
839.84375	-4.89804	7.76294	1.55586	-3.03863
843.75000	-6.48562	7.49547	0.48463	-7.83538
847.65625	-5.33747	7.92077	3.17021	-9.23927
851.56250	-7.97040	7.52836	4.95670	-11.04859
855.46875	-7.21628	6.52389	5.17525	-10.13956
859.37500	-7.13449	4.87306	4.99078	-7.53659
863.28125	-11.47011	2.52172	3.32511	-8.05968
867.18750	-12.74031	3.59401	4.31372	-7.31068
871.09375	-11.55687	3.17262	5.16549	-1.62408
875.00000	-9.60526	1.37005	6.05684	1.31658
878.90625	-3.80851	4.04582	6.04298	3.15343
882.81250	-1.49618	7.51937	3.67949	1.03707
886.71875	-4.31646	7.20955	2.55563	-1.59618
890.62500	-5.44729	6.49603	2.16473	-1.81614
894.53125	-2.41885	8.03353	2.99961	-5.48247
898.43750	-0.57218	6.50764	2.71018	-5.23113
902.34375	-3.57534	6.38503	0.75174	-3.93774
906.25000	0.99723	9.49126	0.71083	-4.18552
910.15625	5.53926	11.43494	1.58176	-1.52986
914.06250	0.65330	13.21276	0.83515	0.10247
917.96875	0.55057	13.08074	-0.56445	-1.27216
921.87500	2.82532	10.01342	-0.61187	-0.04022
925.78125	1.98989	10.43338	2.40209	2.24248
929.68750	0.86806	9.91112	2.19435	6.91028
933.59375	0.42880	7.63286	1.97550	6.80778
937.50000	-0.04411	6.85684	0.25842	-0.69120
941.40625	-0.03936	7.94602	-2.01097	-2.20223
945.31250	-1.74539	6.80941	-1.23679	-4.07903
949.21875	-2.12115	7.54615	-1.65173	-9.11540
953.12500	-3.07889	8.60996	-1.24217	-6.70151
957.03125	-6.39049	7.99513	-0.05107	-5.50713
960.93750	-7.35104	8.25982	-2.22400	-8.02942
964.84375	-12.63249	4.66349	-2.14693	-13.08830
968.75000	-13.89186	3.11279	-0.29883	-15.74525
972.65625	-9.85475	6.46124	-4.79728	-17.03337
976.56250	-9.22316	8.85002	-5.11227	-15.72015
980.46875	-11.47032	6.13908	-3.65489	-11.49990
984.37500	-14.96645	3.99804	-4.35498	-11.10028
988.28125	-15.09380	4.24889	-2.22002	-12.96701
992.18750	-11.42224	3.58932	-1.84997	-16.10639
996.09375	-8.94560	3.78792	-1.22059	-14.00177
1000.00000	-10.80154	5.22948	-1.45480	-17.06728
1003.90625	-12.78723	5.62447	-3.02173	-17.87568
1007.81250	-9.34476	6.90916	-1.38227	-10.44163
1011.71875	-13.00296	6.82768	0.73810	-9.13560
1015.62500	-13.21073	5.30451	1.95634	-5.18091
1019.53125	-5.35909	4.34203	3.18045	-0.17189
1023.43750	-1.67467	5.92501	4.67912	0.41251
1027.34375	-2.68196	7.05066	4.21938	0.70194
1031.25000	-1.68572	5.68268	2.95429	1.88825
1035.15625	-0.65731	6.95535	2.80759	3.09671
1039.06250	-2.81100	5.91394	3.41400	0.89137
1042.96875	0.62914	5.71671	1.42913	-2.59323
1046.87500	-0.33922	7.07931	-2.34587	-6.12663
1050.78125	-5.65922	4.97074	-1.66110	-2.75540
1054.68750	-3.91594	3.90439	0.52665	1.97910
1058.59375	-1.15489	4.32236	1.67613	5.04565
1062.50000	0.95819	7.02734	0.93765	7.73662
1066.40625	2.11681	6.98571	1.07711	4.93262
1070.31250	2.89462	4.67237	2.18990	0.32509
1074.21875	3.61599	3.80352	-0.86019	1.15195
1078.12500	5.24029	2.80767	-3.23054	4.22062
1082.03125	8.16093	6.64863	-0.41120	8.00881
1085.93750	6.29655	9.98639	-0.42455	3.25277
1089.84375	-0.18509	8.79685	-2.02661	-0.53526
1093.75000	-3.83806	7.04905	-2.96965	1.84124
1097.65625	-1.76508	5.41441	-4.44605	-0.38390
1101.56250	-1.14911	4.19442	-4.21756	-5.02414
1105.46875	-4.72609	2.78079	-5.24165	-11.17387
1109.37500	-1.18392	3.62521	-7.07150	-9.34724
1113.28125	2.34342	3.55845	-6.61430	-5.20056
1117.18750	-4.04448	3.69438	-7.19967	-7.16099
1121.09375	-8.85670	5.72696	-6.03641	-6.40339
1125.00000	-10.40788	1.88792	-6.92734	-3.70580
1128.90625	-8.95428	0.01750	-7.71906	-7.56006
1132.81250	-4.41927	2.58727	-8.57864	-11.08745
1136.71875	-2.00437	4.10534	-9.46917	-6.84516
1140.62500	-5.71113	4.81833	-8.67500	-5.82218
1144.53125	-7.93605	3.28025	-11.92720	-5.78499
1148.43750	-4.94994	3.59681	-15.26380	-1.60681
1152.34375	-3.15789	3.31588	-14.91680	-0.88825
1156.25000	-5.71832	3.43246	-15.27843	-3.46374
1160.15625	-8.24817	3.09993	-14.94023	-4.10741
1164.06250	-2.96169	0.91863	-14.99911	-7.75695
1167.96875	-2.86140	-1.36756	-15.21090	-13.63777
1171.87500	-9.16789	-1.12140	-15.16312	-16.88693
1175.78125	-11.55832	0.87575	-14.55032	-17.15762
1179.68750	-12.05057	-0.21435	-13.53639	-16.99290
1183.59375	-11.21084	-0.75728	-12.10837	-12.86370
1187.50000	-9.12863	-0.78770	-11.19681	-7.38195
1191.40625	-8.73288	-0.66860	-9.73290	-5.47057
1195.31250	-7.83521	3.69082	-6.07448	-0.77590
1199.21875	-7.86486	4.56529	-8.47976	-3.80080
1203.12500	-2.88021	2.69500	-13.32118	-2.99387
1207.03125	2.44352	1.69755	-12.49731	4.27055
1210.93750	-4.65686	-3.40289	-7.90643	-0.86543
1214.84375	-22.34474	-5.04511	-9.19191	-15.95556
1218.75000	-33.17569	-5.50962	-12.24845	-26.59792
1222.65625	-36.00648	-5.63521	-9.76427	-32.96810
1226.56250	-47.51962	-6.01002	-13.07521	-42.74542
1230.46875	-66.22723	-10.55237	-18.15849	-57.04140
1234.37500	-80.05946	-14.05299	-21.48724	-74.36658
1238.28125	-101.28987	-17.93086	-27.65103	-92.64883
1242.18750	-118.66349	-17.67482	-30.84110	-103.21158
1246.09375	-123.96309	-15.85942	-33.08179	-112.57146
1250.00000	-128.55640	-15.28700	-36.47347	-117.56705
1253.90625	-138.25807	-12.45925	-36.92077	-124.81969
1257.81250	-138.47942	-12.93868	-38.15684	-129.83867
1261.71875	-129.98849	-13.66370	-40.67968	-126.31197
1265.62500	-129.38013	-12.14120	-42.70339	-128.65736
1269.53125	-125.14612	-12.38816	-42.31536	-128.43073
1273.43750	-119.96823	-13.97176	-40.59021	-124.58518
1277.34375	-116.14257	-13.08339	-38.92135	-121.25065
1281.25000	-111.90292	-12.52186	-36.85001	-118.00710
1285.15625	-106.48667	-12.98925	-35.49411	-115.59152
1289.06250	-107.55859	-11.54552	-34.89126	-109.35931
1292.96875	-106.56873	-13.76644	-31.69728	-101.04190
1296.87500	-93.91769	-13.11503	-29.13075	-96.70511
1300.78125	-82.95895	-8.18658	-29.81521	-91.21437
1304.68750	-70.19899	-5.50907	-30.39091	-75.80489
1308.59375	-59.26276	-8.34525	-27.51074	-62.75662
1312.50000	-49.69317	-11.05084	-23.95140	-49.33285
1316.40625	-37.55743	-9.80103	-22.88172	-37.26387
1320.31250	-25.44381	-13.12929	-19.96489	-28.22649
1324.21875	-11.25914	-14.27577	-16.51151	-14.55022
1328.12500	-1.20082	-6.02778	-16.55848	-8.35383
1332.03125	6.35248	-3.42240	-17.76585	-0.45944
1335.93750	13.04961	-3.53726	-17.34922	7.51743
1339.84375	19.93180	-3.96001	-14.13514	15.33220
1343.75000	28.01461	-2.21268	-9.56556	27.45855
1347.65625	29.56569	-2.59322	-7.28314	27.26344
1351.56250	30.96216	-4.59725	-6.70565	32.30394
1355.46875	33.32801	-5.19868	-6.48729	33.21301
1359.37500	38.64796	-4.83484	-7.07495	34.20419
1363.28125	46.40033	-3.15680	-9.94961	37.71041
1367.18750	45.93613	-1.68148	-9.76707	42.89160
1371.09375	46.31379	-1.69986	-6.09507	48.17532
1375.00000	49.47437	-1.48763	-6.00979	45.87793
1378.90625	44.39215	-3.64701	-4.81503	46.50610
1382.81250	40.25772	-6.21734	-4.35823	43.98691
1386.71875	37.43769	-9.75050	-6.69108	42.15966
1390.62500	36.30709	-11.26987	-7.88801	46.37219
1394.53125	39.73857	-7.31470	-6.24746	44.31770
1398.43750	43.59999	-6.82590	-4.52241	43.36036
1402.34375	46.64086	-8.96320	-6.48099	45.45969
1406.25000	44.36374	-8.67740	-6.52208	44.00330
1410.15625	44.87655	-7.53953	-6.45719	41.82384
1414.06250	44.82578	-7.77639	-7.60696	43.85921
1417.96875	47.94659	-4.68492	-7.79794	40.47005
1421.87500	48.20679	-5.33462	-5.42795	38.88154
1425.78125	47.37141	-8.13819	-4.02591	41.56727
1429.68750	51.48775	-9.06332	-4.63673	43.01173
1433.59375	48.63105	-9.72979	-3.24408	45.32687
1437.50000	48.96412	-8.08817	-2.14074	46.69253
1441.40625	46.14850	-9.41662	-3.60449	43.97293
1445.31250	42.02514	-12.16488	-6.05385	44.51394
1449.21875	44.06716	-11.42813	-6.06597	48.74517
1453.12500	44.31827	-11.17016	-7.26827	49.95044
1457.03125	41.00680	-9.77034	-8.09190	47.92157
1460.93750	34.80824	-10.31154	-8.65329	44.59358
1464.84375	32.34724	-11.08741	-9.38226	40.74355
1468.75000	31.08799	-8.60878	-8.74317	32.04284
1472.65625	27.87245	-10.09546	-10.42129	28.74025
1476.56250	25.28069	-9.31834	-10.73653	28.84477
1480.46875	23.83954	-7.99999	-11.29393	24.20060
1484.37500	22.76105	-10.14091	-14.41187	20.16809
1488.28125	20.61919	-9.48704	-11.47132	21.92781
1492.18750	24.29093	-8.53485	-7.87812	24.02662
1496.09375	25.96180	-9.14202	-8.45785	24.11663
1500.00000	22.09123	-10.11806	-9.90113	21.45410
1503.90625	22.12025	-8.51411	-9.85657	24.67498
1507.81250	22.33935	-9.24397	-9.82906	26.87104
1511.71875	21.50186	-10.13129	-6.50018	27.37115
1515.62500	16.86191	-11.25147	-6.89389	24.07309
1519.53125	14.23733	-12.21385	-8.49057	15.38238
1523.43750	19.53338	-8.61607	-8.20092	17.17551
1527.34375	20.54064	-7.89330	-10.67542	17.86781
1531.25000	19.92506	-8.05243	-12.34359	17.03931
1535.15625	19.34162	-7.58557	-10.07287	17.03890
1539.06250	20.41136	-9.02984	-8.66085	16.04228
1542.96875	16.59859	-8.42117	-9.03414	17.39273
1546.87500	12.00382	-9.87904	-10.79469	17.88857
1550.78125	12.72770	-11.98762	-12.12475	15.61869
1554.68750	12.05327	-13.05402	-12.75775	11.89159
1558.59375	12.39668	-12.23311	-12.81725	9.71993
1562.50000	12.49504	-11.13984	-13.15300	8.38149
1566.40625	13.65359	-9.97271	-11.40208	12.83018
1570.31250	13.22255	-7.85377	-8.67776	13.86358
1574.21875	11.12337	-9.52846	-10.51933	7.43764
1578.12500	13.55369	-9.71844	-11.68107	4.46232
1582.03125	10.83340	-8.69796	-14.50292	2.20659
1585.93750	4.53700	-7.77779	-17.33700	3.89755
1589.84375	0.47306	-8.16141	-16.11874	6.95936
1593.75000	0.84952	-7.08875	-14.64418	2.48616
1597.65625	2.92253	-7.91748	-15.31487	0.26114
1601.56250	1.92679	-9.94333	-15.48936	4.08247
1605.46875	1.17039	-9.34229	-15.30474	1.15628
1609.37500	-0.92834	-8.49783	-17.53761	-0.24043
1613.28125	0.58452	-8.16165	-18.69219	5.11527
1617.18750	2.65834	-8.02567	-19.68064	4.36388
1621.09375	2.27856	-9.21651	-21.33800	3.91287
1625.00000	2.33930	-11.04086	-21.42317	6.20788
1628.90625	3.79311	-11.70244	-20.60321	5.17446
1632.81250	5.50784	-8.32673	-22.67174	2.45322
1636.71875	7.11708	-7.61454	-22.35347	9.11337
1640.62500	11.06615	-8.51325	-19.94769	8.12199
1644.53125	14.48237	-8.43959	-21.18530	2.11554
1648.43750	14.24524	-12.15231	-23.71608	10.72625
1652.34375	26.11061	-12.83613	-24.17500	29.97984
1656.25000	27.57973	-10.30193	-17.28396	29.01640
1660.15625	14.97683	-5.39641	-14.93120	9.03228
1664.06250	21.06936	-0.32496	-19.01947	9.81512
1667.96875	31.64606	-0.59647	-20.03729	21.26058
1671.87500	38.63656	-0.75315	-21.19835	24.86151
1675.78125	36.64934	-1.57651	-20.58563	18.54720
1679.68750	33.33683	0.15401	-19.16888	14.27997
1683.59375	35.38555	2.83461	-20.96439	16.39468
1687.50000	33.84171	0.38662	-24.08215	17.44443
1691.40625	35.04380	3.32625	-21.40953	21.77377
1695.31250	32.71855	4.86520	-20.16882	20.42496
1699.21875	31.48058	2.91916	-23.37986	15.38596
1703.12500	34.85403	3.86949	-22.17737	16.59640
1707.03125	34.53739	3.27508	-21.75638	14.99699
1710.93750	31.86985	3.41280	-22.80650	16.71147
1714.84375	29.49387	3.78521	-22.88330	18.54494
1718.75000	26.31909	4.12658	-20.70168	14.35001
1722.65625	22.68302	4.00105	-20.63517	8.38329
1726.56250	19.22891	4.83518	-22.73733	5.45631
1730.46875	18.25064	5.93388	-21.77681	-1.18356
1734.37500	15.29794	4.04500	-23.49390	0.83242
1738.28125	12.19972	2.58476	-23.61380	8.74102
1742.18750	10.13773	2.43786	-20.35701	6.64019
1746.09375	13.70297	0.62694	-17.76262	8.56273
1750.00000	18.78021	-2.02399	-17.52798	14.04365
1753.90625	23.98720	-1.21087	-18.78124	14.84985
1757.81250	26.18356	1.53309	-13.97351	13.45755
1761.71875	20.57212	-0.80362	-12.46716	7.31414
1765.62500	16.34547	-0.48989	-14.49094	8.19241
1769.53125	14.53567	-1.13973	-13.29712	10.83688
1773.43750	11.65510	-2.72341	-12.37789	9.04158
1777.34375	13.06334	-0.62623	-10.70918	9.15292
1781.25000	14.07976	-0.87054	-11.45849	3.93521
1785.15625	10.63179	-2.54674	-12.11738	5.14226
1789.06250	9.56000	0.10576	-11.91768	10.97185
1792.96875	11.35595	1.91413	-10.73837	9.21630
1796.87500	11.51637	1.75968	-10.99239	7.10650
1800.78125	11.59621	-0.56454	-13.69162	7.35945
1804.68750	12.67142	-3.12518	-10.64095	10.68133
1808.59375	17.16101	-2.33492	-9.77551	15.26846
1812.50000	19.07517	-1.41414	-11.45437	13.78416
1816.40625	16.70577	-1.77595	-10.38477	9.33337
1820.31250	15.11997	-1.88082	-10.28860	8.29786
1824.21875	12.78476	-4.23607	-8.44698	10.69234
1828.12500	12.77004	-3.24074	-8.49398	12.05387
1832.03125	11.45908	-0.23247	-9.70132	11.48707
1835.93750	5.66563	-0.75031	-9.28476	4.95895
1839.84375	2.07186	-0.36719	-13.32348	1.89499
1843.75000	2.49921	-2.64927	-15.20085	-0.88667
1847.65625	4.05059	-4.23866	-15.73894	-4.70780
1851.56250	6.65602	-3.82515	-16.77312	-3.29320
1855.46875	6.60459	-4.02376	-14.54010	1.24259
1859.37500	6.28375	-3.25697	-13.11308	5.45767
1863.28125	8.39523	-2.78782	-13.16718	5.74087
1867.18750	8.73707	-2.92426	-10.56700	8.10194
1871.09375	3.87687	-4.55447	-10.11840	3.31274
1875.00000	0.59071	-4.34232	-10.83901	-0.19311
1878.90625	1.55255	-5.29295	-10.45008	7.28519
1882.81250	0.64171	-7.86334	-10.39610	7.18377
1886.71875	3.46264	-6.56147	-9.50548	2.53618
1890.62500	7.16725	-6.87204	-11.10538	0.30201
1894.53125	5.76360	-6.54334	-10.67363	-0.94642
1898.43750	0.35763	-7.26340	-6.53099	0.11103
1902.34375	-0.22786	-6.58016	-8.08666	1.00175
1906.25000	2.33023	-5.89147	-11.35123	4.38074
1910.15625	-0.38025	-7.97708	-12.09226	7.03667
1914.06250	1.58371	-5.79636	-11.63029	8.26632
1917.96875	8.73396	-3.91372	-8.19496	8.50369
1921.87500	10.20298	-3.75752	-10.25737	8.12428
1925.78125	10.97941	-3.33762	-13.69056	11.21322
1929.68750	13.08121	-3.45696	-11.07798	13.86661
1933.59375	11.03049	-2.51165	-8.47658	14.97315
1937.50000	8.54314	-3.69058	-14.62610	13.11551
1941.40625	14.99504	-3.81019	-20.92510	14.42537
1945.31250	23.36254	-2.52917	-16.92770	22.21917
1949.21875	11.70492	-6.62764	-8.47832	12.75089
1953.12500	-3.75815	-7.17551	-6.86020	2.67417
1957.03125	-3.84607	-4.96982	-6.87815	5.48066
1960.93750	-1.58299	-5.91390	-3.00746	4.97326
1964.84375	-4.04392	-8.70442	-0.51308	3.13796
1968.75000	-5.30298	-12.26977	-1.48582	2.89885
1972.65625	-6.50370	-10.13011	0.46230	4.43159
1976.56250	-9.49819	-9.75596	2.56460	3.73040
1980.46875	-11.34213	-13.27279	1.20119	1.90700
1984.37500	-12.42041	-12.99615	1.30662	-0.51354
1988.28125	-6.90634	-9.92474	-0.58814	1.64933
1992.18750	-4.04028	-10.58420	-1.83014	2.53959
1996.09375	-6.39842	-11.99725	-2.81281	-2.20516
2000.00000	-4.62760	-9.34676	-1.43565	0.37068
2003.90625	-2.58363	-8.14573	-0.58529	3.18899
2007.81250	-1.15544	-10.08434	-4.58717	3.77365
2011.71875	-2.79857	-12.98625	-5.69062	4.67707
2015.62500	-4.21484	-13.30054	-3.66688	3.39402
2019.53125	-4.82438	-8.62183	-2.44307	2.76230
2023.43750	-4.36315	-10.26216	-2.55636	3.34697
2027.34375	-4.16140	-13.56858	-3.01635	1.62199
2031.25000	-4.37377	-12.51890	-5.08756	-1.62369
2035.15625	-0.92761	-10.03737	-3.62289	-0.41501
2039.06250	-1.87233	-8.25818	-2.21096	3.02090
2042.96875	-8.50532	-9.66415	-5.80783	-2.07525
2046.87500	-8.66759	-12.73375	-9.18019	-5.60845
2050.78125	-6.33177	-14.03635	-10.51038	-5.46044
2054.68750	-3.78250	-9.46167	-11.14347	-2.33740
2058.59375	-3.03589	-4.20856	-7.97966	-0.47949
2062.50000	-0.92269	-4.72696	-7.91258	1.00282
2066.40625	3.05663	-7.18624	-7.77351	3.84000
2070.31250	5.84925	-8.69371	-4.24343	8.09705
2074.21875	11.00303	-7.95072	-3.26453	9.73000
2078.12500	12.22466	-5.72315	-3.21757	6.75487
2082.03125	7.48981	-6.31443	-5.23366	2.08170
2085.93750	5.62571	-7.81179	-8.06783	3.77288
2089.84375	7.20297	-6.58370	-6.84966	9.25246
2093.75000	7.17660	-4.30219	-5.37534	12.03211
2097.65625	6.02631	-5.53394	-3.22562	13.43366
2101.56250	5.83651	-4.73922	0.22613	14.83760
2105.46875	7.90063	-3.33234	-1.20112	12.31444
2109.37500	5.80203	-7.72600	-4.23990	7.69447
2113.28125	3.28576	-7.79273	-5.39466	3.78301
2117.18750	4.95678	-6.44800	-2.75678	5.04647
2121.09375	3.77123	-6.43005	-1.19075	7.41623
2125.00000	3.42925	-6.23980	-4.49948	5.27922
2128.90625	8.10675	-7.30431	-6.09710	7.06653
2132.81250	9.01584	-5.13731	-5.74800	10.79248
2136.71875	7.80483	-5.63390	-5.42980	8.99134
2140.62500	10.14243	-5.72675	-5.44157	10.01488
2144.53125	8.72361	-6.45894	-5.87333	15.69371
2148.43750	10.09833	-8.15697	-5.18069	14.23142
2152.34375	12.69655	-7.22904	-4.02797	11.72712
2156.25000	10.13652	-5.90363	-3.58394	13.18147
2160.15625	8.00989	-5.02731	-3.64876	8.91192
2164.06250	7.25270	-3.17927	-4.91660	4.05404
2167.96875	13.39724	0.17566	-11.97839	3.41183
2171.87500	23.61124	1.22775	-15.15425	16.28023
2175.78125	16.38600	-2.41612	-6.88593	20.44215
2179.68750	-5.05831	-5.11783	0.57463	1.66957
2183.59375	-11.87400	-7.67530	0.79367	-4.27409
2187.50000	-7.77680	-9.31740	5.33134	2.01382
2191.40625	-13.42466	-10.81000	8.40679	2.31378
2195.31250	-20.18234	-15.31499	7.22977	-3.87036
2199.21875	-22.22633	-17.66394	8.04769	-6.89482
2203.12500	-23.28529	-17.92241	11.66756	-3.66989
2207.03125	-26.01968	-18.51683	14.90875	-1.64310
2210.93750	-23.04653	-21.19965	14.66425	2.48875
2214.84375	-16.96112	-22.03596	14.18433	8.35134
2218.75000	-12.88332	-18.87402	11.93345	5.36515
2222.65625	-8.05805	-16.17903	7.56752	2.62167
2226.56250	-7.08004	-16.55375	7.88266	8.15605
2230.46875	-8.46131	-16.66378	8.84303	11.58930
2234.37500	-4.96726	-15.73212	10.75210	12.79920
2238.28125	1.20191	-14.37183	11.03495	12.24619
2242.18750	3.16920	-11.69813	9.05338	11.35410
2246.09375	3.10801	-13.10614	7.21544	10.45603
2250.00000	2.14127	-13.33952	5.03230	11.50473
2253.90625	0.90135	-12.92932	5.39056	13.51978
2257.81250	1.08302	-13.00590	5.76598	10.11282
2261.71875	3.93312	-10.10460	5.66050	7.59584
2265.62500	5.75037	-8.58206	5.65122	10.48880
2269.53125	7.56693	-10.03784	4.42726	12.73032
2273.43750	6.70097	-10.41264	4.54041	10.12919
2277.34375	4.88573	-8.31545	7.01490	9.43477
2281.25000	7.91677	-4.53053	8.28015	9.05225
2285.15625	3.25995	-7.81843	6.81527	7.03587
2289.06250	3.79986	-13.22448	5.00029	3.19522
2292.96875	8.01345	-13.43076	2.95598	3.85726
2296.87500	1.72697	-11.16750	2.70186	7.79154
2300.78125	-0.61068	-10.67122	3.62889	11.67098
2304.68750	5.70262	-10.41125	4.26185	14.59009
2308.59375	7.77469	-11.63559	3.51540	13.53620
2312.50000	7.67420	-12.32646	2.23936	13.66368
2316.40625	7.72234	-7.45018	5.32345	16.46563
2320.31250	6.13666	-3.92861	7.83707	18.25062
2324.21875	5.01027	-6.68677	4.84327	14.60109
2328.12500	5.80142	-10.12365	4.39319	11.93328
2332.03125	7.71396	-7.51825	4.39441	11.36649
2335.93750	7.96462	-2.39497	4.40784	11.28521
2339.84375	4.37092	-1.20601	3.18943	9.83304
2343.75000	1.17210	-4.69677	0.50609	3.82806
2347.65625	0.30593	-7.09194	0.77380	2.02168
2351.56250	-0.71480	-9.09597	0.14238	-1.80175
2355.46875	2.05443	-9.69747	1.56933	0.31659
2359.37500	3.74834	-7.31903	3.80207	4.12882
2363.28125	5.45699	-4.43223	3.34485	0.78571
2367.18750	8.61930	-3.35987	1.10977	-1.28541
2371.09375	8.99713	-4.18416	-0.45646	0.37222
2375.00000	11.35190	-1.95734	2.04615	7.74541
2378.90625	12.71645	1.12132	3.64356	10.79128
2382.81250	11.80534	-1.85204	2.89136	4.64576
2386.71875	13.41714	-5.78825	2.97581	7.25059
2390.62500	11.48015	-4.48719	1.77853	9.04526
2394.53125	3.62906	-2.94974	-0.61045	-0.26219
2398.43750	-1.37457	-3.66989	-0.49745	-6.86090
2402.34375	-0.75191	-2.58376	1.57299	-8.38835
2406.25000	-1.01498	-4.31274	0.32275	-7.42753
2410.15625	1.10890	-6.39839	0.79023	-5.98103
2414.06250	1.46046	-4.21773	3.26647	-2.33441
2417.96875	2.56603	-2.73804	5.49283	-0.48596
2421.87500	4.84014	-4.59663	6.25075	-2.88090
2425.78125	6.42168	-6.59437	4.02602	-0.59865
2429.68750	8.52261	-6.71374	1.80314	4.06873
2433.59375	9.29156	-5.36565	1.98669	5.17462
2437.50000	6.40051	-5.33590	3.08964	3.31636
2441.40625	3.18135	-5.85855	3.64023	7.84902
2445.31250	15.98046	-5.78640	5.21984	23.29799
2449.21875	27.28931	-1.02039	6.41618	22.69365
2453.12500	17.86960	2.46099	1.99011	4.55791
2457.03125	8.51377	2.24901	-0.84848	-3.91806
2460.93750	9.16468	4.12539	-5.03653	-0.39643
2464.84375	11.94155	6.57294	-9.79504	-1.82906
2468.75000	14.71142	9.05150	-11.97669	-6.09773
2472.65625	15.92801	11.19112	-16.87850	-4.56517
2476.56250	12.93330	12.37114	-17.99985	-10.10164
2480.46875	9.47746	12.48061	-17.34879	-14.34278
2484.37500	10.41375	11.14546	-18.85519	-9.91358
2488.28125	13.10713	12.20224	-18.73530	-5.33308
2492.18750	11.13799	10.33393	-17.55984	-6.86037
2496.09375	7.97401	7.30916	-17.73674	-11.60511
2500.00000	8.13310	7.13902	-18.37436	-10.23787
2503.90625	6.95380	4.71359	-16.71822	-6.21055
2507.81250	7.97923	3.17789	-16.28798	-7.64033
2511.71875	10.76860	4.30525	-16.18273	-7.13960
2515.62500	8.94979	5.60270	-16.57658	-4.79593
2519.53125	7.53468	6.25210	-16.15874	-8.65064
2523.43750	7.19036	5.41758	-15.06330	-10.88610
2527.34375	3.36311	1.30523	-14.71748	-11.80469
2531.25000	2.34527	-0.46556	-13.56536	-9.00592
2535.15625	-3.47555	2.01595	-11.69770	-6.99088
2539.06250	-10.06081	2.18344	-13.10627	-12.01597
2542.96875	-7.02301	3.19514	-12.67385	-11.06759
2546.87500	-9.60248	0.93144	-11.21104	-8.55638
2550.78125	-8.47504	-0.77404	-14.15299	-8.00499
2554.68750	-1.49302	0.17437	-14.78613	-3.67263
2558.59375	1.26873	0.18947	-10.01060	-1.00835
2562.50000	6.20289	1.68576	-6.72006	3.29501
2566.40625	10.98853	2.45008	-6.58101	6.13271
2570.31250	8.54347	-0.66902	-5.87145	6.36097
2574.21875	9.66846	-0.32901	-3.28087	12.02366
2578.12500	14.91987	4.71916	-0.01048	12.67546
2582.03125	13.40886	3.72504	-0.81776	10.82334
2585.93750	10.73932	-1.39868	-2.84606	11.70908
2589.84375	15.54047	-0.57350	-2.83667	11.14521
2593.75000	16.72330	2.11100	-1.36234	12.71659
2597.65625	12.34998	4.10285	1.19029	11.70098
2601.56250	11.35481	4.09172	3.43312	5.04684
2605.46875	7.37546	-0.54529	3.21461	4.13589
2609.37500	5.68018	-1.71541	2.19038	7.57491
2613.28125	5.17889	-1.78207	-0.57615	3.66376
2617.18750	1.61211	-2.85487	-1.96773	-1.11641
2621.09375	0.42684	-1.22513	-2.41657	-5.59618
2625.00000	-1.92954	-1.03485	-2.50203	-10.95627
2628.90625	-3.69874	-2.09935	-2.89101	-7.55692
2632.81250	0.03107	-0.33533	-2.54212	-3.83072
2636.71875	-0.37392	0.77985	0.99934	-0.79649
2640.62500	-6.90060	0.28408	2.59911	-2.99606
2644.53125	-6.30442	-0.85098	0.15258	-4.97263
2648.43750	1.51749	-0.93729	0.84500	-0.39070
2652.34375	2.90717	-2.42690	2.80340	1.13456
2656.25000	0.34742	-3.51907	2.84435	1.38035
2660.15625	-3.39060	-1.83689	3.58524	3.55795
2664.06250	-6.16216	-2.80933	2.72023	-2.10550
2667.96875	-5.25545	-4.28960	2.10516	-3.55335
2671.87500	-6.72622	-6.86386	2.95854	-1.56380
2675.78125	-4.68387	-3.65794	4.77976	-5.46020
2679.68750	-3.56389	0.49010	4.58455	-4.48890
2683.59375	-3.93237	0.75315	1.58001	-1.56784
2687.50000	0.97085	-1.29186	4.10288	-3.33828
2691.40625	4.18757	-2.78446	4.35768	-3.03814
2695.31250	4.27984	-1.64845	0.76292	-4.78985
2699.21875	-0.18163	-2.78859	1.17783	-8.21711
2703.12500	0.37120	-5.46465	-0.44058	-5.79791
2707.03125	2.87493	-7.67078	-2.43758	-5.38274
2710.93750	1.81884	-7.93596	-1.07049	-3.26546
2714.84375	4.27789	-6.35465	1.67285	-0.62616
2718.75000	3.52056	-4.80445	0.63067	0.81999
2722.65625	-1.32448	-4.12410	-0.51193	1.70302
2726.56250	-1.95812	-4.49881	1.41487	3.61111
2730.46875	2.30164	-2.59418	-0.44540	7.44741
2734.37500	4.18402	-1.66246	-1.35699	6.64275
2738.28125	3.10046	-1.51095	2.95503	0.04582
2742.18750	3.05309	-0.04605	4.59972	-0.84621
2746.09375	8.63290	0.15765	1.95579	8.73197
2750.00000	10.88972	-1.28443	2.19011	13.00427
2753.90625	3.60598	-0.06838	4.15995	4.94610
2757.81250	7.01130	2.67560	4.13238	5.56854
2761.71875	11.87617	3.56240	6.84731	10.30450
2765.62500	6.84381	1.45863	7.24087	9.57125
2769.53125	9.86927	1.21173	4.00223	10.20122
2773.43750	8.19750	1.64282	2.10077	7.60021
2777.34375	1.95019	-0.28922	1.75463	6.90585
2781.25000	2.56375	0.67524	1.00508	10.14988
2785.15625	5.15985	1.41670	1.95767	15.78943
2789.06250	8.11753	0.03997	2.96310	13.56070
2792.96875	4.27255	-2.58390	2.53043	7.37307
2796.87500	7.25358	0.08221	1.47032	10.50168
2800.78125	15.39213	4.60781	2.80014	14.38128
2804.68750	20.09380	3.25600	7.46236	12.06240
2808.59375	24.18054	0.41994	9.53631	15.44082
2812.50000	22.87127	-0.67389	8.66304	23.62696
2816.40625	20.09898	2.18773	8.92654	20.78798
2820.31250	15.69280	5.70929	8.21673	10.48518
2824.21875	12.14876	4.15990	7.64043	10.46216
2828.12500	12.93992	1.12596	6.38441	13.03254
2832.03125	13.24077	0.91079	5.98259	13.27166
2835.93750	11.07381	0.39295	5.19008	8.35533
2839.84375	9.89769	0.77600	5.58334	6.50032
2843.75000	11.93688	1.31449	6.52625	8.95701
2847.65625	5.42967	-0.67774	3.57036	5.94194
2851.56250	4.40880	-2.27885	2.53585	1.71565
2855.46875	5.96908	-0.46285	2.75401	-0.59828
2859.37500	7.25997	3.52731	3.77789	1.60227
2863.28125	9.37140	1.98180	3.32060	8.33233
2867.18750	8.10141	-2.58693	0.68242	7.46995
2871.09375	8.07617	-1.79958	0.32488	2.68074
2875.00000	3.17806	-1.58749	0.00693	-0.42232
2878.90625	0.91618	-0.52353	-0.00742	-0.59983
2882.81250	2.82553	0.53249	0.44905	-0.29847
2886.71875	-0.39764	-1.79197	-0.27241	-6.96088
2890.62500	2.50083	-3.31133	-3.48442	-7.58344
2894.53125	3.11165	-2.57970	-3.85884	-3.99678
2898.43750	0.12317	-2.09090	-0.52247	-3.74522
2902.34375	1.95518	0.20416	0.74205	-3.66044
2906.25000	6.52782	-0.31590	-2.92576	-1.89330
2910.15625	8.24946	-0.78973	-4.07008	2.77724
2914.06250	4.57241	0.98813	-1.99676	-2.44000
2917.96875	6.48460	4.07966	-0.57637	-4.21727
2921.87500	8.35661	6.25060	-1.02722	-0.16450
2925.78125	3.89504	2.64131	-4.05780	-1.91074
2929.68750	1.56464	-0.70130	-5.07192	-3.28656
2933.59375	3.14037	1.45284	-1.26202	2.25231
2937.50000	5.89130	4.70624	1.45262	4.02125
2941.40625	7.50814	2.97498	2.40615	0.89896
2945.31250	9.42891	3.04736	2.77684	2.24613
2949.21875	11.47113	4.99294	-0.05615	8.08945
2953.12500	18.16939	7.66858	-0.45296	14.53317
2957.03125	21.30507	11.08308	3.55824	14.11638
2960.93750	16.31555	7.72155	7.83168	7.96825
2964.84375	14.25784	3.31936	10.32587	6.13325
2968.75000	17.02821	4.58924	7.74123	13.55012
2972.65625	20.66292	5.52019	8.07745	21.12711
2976.56250	18.87747	3.87986	12.19411	17.60585
2980.46875	15.82503	3.18364	10.83049	9.73885
2984.37500	14.34416	1.04279	5.69764	8.12457
2988.28125	13.00870	1.29379	5.81743	11.09380
2992.18750	14.26344	1.84319	5.78399	14.80503
2996.09375	11.09988	-0.37565	3.99534	13.28424
