 	TP9	AF7	AF8	TP10	
-1000.00000	15.35818	4.55255	9.02257	15.57898
-996.09375	16.82695	3.99629	7.25289	17.45950
-992.18750	15.03377	2.52333	6.89984	18.57248
-988.28125	15.54440	1.77630	7.01073	18.05566
-984.37500	15.74556	1.58618	8.81240	16.26224
-980.46875	9.20219	-1.47536	8.39137	11.96102
-976.56250	4.96555	-1.39605	9.88001	7.86695
-972.65625	5.62111	-1.37554	11.15465	6.12312
-968.75000	9.58067	-0.69165	9.35824	8.34135
-964.84375	11.37406	0.20066	6.11817	7.06101
-960.93750	14.65686	-0.87328	7.47383	7.07153
-957.03125	15.10824	-0.95731	10.21749	8.15568
-953.12500	9.47352	1.52068	6.51458	4.48579
-949.21875	9.39345	2.25483	3.90150	3.20596
-945.31250	8.33431	-2.49132	2.95132	0.84607
-941.40625	7.97088	-1.31897	-0.99779	-1.88221
-937.50000	15.42224	2.50839	-5.82697	-0.20645
-933.59375	20.12184	3.58935	-2.16338	7.59112
-929.68750	12.95485	3.36866	4.74769	6.65897
-925.78125	2.20740	-0.47511	5.73982	-5.59391
-921.87500	-1.16327	-3.64394	2.70257	-11.64933
-917.96875	0.26764	-0.65772	2.85224	-7.54333
-914.06250	-3.55475	2.04304	6.09517	-7.14919
-910.15625	-9.56877	1.45137	7.47245	-14.36253
-906.25000	-9.41419	-1.43301	6.40850	-12.65348
-902.34375	-3.05185	-1.02691	7.27406	-2.86062
-898.43750	1.48190	0.83396	6.84559	0.66184
-894.53125	2.89379	1.75047	5.92759	-0.26838
-890.62500	5.46822	0.54771	6.04266	-1.05477
-886.71875	7.32388	-3.77606	4.13698	-0.98662
-882.81250	6.76132	-5.18309	2.62295	1.54528
-878.90625	2.95652	-2.68442	4.54202	-0.55816
-875.00000	2.78332	0.72935	6.62240	-0.79548
-871.09375	2.44077	1.48287	5.30693	-2.60178
-867.18750	4.87919	0.13208	4.15144	-6.05125
-863.28125	10.16664	-1.63966	3.63601	-2.03188
-859.37500	8.73181	-1.54526	1.17697	0.49872
-855.46875	10.20060	0.21887	0.94624	-1.09014
-851.56250	13.96399	1.45930	2.86331	-0.49689
-847.65625	14.68066	0.60591	3.21913	-1.25810
-843.75000	14.03624	0.30275	2.23260	-1.07628
-839.84375	11.56956	-0.18811	2.38576	0.62991
-835.93750	8.61338	1.05340	2.61724	2.86607
-832.03125	4.55763	2.92124	1.55054	0.39698
-828.12500	4.08807	0.05271	0.52832	-0.31430
-824.21875	6.70583	-4.22460	0.40553	5.24114
-820.31250	6.24865	-3.46036	1.71276	6.70857
-816.40625	2.84728	-2.38305	5.20441	5.82778
-812.50000	-1.62629	-3.77275	6.22315	1.66313
-808.59375	-2.32647	-3.54827	3.32869	-2.42610
-804.68750	-0.12091	-5.98761	0.55052	-1.59476
-800.78125	0.84650	-5.33497	1.96660	5.46289
-796.87500	-2.67180	2.42225	5.90076	3.35945
-792.96875	-5.01367	4.77883	7.23160	0.85645
-789.06250	-4.97525	3.50226	6.38238	6.49365
-785.15625	-6.02399	3.84675	5.06434	6.63835
-781.25000	-3.00417	5.04701	5.14746	6.18735
-777.34375	-3.11118	5.81700	7.13481	4.32656
-773.43750	-10.46241	4.83576	6.61222	-0.84047
-769.53125	-9.51162	3.88245	4.85780	-0.97292
-765.62500	-6.95954	2.28149	4.66053	2.55510
-761.71875	-2.86314	1.47060	6.80697	6.89549
-757.81250	2.33580	4.99425	8.51221	8.73474
-753.90625	4.57010	11.74293	8.41680	13.06876
-750.00000	5.40450	13.31542	8.43261	14.64051
-746.09375	9.57492	11.45028	7.38058	12.35650
-742.18750	11.76925	11.71065	8.13544	14.06346
-738.28125	7.63046	13.25975	10.03803	16.59448
-734.37500	9.03933	13.04319	11.05577	24.02843
-730.46875	11.95461	10.86294	12.68444	28.73207
-726.56250	6.51927	11.58585	8.37419	17.51420
-722.65625	7.47365	12.77041	5.08375	9.99016
-718.75000	9.15336	13.29164	4.86436	8.57725
-714.84375	5.34341	16.42492	6.08861	8.24527
-710.93750	6.08810	15.88344	7.55232	9.03999
-707.03125	10.87286	11.12858	6.41912	12.38749
-703.12500	16.90863	8.64687	4.88279	17.66844
-699.21875	15.37500	7.50620	3.46537	14.51538
-695.31250	11.99991	9.83100	3.60850	8.81591
-691.40625	9.54088	12.68426	3.52708	5.49951
-687.50000	9.34029	11.27082	1.50515	5.03181
-683.59375	5.04156	10.18609	-2.15971	2.06846
-679.68750	0.11845	8.79134	-5.04279	-0.62667
-675.78125	0.38759	7.39325	-2.81278	-0.86551
-671.87500	2.14433	6.52902	-3.80613	-3.27261
-667.96875	0.71125	5.55365	-7.98638	-2.94740
-664.06250	0.90519	5.26680	-9.21589	0.28387
-660.15625	4.09653	5.04880	-9.38563	0.64637
-656.25000	5.14866	5.51188	-7.11414	-0.66066
-652.34375	4.82819	3.89316	-3.95168	0.42471
-648.43750	7.94807	3.64033	-3.92735	6.97470
-644.53125	7.74283	-0.10038	-3.81644	9.51576
-640.62500	4.76342	-2.12480	-3.12689	8.28662
-636.71875	0.08523	0.98643	-1.62535	8.62055
-632.81250	-1.77187	0.37510	-2.53008	4.87898
-628.90625	3.23967	3.11087	-5.25627	2.54932
-625.00000	4.61959	7.34903	-8.14366	2.78575
-621.09375	4.96006	11.02400	-5.62065	7.81460
-617.18750	7.75762	15.99747	1.17458	7.63679
-613.28125	10.12383	20.58598	-0.32590	8.04881
-609.37500	6.72150	22.09958	-2.30036	9.94956
-605.46875	-0.39036	21.13759	-3.68261	5.09068
-601.56250	0.67942	21.10232	-7.61557	5.30232
-597.65625	0.76678	21.95206	-8.77848	4.45103
-593.75000	-1.41113	23.46037	-3.76388	1.04503
-589.84375	-2.97565	22.73883	-2.30652	-0.25893
-585.93750	-6.46817	22.70255	-4.15086	-0.07812
-582.03125	-7.24930	23.24863	-3.08526	-0.83311
-578.12500	-5.16991	25.30769	-3.67594	-2.54005
-574.21875	-5.37187	27.96962	0.47502	-3.26085
-570.31250	-7.73699	27.20180	3.19595	-4.72890
-566.40625	-4.74047	21.28561	-0.69977	-3.44593
-562.50000	-0.67168	18.64232	-0.10801	-0.08778
-558.59375	-1.58496	17.60830	-0.03523	-0.02850
-554.68750	-5.00119	16.82051	1.12996	-2.06932
-550.78125	-7.17925	14.14954	4.54779	-0.66624
-546.87500	-7.69222	7.59742	4.23866	1.83935
-542.96875	-3.74055	7.65476	0.48887	2.32683
-539.06250	-1.76630	12.55398	-0.27494	3.53853
-535.15625	-0.71957	18.65261	2.65345	3.39290
-531.25000	-0.11507	15.83699	3.37481	0.21657
-527.34375	2.81046	7.81049	2.59488	2.88221
-523.43750	6.93626	4.75864	0.69852	5.63069
-519.53125	7.59521	6.91701	2.45157	5.35927
-515.62500	3.83230	8.91715	4.25920	1.42745
-511.71875	0.13677	9.72428	2.51439	-3.71976
-507.81250	1.38263	10.22615	0.40490	-1.12773
-503.90625	3.57857	8.71182	-1.51576	2.19313
-500.00000	4.75694	10.76196	-1.53290	4.64990
-496.09375	0.58468	14.23508	-0.07927	1.29223
-492.18750	-2.41739	13.16523	-3.25291	-7.66809
-488.28125	-3.11554	11.61244	-9.58897	-7.78208
-484.37500	-2.91447	8.60182	-8.99619	4.52692
-480.46875	1.01826	7.95792	-4.98509	9.49299
-476.56250	-4.02425	11.66361	-4.70536	-2.65968
-472.65625	-8.20389	12.49004	-4.63959	-10.04469
-468.75000	-4.64735	8.74175	-7.64485	-5.00598
-464.84375	0.36946	6.81365	-6.45272	4.99569
-460.93750	6.47274	10.57495	-1.47079	8.22968
-457.03125	4.10363	12.90858	-1.14479	3.67277
-453.12500	2.49821	13.77491	-1.22145	3.62924
-449.21875	3.62693	11.28569	-2.22289	3.15522
-445.31250	4.98534	8.95724	-3.57614	5.63044
-441.40625	7.44231	11.33843	-1.07845	6.12551
-437.50000	4.41738	13.15113	1.34497	2.56305
-433.59375	4.28187	13.02344	1.38202	4.31668
-429.68750	5.97941	10.38525	1.44322	5.80224
-425.78125	10.54341	9.36209	1.22646	8.45783
-421.87500	12.81389	9.01388	1.00961	10.86401
-417.96875	11.82731	9.17977	2.36801	7.31443
-414.06250	13.64605	14.70110	3.19331	6.90278
-410.15625	12.06437	14.51255	-0.26468	6.13646
-406.25000	11.41314	11.62835	-0.92578	5.02511
-402.34375	10.52277	11.63175	-1.67202	2.73015
-398.43750	9.81844	10.67222	-3.71232	0.61163
-394.53125	12.03617	10.38005	-3.82451	0.89024
-390.62500	16.22227	12.40093	-2.09791	1.31265
-386.71875	22.10717	16.13592	-1.18316	6.21593
-382.81250	26.78263	18.75835	0.12322	11.56829
-378.90625	28.21587	17.63080	3.25106	11.07657
-375.00000	22.80457	15.00072	4.12252	8.42165
-371.09375	18.83569	13.73980	0.38942	8.22704
-367.18750	19.25950	13.19508	-1.97496	9.61276
-363.28125	16.48842	11.02071	-2.08749	8.79701
-359.37500	12.23316	9.10065	-4.14361	7.29839
-355.46875	12.49337	10.86499	-1.55384	6.11249
-351.56250	11.82467	12.10569	0.76606	3.88531
-347.65625	11.73562	13.26717	0.71886	3.12409
-343.75000	12.30003	12.15831	0.53818	1.69425
-339.84375	10.63938	13.27938	0.69127	2.19174
-335.93750	8.08627	17.34156	0.51972	0.39856
-332.03125	10.47746	19.61256	2.27347	0.75006
-328.12500	7.59045	16.74425	0.04242	-1.57287
-324.21875	6.17894	14.07892	-2.09506	-1.25554
-320.31250	7.73655	16.45502	0.82389	3.03253
-316.40625	7.15575	19.95019	4.31553	2.55480
-312.50000	11.54670	21.78428	6.94595	4.03119
-308.59375	12.05524	20.39729	4.85730	3.16541
-304.68750	9.02263	16.74942	1.67620	1.98205
-300.78125	7.16948	15.38765	-1.33998	-0.22762
-296.87500	0.42768	19.11573	-1.03222	-5.55455
-292.96875	-5.54062	23.08427	0.29870	-6.84863
-289.06250	-3.08465	22.61385	0.25537	-6.85240
-285.15625	0.70170	21.34686	-1.06260	-7.11047
-281.25000	-0.30776	21.33862	-4.20284	-9.97894
-277.34375	0.79391	21.30305	-3.42420	-11.43670
-273.43750	-0.11054	21.12793	-1.52912	-12.57430
-269.53125	0.84006	20.17492	-3.28349	-12.30371
-265.62500	5.40663	18.17138	-5.89836	-5.14931
-261.71875	13.12934	19.77833	-5.76656	4.42930
-257.81250	12.68711	21.28763	-4.46425	6.67148
-253.90625	3.23622	23.60433	-1.73906	0.93213
-250.00000	-1.57081	22.35660	1.90310	-4.34605
-246.09375	0.18161	18.07420	1.65696	-0.98931
-242.18750	-2.86264	17.12595	0.39714	-1.29732
-238.28125	-0.55506	17.06357	2.70253	-3.60185
-234.37500	4.88256	17.25019	6.13772	-0.60043
-230.46875	5.37959	18.69654	3.33413	3.69990
-226.56250	8.00212	16.19610	0.23258	6.18124
-222.65625	8.55296	11.73988	1.37427	8.32701
-218.75000	8.62039	14.27597	3.57227	12.15176
-214.84375	1.98949	14.58893	5.60232	8.19302
-210.93750	-2.50434	12.03306	5.05123	4.55515
-207.03125	0.26537	10.50196	3.11211	6.29056
-203.12500	2.67441	11.24394	3.18748	6.33313
-199.21875	4.36392	14.53569	5.79926	6.40327
-195.31250	-0.62314	15.24906	8.35996	5.13581
-191.40625	-2.27646	14.87922	7.87554	3.83389
-187.50000	-1.26856	13.46613	5.85365	5.78359
-183.59375	0.07345	11.57596	5.41222	10.47574
-179.68750	4.82055	12.19612	8.57306	10.19800
-175.78125	5.08945	13.21595	9.59427	7.13855
-171.87500	4.02555	11.54620	9.40679	9.96949
-167.96875	7.02445	8.15362	9.65879	15.12977
-164.06250	11.24744	3.43479	8.42924	16.34636
-160.15625	13.63257	6.44062	8.66236	18.72342
-156.25000	11.05809	11.73907	8.51630	17.01332
-152.34375	9.52856	10.92654	8.45526	11.24876
-148.43750	8.21595	9.46527	6.06192	9.33702
-144.53125	10.83108	9.75419	3.75519	11.07219
-140.62500	11.88074	9.34178	3.63891	12.26051
-136.71875	6.39645	9.63280	3.52863	4.53573
-132.81250	7.35961	11.84221	5.04137	2.40573
-128.90625	11.16206	10.14597	4.73273	6.52282
-125.00000	12.94463	11.16103	2.24824	10.78839
-121.09375	14.89648	12.82154	0.74183	11.78775
-117.18750	9.63514	10.94543	-0.92450	8.78921
-113.28125	4.74832	9.49024	-1.21624	4.36583
-109.37500	6.18087	9.39235	-1.17612	3.04283
-105.46875	6.32137	9.23652	-0.54380	2.61601
-101.56250	5.37623	7.18677	0.35835	1.21577
-97.65625	5.46311	7.63377	-1.61043	0.76718
-93.75000	4.09061	9.94821	0.18066	-0.62447
-89.84375	2.92857	10.03273	1.23503	-2.33173
-85.93750	7.89707	10.39958	-1.01238	0.26630
-82.03125	7.51835	9.73709	-1.15570	1.12262
-78.12500	4.76219	7.76705	-1.34353	-0.18172
-74.21875	6.97728	10.83214	2.80732	0.70876
-70.31250	7.02923	14.49671	6.33400	2.46376
-66.40625	6.39901	14.22176	2.84106	0.12000
-62.50000	7.64671	11.57858	-1.80539	-2.56632
-58.59375	9.55340	10.54476	0.28192	-0.89570
-54.68750	6.13671	9.75717	3.86469	-2.93690
-50.78125	0.33181	9.90691	0.83553	-4.35461
-46.87500	0.22127	9.80196	-1.89118	-4.66991
-42.96875	1.75496	8.24775	-2.82046	-5.79445
-39.06250	2.51998	9.92371	-4.39013	-3.77709
-35.15625	0.34291	11.99332	-3.47642	-6.34055
-31.25000	0.54409	12.80426	-2.35213	-7.50243
-27.34375	2.66342	11.22488	-6.75849	-10.47797
-23.43750	3.56544	6.15871	-12.28127	-15.38544
-19.53125	10.67100	6.30270	-10.93112	-12.03069
-15.62500	10.13128	9.91482	-7.10885	-10.32165
-11.71875	-0.41441	12.33410	-6.03317	-16.67789
-7.81250	-4.40696	12.83640	-6.53097	-19.72702
-3.90625	-3.82295	8.90497	-6.43691	-13.58580
0.00000	-6.27107	7.32929	-3.63353	-9.51731
3.90625	-8.02589	7.57957	-4.59742	-7.63698
7.81250	-1.76054	9.33075	-2.13009	-3.70357
11.71875	1.57058	8.98741	-2.42222	-3.01178
15.62500	2.98033	5.57452	-3.84409	-0.77605
19.53125	6.91303	6.54298	-0.63886	4.59284
23.43750	4.28802	9.84648	-1.56795	-0.30720
27.34375	-3.11507	11.07644	-2.71103	-4.87172
31.25000	-3.99082	5.71705	-3.70168	-3.86240
35.15625	-0.58569	0.56614	-6.13595	0.09523
39.06250	1.08531	-0.10419	-6.79500	-0.70018
42.96875	4.35716	3.43882	-4.85724	1.59263
46.87500	5.97515	5.91746	-0.50173	6.38421
50.78125	6.70092	4.63753	-1.90614	6.31308
54.68750	7.65635	3.51845	-2.85644	7.57943
58.59375	8.90450	3.48261	-3.17923	10.08913
62.50000	7.89423	7.31056	-2.77050	8.54130
66.40625	5.34107	8.79502	-1.52456	3.44508
70.31250	3.00922	6.56038	-4.68681	2.51292
74.21875	4.75264	3.12015	-4.90355	4.76550
78.12500	6.62010	1.16075	-2.29982	6.36571
82.03125	3.61876	2.53586	-2.15025	3.62195
85.93750	3.16456	-1.45212	-5.25704	-0.96359
89.84375	6.17256	0.01925	-3.25632	4.75592
93.75000	6.77532	4.93979	-1.58668	3.71762
97.65625	4.39190	5.30190	-0.30001	0.06674
101.56250	5.98246	3.64679	1.93667	5.53720
105.46875	5.18690	-0.58136	2.08727	5.78633
109.37500	1.20140	-0.92798	1.02848	3.19781
113.28125	1.03601	4.76272	4.12147	3.85843
117.18750	1.90507	5.58698	6.73752	7.62843
121.09375	-1.36623	3.61327	4.95161	6.80082
125.00000	-3.01471	0.04844	-0.12047	2.68127
128.90625	-0.54977	-2.37030	-0.78140	4.42759
132.81250	3.10074	-4.10011	2.42440	0.93833
136.71875	6.77438	-3.45419	6.47022	0.02066
140.62500	5.30879	-2.68270	7.68108	0.74470
144.53125	5.55010	-5.58555	3.04111	-0.61089
148.43750	8.95423	-3.87380	1.81213	2.77767
152.34375	6.51256	-2.71103	4.20302	5.41819
156.25000	2.09311	-6.54146	3.71289	3.45051
160.15625	-0.16196	-11.23268	2.85684	-0.91943
164.06250	-2.56418	-20.68964	0.70300	-0.86500
167.96875	-3.34939	-29.17889	-0.03308	2.65527
171.87500	-0.02328	-28.13500	-0.20776	1.96842
175.78125	4.39577	-25.46229	-1.55333	4.63429
179.68750	7.62900	-26.89606	0.53431	9.08833
183.59375	9.31052	-31.55119	2.94531	5.55067
187.50000	3.21388	-37.95936	-0.25088	-1.60467
191.40625	-0.00222	-39.66650	4.51122	-1.37427
195.31250	2.81428	-39.69380	8.38320	4.38648
199.21875	1.30524	-43.25344	6.73756	0.97812
203.12500	-1.53217	-49.04128	5.74209	-0.29287
207.03125	0.41839	-53.14953	1.18060	2.46710
210.93750	2.12496	-54.21477	0.64217	4.23071
214.84375	0.57920	-52.08028	4.09412	6.33836
218.75000	-3.79972	-53.48505	3.71686	-0.24185
222.65625	-1.64266	-54.62198	1.84127	1.76318
226.56250	4.76500	-52.15340	2.26827	12.43375
230.46875	7.54587	-49.19777	1.09275	16.74228
234.37500	8.57338	-46.52456	3.69936	15.32560
238.28125	10.46878	-44.72887	7.16435	14.72180
242.18750	6.97535	-46.28011	4.93936	11.33231
246.09375	5.35883	-48.23701	2.22590	9.34250
250.00000	4.15139	-45.94857	2.25303	10.74986
253.90625	-3.42101	-42.78568	4.77238	5.96205
257.81250	-5.82928	-38.77548	3.35836	2.78184
261.71875	-4.27118	-37.72095	-0.68361	1.43908
265.62500	-2.64706	-36.13326	-1.34546	1.64448
269.53125	-2.84191	-31.95031	-0.29091	1.94104
273.43750	-5.99153	-28.38375	0.45751	-0.80677
277.34375	-5.93255	-25.98742	2.34947	-0.98469
281.25000	-6.35488	-28.55298	1.88582	-1.70466
285.15625	-7.57803	-35.15747	-3.19180	-0.99877
289.06250	-4.59317	-34.97744	-4.90735	5.19613
292.96875	-4.38216	-32.73970	-0.78659	1.45530
296.87500	-10.37099	-35.40865	1.29523	-3.80982
300.78125	-12.15057	-35.31141	-1.06416	-2.90946
304.68750	-6.62024	-36.42248	-3.29962	-3.82904
308.59375	-4.75201	-37.67300	-4.72527	-4.89621
312.50000	-10.68951	-33.69378	-7.01772	-4.18881
316.40625	-9.45687	-31.20982	-4.25729	-4.46730
320.31250	-9.14699	-33.43715	-2.29516	-5.37260
324.21875	-7.83569	-35.07479	-3.26917	-4.42828
328.12500	-4.54982	-29.93186	-2.94544	-2.97682
332.03125	-4.37569	-17.14075	-2.51737	-2.44484
335.93750	-4.38356	-7.37731	-0.62767	-2.94251
339.84375	-6.18575	-5.22497	0.19056	-3.02267
343.75000	-2.76212	-3.29834	-3.49536	0.02865
347.65625	-0.38153	-0.43955	-5.99234	2.06621
351.56250	-1.97506	4.83930	-3.79833	0.62340
355.46875	-8.03220	15.91463	-3.14471	-3.65670
359.37500	-10.09350	22.70552	-4.10208	-7.11377
363.28125	-4.69278	26.27972	-2.76440	-2.94086
367.18750	-4.35583	28.67633	-1.75557	0.94337
371.09375	-7.13119	31.45334	-1.18000	0.96352
375.00000	-6.69419	33.40387	1.07006	1.05232
378.90625	-7.54993	34.20837	3.74409	-1.90407
382.81250	-3.54728	33.92096	1.74570	-2.04250
386.71875	1.64106	33.27244	2.53357	3.30605
390.62500	1.89537	35.31895	3.73880	3.78958
394.53125	3.26333	40.63680	4.75101	1.51766
398.43750	3.48317	43.35471	4.76976	1.35135
402.34375	2.69899	42.18946	2.37745	-2.90193
406.25000	-0.13658	41.58509	0.44865	-7.38218
410.15625	-3.52496	42.24442	-1.51724	-3.81910
414.06250	-7.97480	42.83438	-0.97648	-1.45690
417.96875	-10.01232	44.06829	1.77288	-4.17217
421.87500	-6.08789	42.61896	3.55795	-3.08331
425.78125	-2.45048	40.34659	2.88748	3.51730
429.68750	-0.85065	39.76315	2.00720	0.67406
433.59375	-5.75783	36.35714	1.60946	-9.89177
437.50000	-12.55705	35.91294	1.58080	-13.61647
441.40625	-12.56659	34.79704	0.84657	-13.04199
445.31250	-5.71489	30.38956	-1.81816	-11.95389
449.21875	-5.01379	26.69381	-3.80032	-10.56112
453.12500	-9.43143	24.01752	-4.01509	-14.52930
457.03125	-5.34042	23.28794	-3.08146	-17.69328
460.93750	-3.82598	21.53001	-3.35035	-16.23455
464.84375	-3.89437	18.18398	-3.58031	-10.28476
468.75000	0.07912	17.57144	-2.39866	-4.91460
472.65625	-1.67763	21.12324	0.28137	-6.51801
476.56250	-4.86442	25.50175	4.68801	-8.32543
480.46875	-6.84220	23.75224	5.05610	-10.21775
484.37500	-5.85778	20.27039	0.03042	-10.41420
488.28125	0.30272	23.71005	-1.42147	-1.75322
492.18750	3.39043	26.46727	0.80195	2.84369
496.09375	1.78081	24.79514	1.90215	-1.21180
500.00000	0.16493	23.30985	2.27648	-4.63516
503.90625	2.09354	20.14424	1.36726	-2.66917
507.81250	2.08154	16.93724	-2.05540	2.52432
511.71875	3.34115	21.11827	0.77622	9.10363
515.62500	2.11711	23.55717	4.25700	5.27031
519.53125	-2.52617	20.58045	3.60384	-0.66887
523.43750	-2.60290	19.02588	4.06265	3.28606
527.34375	-0.24739	17.43272	3.37789	3.46221
531.25000	3.39523	17.17506	3.43698	0.95703
535.15625	0.58606	18.13590	4.88661	-0.95931
539.06250	0.01571	17.95327	3.37706	-2.32080
542.96875	3.83084	14.90710	-0.34240	1.41827
546.87500	2.96673	11.12657	-2.02302	5.47279
550.78125	5.14609	13.04140	-0.87412	6.58529
554.68750	6.86529	14.55287	0.55381	3.07083
558.59375	4.99384	11.36858	1.97777	0.91277
562.50000	3.27245	6.98391	-0.96951	-0.19930
566.40625	2.03660	4.09437	-7.76099	-0.72847
570.31250	3.33521	7.12502	-7.30726	1.78693
574.21875	1.61784	9.96883	-4.72320	-1.57672
578.12500	-0.86534	11.27015	-3.83980	-3.83574
582.03125	0.16628	10.96716	-3.86655	-2.75764
585.93750	1.78280	6.84215	-6.56377	-3.06747
589.84375	3.58191	7.50751	-7.78651	1.04045
593.75000	3.78167	8.39871	-6.51980	3.62854
597.65625	3.41271	7.14895	-1.60683	1.58935
601.56250	-0.23490	6.29955	1.43566	-1.40169
605.46875	-1.43345	2.87709	-2.04010	-2.76426
609.37500	7.47463	2.12741	-0.68138	5.12349
613.28125	12.95016	5.80330	4.02333	12.23107
617.18750	16.63965	8.64207	5.83349	18.01575
621.09375	21.42685	7.07109	4.45048	20.81451
625.00000	27.03104	3.10321	0.58708	24.35070
628.90625	32.71937	-0.12152	1.94081	31.33517
632.81250	27.10241	-2.25441	4.74353	30.26356
636.71875	25.53781	-1.60857	6.37177	28.54008
640.62500	26.48972	-2.04602	7.17968	30.87582
644.53125	28.34265	-0.91974	7.77765	35.96705
648.43750	33.35835	-0.01394	6.54860	34.11739
652.34375	30.91653	1.14861	6.92478	31.51967
656.25000	28.51156	5.37662	8.44924	29.14896
660.15625	26.25639	9.14685	6.78728	25.18180
664.06250	30.30083	11.77768	7.05098	26.04194
667.96875	35.15649	12.95869	9.13530	28.35323
671.87500	31.63256	14.00238	9.36342	27.66622
675.78125	27.99281	17.07790	7.21192	21.46751
679.68750	24.37599	19.27037	4.86729	19.87746
683.59375	24.84862	16.62967	2.84598	18.75731
687.50000	20.76650	11.43021	-0.35025	14.01959
691.40625	18.35623	12.14050	0.38252	11.02659
695.31250	18.35207	14.93359	1.83698	9.93751
699.21875	19.26045	16.61199	3.81774	14.58773
703.12500	19.24363	15.25627	5.23979	16.13743
707.03125	15.15049	8.73039	0.27540	11.64486
710.93750	10.41036	6.05338	-5.09825	12.60276
714.84375	8.46192	6.57616	-2.85508	14.30764
718.75000	4.88925	5.57438	0.79687	11.35404
722.65625	1.00282	2.42283	-1.48162	12.15063
726.56250	-1.85637	-4.37594	-1.45761	15.16586
730.46875	-6.32756	-6.65829	1.79914	11.81920
734.37500	-9.32866	-3.98501	4.40569	3.15029
738.28125	-2.59738	-1.38336	6.25906	5.36751
742.18750	1.56564	-3.74031	4.03417	12.45467
746.09375	7.60552	-5.29420	0.11193	19.32975
750.00000	13.24868	-0.58813	0.94490	23.15515
753.90625	13.73560	-1.05161	3.46424	19.17354
757.81250	16.16323	-3.48830	5.27368	18.81422
761.71875	16.11048	-4.85133	5.26106	16.66619
765.62500	17.33239	-9.71041	2.58467	12.84281
769.53125	19.55599	-10.76556	-0.39008	15.15461
773.43750	19.22772	-7.19893	-0.85039	13.61622
777.34375	19.69056	-2.38490	1.04164	15.45359
781.25000	16.85160	-3.33861	-0.22776	14.73427
785.15625	16.03220	-8.33133	-1.27597	12.62024
789.06250	16.19741	-8.95712	-0.57385	15.99531
792.96875	15.20047	-8.33111	1.53237	15.47863
796.87500	14.45058	-8.98539	2.40557	9.40821
800.78125	11.46307	-9.29101	2.06093	8.29462
804.68750	11.75626	-10.80498	1.43733	13.01667
808.59375	12.01373	-13.66718	1.22058	16.78535
812.50000	11.71810	-9.68802	2.95746	17.49337
816.40625	10.93702	-7.20397	3.30047	13.18631
820.31250	8.02452	-10.23709	3.24809	8.65532
824.21875	3.29282	-14.69523	1.06541	7.18279
828.12500	4.56504	-18.41669	-3.04298	5.81450
832.03125	6.75476	-20.93669	-3.42061	2.31787
835.93750	1.50977	-23.26100	-1.12783	-3.01431
839.84375	-0.69448	-21.10845	0.49630	-2.69094
843.75000	0.71527	-21.19631	-1.98077	-0.84791
847.65625	2.29067	-22.76967	-5.68652	0.78715
851.56250	7.95059	-19.50538	-2.68669	7.00038
855.46875	9.14685	-18.10022	0.38456	8.36171
859.37500	7.08615	-19.36787	0.23298	4.09911
863.28125	6.04051	-21.43472	-0.44409	5.85470
867.18750	6.37799	-23.06742	-0.24124	9.73910
871.09375	7.22935	-19.88745	-0.06867	12.17713
875.00000	4.44321	-16.72813	3.79309	8.63965
878.90625	3.18471	-15.52069	5.66119	3.66857
882.81250	3.56111	-12.58459	2.05094	5.54479
886.71875	6.73491	-7.59192	1.22701	11.29635
890.62500	8.19807	-7.96299	2.02926	10.97401
894.53125	5.93970	-10.30068	2.63839	7.49318
898.43750	5.75656	-14.43250	3.05997	5.71500
902.34375	4.97233	-24.05927	0.26461	2.67025
906.25000	5.76298	-27.88705	-0.45557	6.24842
910.15625	5.59792	-28.43642	0.80191	6.99074
914.06250	2.75970	-29.45807	0.93960	1.69696
917.96875	2.73668	-30.23861	0.86833	-0.21277
921.87500	1.82572	-31.68787	-0.97318	-1.94474
925.78125	1.03071	-33.15421	0.77379	1.83505
929.68750	0.21275	-34.54340	-0.50957	3.02079
933.59375	-3.08290	-33.91989	-3.32496	-2.71022
937.50000	-4.24146	-30.73762	-0.13027	-2.80895
941.40625	-2.63949	-30.24166	-0.86464	-2.63773
945.31250	-3.44375	-30.21683	-3.52939	-1.14704
949.21875	-5.16051	-31.49483	-3.89998	-0.15756
953.12500	-8.36964	-30.94745	-2.90607	-3.72311
957.03125	-9.11412	-30.46795	-2.37549	-5.67875
960.93750	-4.37649	-31.82274	-4.65910	-5.02630
964.84375	-0.81883	-32.75096	-7.70975	-3.91215
968.75000	0.73676	-30.13989	-7.33408	-2.97459
972.65625	3.00897	-28.60250	-7.07178	-0.14620
976.56250	3.44821	-29.86485	-8.30623	-2.75990
980.46875	5.90242	-27.18201	-7.13240	-1.83221
984.37500	4.06588	-26.23146	-5.30840	2.80606
988.28125	4.18193	-26.82091	-4.74578	5.82555
992.18750	4.04569	-24.06354	-5.34295	3.97506
996.09375	4.45023	-21.70623	-6.66040	-2.49851
1000.00000	6.86319	-19.56503	-5.48030	-1.89299
1003.90625	5.16502	-19.50703	-4.37489	0.87847
1007.81250	1.92913	-23.11679	-6.58890	-1.18109
1011.71875	3.18834	-24.97965	-6.98076	1.36859
1015.62500	4.78449	-22.13763	-3.50010	3.98183
1019.53125	5.37901	-19.07028	-4.15325	3.68342
1023.43750	4.89896	-19.01303	-6.11214	2.39992
1027.34375	3.22493	-18.18853	-5.99114	1.36707
1031.25000	0.82336	-19.25200	-3.11163	0.07047
1035.15625	-5.20956	-22.32035	-2.46787	-2.24900
1039.06250	-6.98894	-19.27943	-2.36573	-0.79014
1042.96875	-9.62087	-15.47573	-1.25011	-1.88649
1046.87500	-9.67932	-15.62979	-1.31908	-4.27906
1050.78125	-6.29137	-14.92371	-1.37903	-1.55502
1054.68750	-7.39286	-11.80052	-1.56283	-0.63748
1058.59375	-4.42926	-8.13496	-0.94480	0.02470
1062.50000	-5.34489	-10.50490	-3.08623	-3.10230
1066.40625	-9.80420	-15.81187	-6.25130	-7.66094
1070.31250	-9.31159	-16.00454	-7.40929	-7.56342
1074.21875	-6.59682	-13.16057	-6.43695	-4.07753
1078.12500	-8.67716	-13.47077	-5.95657	-4.72512
1082.03125	-12.07793	-16.19115	-6.38637	-8.88532
1085.93750	-11.26748	-15.48081	-4.24848	-7.18075
1089.84375	-8.25972	-10.78585	-3.05380	-3.47604
1093.75000	-3.62787	-6.67100	-4.20475	-1.69404
1097.65625	-3.59403	-6.71169	-2.51533	-4.13633
1101.56250	-6.43592	-8.36666	-5.11396	-6.32169
1105.46875	-5.62000	-4.93896	-8.99273	-3.25203
1109.37500	-6.38228	-5.28545	-8.43989	-2.21423
1113.28125	-8.96554	-7.25028	-7.36156	-4.77706
1117.18750	-9.30551	-6.02285	-3.93972	-5.84234
1121.09375	-2.90670	-3.56418	-1.69638	-5.05829
1125.00000	1.48852	-1.08483	-0.72457	-5.14854
1128.90625	-3.70247	-1.08578	0.62915	-2.19353
1132.81250	-4.88731	-2.41248	-0.19446	0.76405
1136.71875	-2.82563	-5.39273	-0.17800	-2.16835
1140.62500	-2.67969	-9.05323	-1.38477	-1.84727
1144.53125	-0.02094	-9.53836	0.42200	4.85563
1148.43750	4.18889	-8.63222	2.01343	5.02061
1152.34375	6.98518	-5.85754	4.40423	3.63170
1156.25000	8.60953	-4.44965	7.54038	1.66389
1160.15625	11.18949	-2.69371	5.07242	-1.90040
1164.06250	14.02514	-0.46550	3.32136	2.98893
1167.96875	16.86608	-0.49295	4.59976	6.91181
1171.87500	12.93926	-1.06050	5.63371	3.80714
1175.78125	6.07610	-4.43134	7.51140	0.42883
1179.68750	5.27992	-4.65604	9.59886	0.85335
1183.59375	6.55848	-5.28169	9.59209	2.55359
1187.50000	8.52035	-6.85441	7.20159	5.47143
1191.40625	4.49839	-6.14365	3.90499	4.89593
1195.31250	0.06201	-6.97653	3.34462	1.79207
1199.21875	1.77630	-4.89482	2.10177	4.02463
1203.12500	1.75948	-5.04132	1.10616	6.78295
1207.03125	2.09853	-7.13455	1.37977	6.31959
1210.93750	3.80532	-6.18476	0.84118	7.27750
1214.84375	4.27446	-1.22932	1.47259	8.98241
1218.75000	0.29874	1.39557	-1.32243	2.40250
1222.65625	-1.17018	0.66193	-4.80979	-4.05364
1226.56250	0.80562	-0.89841	-4.78579	-3.45586
1230.46875	0.36355	-1.97168	-5.15540	-3.57909
1234.37500	-1.02607	-1.71558	-4.56345	-2.17473
1238.28125	-3.15946	-2.74000	-3.91895	-0.76336
1242.18750	-2.62311	0.54438	-1.71176	1.48860
1246.09375	-1.41867	1.81129	-0.39602	3.12558
1250.00000	-4.23735	3.29430	-1.57777	-2.31653
1253.90625	-5.36251	12.09865	-0.26720	-3.88057
1257.81250	-7.36747	15.70638	0.33339	-2.22535
1261.71875	-8.22655	13.94073	-2.49985	-0.74717
1265.62500	-7.40793	10.29087	-4.37044	-1.75015
1269.53125	-8.40820	7.62445	-2.91299	-4.27372
1273.43750	-12.36328	6.75937	-2.56751	-5.81230
1277.34375	-19.15359	3.51527	-1.88427	-9.61611
1281.25000	-21.18711	0.95036	-3.95966	-9.12681
1285.15625	-18.38045	-0.41544	-5.41083	-9.62926
1289.06250	-17.00683	-0.23483	-5.11167	-10.68665
1292.96875	-17.19820	-0.01120	-6.22894	-9.99476
1296.87500	-15.53077	1.34974	-6.16167	-10.02134
1300.78125	-10.86287	3.46223	-4.89457	-8.31466
1304.68750	-9.36125	3.56056	-5.11530	-6.01029
1308.59375	-5.07478	2.31073	-6.54089	-2.24176
1312.50000	-1.34132	3.87289	-3.19228	-1.53385
1316.40625	-3.33149	3.93991	-2.04345	-3.02060
1320.31250	1.41130	5.74252	-0.08121	-2.71659
1324.21875	5.14078	5.31434	-0.65219	-2.98047
1328.12500	0.77158	-2.43583	-5.16350	-6.36357
1332.03125	-1.47130	-4.14941	-5.94416	-8.65166
1335.93750	-5.91084	-1.63802	-6.47195	-5.52241
1339.84375	-4.89201	-1.49957	-6.45957	-3.99045
1343.75000	-4.69135	-4.81032	-6.92200	-7.38563
1347.65625	-3.92208	-5.98013	-9.41895	-6.15350
1351.56250	-5.91812	-6.74451	-9.64254	-6.38719
1355.46875	-6.33392	-6.95050	-8.98886	-6.23465
1359.37500	-4.76854	-2.97942	-5.91701	-6.46793
1363.28125	-9.44092	-3.43394	-6.19110	-7.12990
1367.18750	-7.08910	-3.05133	-6.79411	-1.63370
1371.09375	-4.22334	-6.31760	-6.21862	-2.41909
1375.00000	-2.57750	-12.82787	-6.38619	-3.94197
1378.90625	0.59589	-16.05206	-6.93572	-4.07802
1382.81250	3.38965	-20.77106	-5.30792	-2.60482
1386.71875	7.77199	-20.61300	-3.71437	3.14657
1390.62500	7.22024	-20.58053	-3.31509	4.83871
1394.53125	8.58797	-24.52932	-0.28838	6.59589
1398.43750	10.01632	-27.85470	0.53607	6.83233
1402.34375	5.60556	-31.43694	-0.24462	4.59341
1406.25000	3.97848	-34.45828	-1.77068	0.91879
1410.15625	3.00752	-38.63343	-0.51328	0.45227
1414.06250	2.98958	-41.26633	-1.18147	0.39657
1417.96875	4.98106	-43.65812	-6.89381	0.09853
1421.87500	10.91987	-46.71853	-8.33238	8.43986
1425.78125	4.08075	-50.60205	-4.16790	4.56394
1429.68750	-20.91322	-54.81121	-5.45127	-18.82907
1433.59375	-27.43247	-52.57554	-7.86383	-26.97764
1437.50000	-32.21748	-51.81033	-9.90729	-31.50859
1441.40625	-45.52406	-50.91105	-13.86510	-43.42525
1445.31250	-55.99866	-50.48275	-15.32118	-54.42535
1449.21875	-65.77407	-49.74553	-16.09473	-60.28561
1453.12500	-73.01250	-49.19773	-16.30965	-67.47750
1457.03125	-81.00973	-49.12077	-14.57025	-79.50627
1460.93750	-85.94243	-48.46041	-15.64512	-84.89760
1464.84375	-81.57882	-47.37350	-18.69577	-82.57448
1468.75000	-75.18803	-41.94140	-17.91715	-79.21916
1472.65625	-67.67768	-41.20945	-18.46074	-75.18190
1476.56250	-57.56813	-40.05375	-20.09808	-68.12515
1480.46875	-50.27881	-36.96751	-19.73011	-60.34756
1484.37500	-46.07131	-36.41943	-17.90611	-56.51515
1488.28125	-40.71715	-36.60546	-16.53763	-51.07802
1492.18750	-40.04750	-39.89147	-15.52314	-47.69041
1496.09375	-43.67223	-39.54824	-14.02007	-46.91125
1500.00000	-43.27390	-35.79472	-13.24298	-47.11165
1503.90625	-38.52516	-34.52737	-14.55524	-45.54903
1507.81250	-33.70248	-30.48096	-15.56042	-41.96762
1511.71875	-34.05503	-25.09055	-15.14646	-42.64139
1515.62500	-32.86179	-23.45673	-15.29219	-42.84864
1519.53125	-29.44671	-16.76247	-13.93081	-39.11772
1523.43750	-27.10621	-9.85483	-11.86039	-34.35717
1527.34375	-27.97439	-9.43264	-12.54532	-34.18121
1531.25000	-31.58465	-9.28666	-9.66575	-34.26901
1535.15625	-31.17063	-4.29578	-7.81328	-29.73873
1539.06250	-30.93532	-2.06008	-8.11411	-28.68287
1542.96875	-29.94087	-1.88210	-5.78970	-24.54109
1546.87500	-23.95537	1.59078	-3.03814	-19.68089
1550.78125	-21.37326	3.10342	-3.50108	-19.77744
1554.68750	-23.68359	7.03316	-3.28202	-15.63651
1558.59375	-25.95822	9.49058	-2.26101	-11.34801
1562.50000	-21.23295	9.53885	-1.17906	-8.43117
1566.40625	-16.82800	12.29107	-3.13547	-10.57230
1570.31250	-19.15597	11.29317	-5.90521	-13.29540
1574.21875	-16.44137	13.73483	-2.11245	-9.00371
1578.12500	-12.88080	19.46920	-0.02030	-7.23379
1582.03125	-10.23778	21.98750	-1.25595	-6.96190
1585.93750	-10.23326	19.47498	-0.32686	-6.86911
1589.84375	-9.64311	20.54417	0.86786	-5.17917
1593.75000	-7.83191	23.45080	-0.28303	-8.23240
1597.65625	-6.99230	22.60478	-3.02582	-12.28645
1601.56250	-5.80495	24.97974	-4.81853	-7.21919
1605.46875	-6.19786	27.19917	-6.27973	-9.38786
1609.37500	-6.15441	27.65908	-6.53281	-11.97654
1613.28125	-6.72299	27.70945	-7.46914	-10.51020
1617.18750	-9.88351	26.92276	-3.64439	-9.56096
1621.09375	-8.72279	26.96441	-0.19232	-6.35945
1625.00000	-5.53631	26.22081	-0.83232	-8.46443
1628.90625	-2.26571	29.84668	-0.28450	-8.32998
1632.81250	-0.22713	35.77327	1.30940	-2.55196
1636.71875	-1.79179	36.01691	2.13176	-2.26095
1640.62500	-6.07802	28.32756	-1.49260	-6.77508
1644.53125	-7.04565	18.57559	-4.52095	-7.72776
1648.43750	-4.44750	17.46753	-1.72070	-6.35392
1652.34375	-2.05419	17.42223	-2.55332	-8.54868
1656.25000	7.22578	18.83063	-6.26701	-3.26376
1660.15625	19.07317	19.78117	-3.49679	6.87157
1664.06250	5.79165	12.33955	1.60198	-3.95329
1667.96875	-9.49934	5.86563	-0.74600	-18.56513
1671.87500	-8.18810	2.47794	-1.72666	-12.80528
1675.78125	-17.06603	-0.89265	2.97158	-12.55722
1679.68750	-31.56211	-6.35507	2.64154	-21.80304
1683.59375	-35.11905	-11.00959	1.02302	-25.34101
1687.50000	-39.60447	-15.40253	1.45306	-28.06440
1691.40625	-46.04443	-20.33249	-0.23187	-26.62552
1695.31250	-40.00496	-18.34451	-2.00107	-22.87979
1699.21875	-32.24715	-15.45666	-0.02047	-22.25927
1703.12500	-32.66740	-18.82637	0.59563	-20.30710
1707.03125	-29.10536	-18.50174	0.86912	-14.32388
1710.93750	-22.56382	-15.53701	2.34522	-8.53119
1714.84375	-19.27461	-11.38718	4.18534	-6.42369
1718.75000	-17.20677	-8.35896	5.01667	-7.76584
1722.65625	-11.02033	-5.46592	5.15557	-8.17837
1726.56250	-6.22429	-2.59371	3.16481	-3.95457
1730.46875	-5.05486	-0.44324	2.79514	2.36885
1734.37500	-4.02703	3.84248	4.19280	1.75838
1738.28125	-4.54880	8.05650	0.80796	-3.68019
1742.18750	-5.62417	8.11783	-0.61117	-2.63715
1746.09375	-4.41985	8.98211	2.71931	0.61144
1750.00000	-5.22384	13.28593	2.74641	2.42207
1753.90625	-9.57238	12.42027	4.45990	0.85796
1757.81250	-9.96552	7.96962	5.06054	-2.32194
1761.71875	-8.00395	7.01013	-0.59312	-4.87305
1765.62500	-8.79684	8.19567	-2.06082	-3.05550
1769.53125	-10.19982	9.15592	-1.00632	0.46498
1773.43750	-6.90198	11.51446	0.14512	-2.68532
1777.34375	-4.82772	14.71743	3.64883	-4.47449
1781.25000	-4.04057	15.37609	1.97645	-2.77642
1785.15625	-3.65147	14.81621	1.73399	1.15333
1789.06250	-2.27771	14.59395	4.04776	2.11066
1792.96875	-2.87190	13.60893	6.15395	-1.62957
1796.87500	-5.63672	10.94067	2.99778	-4.07368
1800.78125	-4.99807	10.63560	1.04144	-3.57569
1804.68750	-3.89929	11.53979	1.22366	0.34041
1808.59375	-0.01571	11.49874	2.21564	1.69138
1812.50000	0.89726	14.67269	5.16137	2.80221
1816.40625	0.11595	17.96322	5.50426	2.12135
1820.31250	2.84413	22.18341	5.45187	0.81358
1824.21875	6.57370	25.38162	9.31301	7.80249
1828.12500	7.44262	26.49597	10.03973	12.47796
1832.03125	9.63195	25.58825	8.45318	11.39864
1835.93750	10.02757	26.89088	9.94002	14.12489
1839.84375	7.82299	26.62648	7.93774	12.83634
1843.75000	11.65008	25.73329	5.86357	10.24699
1847.65625	17.65748	28.59278	6.58995	10.27027
1851.56250	14.04976	26.61962	4.35173	9.63369
1855.46875	10.00769	25.60787	3.39362	8.98027
1859.37500	8.34969	22.72908	2.43616	7.53814
1863.28125	4.48326	16.63353	0.55037	6.47327
1867.18750	2.40294	12.98678	-0.85856	3.91087
1871.09375	4.46296	7.70582	-3.90939	2.72253
1875.00000	5.30310	3.21009	-5.28573	0.39382
1878.90625	0.01518	0.79179	-5.83524	-2.56254
1882.81250	-3.23490	-5.13603	-7.83376	-2.29801
1886.71875	-4.49331	-19.08058	-10.67245	-4.60505
1890.62500	-8.67122	-32.34480	-9.46731	-8.15093
1894.53125	-7.70624	-33.87598	-8.05238	-8.81129
1898.43750	-6.27764	-36.79845	-7.22790	-6.56011
1902.34375	-7.06186	-41.99237	-4.38229	-5.17260
1906.25000	-10.70343	-45.01371	-3.49086	-5.22081
1910.15625	-12.07726	-50.39766	-4.65105	-0.44919
1914.06250	-4.43940	-49.00117	-1.28998	4.73325
1917.96875	-3.65654	-36.08155	-1.76426	-5.23507
1921.87500	-10.20842	-23.42766	-8.03802	-18.24907
1925.78125	-11.80942	-17.64075	-11.52930	-17.69278
1929.68750	-6.18068	-14.19412	-9.99224	-12.07490
1933.59375	-5.85005	-7.92911	-8.37551	-14.98551
1937.50000	-7.81457	-0.71690	-8.40439	-14.68145
1941.40625	-5.40690	4.61479	-5.10957	-8.46639
1945.31250	-5.80833	5.44605	-2.93928	-8.58750
1949.21875	-5.91342	-0.26352	-4.51869	-8.00095
1953.12500	-8.31662	-5.35656	-5.94239	-6.73139
1957.03125	-9.46401	-4.07065	-3.80009	-5.46359
1960.93750	-11.97902	-0.99263	-4.47201	-7.63164
1964.84375	-12.45053	0.90029	-7.52268	-10.54665
1968.75000	-6.46257	0.69145	-8.35578	-7.59446
1972.65625	-3.38440	-2.20288	-7.69060	-4.76601
1976.56250	-1.73629	-5.47925	-6.50747	-6.57382
1980.46875	-4.92308	-8.83982	-5.33367	-8.46656
1984.37500	-6.35658	-5.47121	-5.52436	-5.84299
1988.28125	-4.22574	-0.82200	-5.76765	-5.24107
1992.18750	-5.57061	-0.07869	-9.58828	-6.28562
1996.09375	-5.16590	2.68211	-10.90568	-5.10353
2000.00000	-5.97625	4.82398	-10.12856	-5.70676
2003.90625	-4.45086	6.89720	-9.82906	-4.94998
2007.81250	-5.67201	8.52605	-7.61087	-7.41260
2011.71875	-8.44205	11.49898	-9.61453	-8.08642
2015.62500	-9.66623	15.14746	-10.56611	-7.48780
2019.53125	-9.47453	11.76856	-12.02523	-11.81561
2023.43750	-7.93969	10.61769	-13.17826	-10.68145
2027.34375	-8.80764	13.45756	-12.25144	-6.87915
2031.25000	-7.58265	14.81242	-11.78949	-4.95240
2035.15625	-7.97427	13.75949	-10.74289	-6.06309
2039.06250	-12.17105	11.16008	-9.02910	-9.03653
2042.96875	-13.19101	11.33815	-10.33116	-10.93879
2046.87500	-11.23456	13.60237	-10.40015	-12.92838
2050.78125	-5.42879	17.12978	-7.63966	-9.80140
2054.68750	-7.33589	14.61278	-7.01766	-8.48084
2058.59375	-5.58096	14.65273	-9.62311	0.64294
2062.50000	8.81491	18.73043	-6.92942	17.25952
2066.40625	5.56438	21.88572	-3.24481	8.26868
2070.31250	-2.80732	27.33478	-8.02919	-8.95979
2074.21875	-0.09253	25.34435	-9.87742	-7.48856
2078.12500	5.48286	21.40845	-10.60586	-2.09220
2082.03125	16.58765	20.70344	-9.82690	5.02952
2085.93750	21.02462	22.22021	-8.89789	9.15164
2089.84375	27.25593	24.49824	-11.32961	12.45332
2093.75000	27.85848	21.36096	-13.28654	11.41471
2097.65625	22.65428	18.90329	-12.80593	8.56936
2101.56250	25.45353	17.65189	-10.16656	11.62203
2105.46875	27.47828	18.66258	-5.98684	16.30318
2109.37500	29.93938	21.54016	-5.03114	21.37007
2113.28125	30.98259	19.97890	-4.75881	24.04514
2117.18750	24.59861	12.34243	-4.15760	20.15908
2121.09375	20.52122	-1.31552	-5.54076	14.09311
2125.00000	19.27546	-14.95287	-9.40430	11.18221
2128.90625	15.29335	-20.59425	-9.25950	10.91369
2132.81250	11.28805	-16.27929	-8.06856	6.21554
2136.71875	9.32051	-8.78279	-10.87261	2.88010
2140.62500	9.46657	-5.18993	-10.06485	4.81278
2144.53125	14.94603	-1.24222	-6.64641	5.87464
2148.43750	13.91790	-0.73841	-7.47265	2.01030
2152.34375	10.26733	-5.61878	-10.72287	-0.18447
2156.25000	12.29471	-12.26884	-11.21311	3.08575
2160.15625	11.24848	-16.95917	-11.66644	3.14796
2164.06250	13.27842	-17.14790	-11.80578	3.60521
2167.96875	16.11958	-19.59233	-9.31867	3.09596
2171.87500	11.79000	-25.80036	-7.07591	2.81195
2175.78125	14.19440	-29.17065	-5.19817	7.49239
2179.68750	14.60707	-27.78308	-1.90183	10.33458
2183.59375	9.84175	-30.42281	-2.31145	7.60275
2187.50000	5.35687	-33.20378	-5.50771	6.89433
2191.40625	4.96135	-31.68660	-2.76024	9.94534
2195.31250	6.97196	-35.33935	-2.91752	16.10898
2199.21875	5.46293	-36.48060	-2.54853	17.53573
2203.12500	2.62567	-33.80604	-3.54405	13.44437
2207.03125	1.35297	-31.86946	-2.46446	10.56349
2210.93750	8.29791	-28.50161	2.23512	12.73025
2214.84375	11.99044	-28.78373	2.06070	15.24108
2218.75000	10.02944	-29.78467	1.28045	13.89924
2222.65625	6.14293	-28.90600	0.61359	10.66648
2226.56250	2.88071	-28.04821	-0.97417	12.87590
2230.46875	0.42402	-26.70336	-2.55254	9.93212
2234.37500	-9.02408	-25.64087	-5.58700	-5.18372
2238.28125	-21.23067	-26.66476	-7.76306	-14.65157
2242.18750	-23.51464	-28.61795	-6.76463	-14.81720
2246.09375	-24.72765	-28.55930	-6.65771	-18.82128
2250.00000	-29.56083	-29.49340	-7.43662	-24.26344
2253.90625	-29.87991	-31.97060	-10.15541	-23.40990
2257.81250	-22.21435	-31.18287	-8.34607	-18.93413
2261.71875	-17.43220	-26.09820	-6.74710	-18.26172
2265.62500	-17.41923	-24.10662	-6.60311	-20.07046
2269.53125	-15.59872	-20.32566	-5.95157	-14.13240
2273.43750	-14.31548	-12.32582	-4.39730	-10.83576
2277.34375	-11.83820	-7.10794	-1.29654	-11.41605
2281.25000	-14.27446	-3.62848	-2.56605	-13.74718
2285.15625	-12.27343	2.66182	-4.82314	-14.24960
2289.06250	-4.85567	7.67797	-1.30051	-11.68046
2292.96875	0.59418	10.72255	-0.00017	-6.15335
2296.87500	-1.36467	14.09854	-4.76810	-7.38863
2300.78125	-3.14355	12.18209	-7.12736	-9.30822
2304.68750	2.79047	11.07193	-4.52764	-2.16860
2308.59375	2.64486	10.22529	-3.53561	0.79422
2312.50000	3.55795	10.17611	-5.02218	0.69632
2316.40625	4.79134	10.24348	-3.06745	0.82137
2320.31250	2.68440	8.82294	-3.11993	0.72242
2324.21875	1.17595	8.79797	-3.28809	0.86149
2328.12500	-4.80486	5.48036	-3.36718	-2.52157
2332.03125	-6.24172	-0.26223	-3.74489	-6.01835
2335.93750	-3.83131	-4.19748	-2.66097	-9.33607
2339.84375	-1.60351	-2.04403	-2.24565	-9.41579
2343.75000	-0.99970	-0.92231	-0.29057	-7.57284
2347.65625	-3.45366	-5.31531	-1.57875	-6.74366
2351.56250	-0.61429	-4.06476	-2.20525	-4.15675
2355.46875	-0.62685	-6.28513	1.67182	-2.39249
2359.37500	-6.31391	-16.41634	3.13202	-4.23745
2363.28125	-10.98595	-25.33217	0.84319	-5.70523
2367.18750	-12.26019	-30.18740	-0.16272	-4.23832
2371.09375	-7.37949	-32.24461	0.81568	-2.60603
2375.00000	-7.74799	-35.12830	-2.97828	-8.56107
2378.90625	-9.40936	-37.54639	-3.93071	-12.72622
2382.81250	-11.45046	-41.45926	-3.10874	-12.46162
2386.71875	-10.69405	-45.73323	-1.11221	-10.33640
2390.62500	-7.21626	-48.92398	2.51050	-7.03245
2394.53125	-8.26594	-51.66378	3.52254	-6.88707
2398.43750	-3.61402	-49.34798	2.33227	-6.24774
2402.34375	1.24275	-45.67727	0.74565	-4.86035
2406.25000	2.43622	-44.26618	0.83120	-0.47645
2410.15625	4.28575	-45.62067	1.28268	0.66866
2414.06250	5.47664	-48.65627	-1.40023	-2.20781
2417.96875	5.05052	-47.42146	-1.47162	1.52329
2421.87500	5.75122	-44.03480	2.32775	6.23804
2425.78125	10.19420	-40.26238	4.07458	7.60010
2429.68750	10.98782	-38.42731	4.40281	4.35346
2433.59375	12.93021	-37.80313	4.40775	2.65166
2437.50000	11.77162	-37.84354	2.76714	2.55281
2441.40625	5.31498	-40.57043	0.01796	-1.30543
2445.31250	6.92834	-38.93319	-0.63228	-5.45581
2449.21875	8.03214	-36.58413	1.01165	-8.09278
2453.12500	6.43477	-37.24492	-1.62096	-7.22624
2457.03125	10.52559	-37.57077	-2.70215	0.89138
2460.93750	8.01054	-38.92495	-1.35947	5.17022
2464.84375	-4.54887	-42.67311	1.23088	-2.58000
2468.75000	-8.63412	-44.89663	2.00946	-6.07463
2472.65625	-1.12364	-45.37325	0.25705	-1.23151
2476.56250	-2.29598	-45.42618	0.23139	-1.42763
2480.46875	-4.67688	-42.74273	4.22569	0.30595
2484.37500	-0.46928	-43.00037	5.64679	0.91488
2488.28125	0.85583	-43.58919	0.97132	-4.93003
2492.18750	1.12268	-43.24876	-2.04348	-7.58634
2496.09375	-0.08429	-44.11423	-1.74920	-6.00133
2500.00000	0.31420	-42.37527	-2.98676	-2.97827
2503.90625	1.43666	-42.31662	-3.49318	-3.83320
2507.81250	-3.41079	-46.32864	-2.08078	-4.28117
2511.71875	-5.37495	-47.78784	-0.45810	-2.13444
2515.62500	-6.19625	-45.75097	1.41080	-1.53594
2519.53125	-4.79572	-42.68294	1.96631	-1.43154
2523.43750	0.36536	-40.20745	0.81325	-1.50626
2527.34375	2.31783	-36.56175	-1.08048	-0.12163
2531.25000	2.73700	-34.40099	-1.82742	1.40224
2535.15625	1.13672	-35.85694	-1.98967	0.69452
2539.06250	2.17823	-32.00933	-3.09637	1.34753
2542.96875	3.17305	-28.20485	-3.18962	2.26597
2546.87500	-0.10843	-29.96989	-1.24396	-3.34994
2550.78125	-1.55520	-30.06876	-2.10980	-8.68440
2554.68750	-0.23863	-30.16811	-3.09954	-6.55787
2558.59375	-0.09512	-30.53098	-2.48150	-3.47785
2562.50000	-2.62200	-32.90011	-3.01130	-7.41048
2566.40625	-1.03696	-36.59458	-3.35598	-7.13380
2570.31250	1.06780	-35.17472	-4.91700	-5.02145
2574.21875	2.97706	-32.32990	-6.76518	-0.32665
2578.12500	4.52345	-30.22168	-3.86723	1.84639
2582.03125	-3.30927	-28.50907	1.74684	-3.92549
2585.93750	-5.72187	-25.78335	1.86996	-3.83253
2589.84375	-0.69912	-21.89355	1.45300	-0.93360
2593.75000	-0.49927	-20.59837	1.91377	1.25147
2597.65625	-0.46506	-18.62366	1.18563	2.83860
2601.56250	-2.90374	-13.83094	0.60164	1.45925
2605.46875	-4.90803	-9.19370	1.15510	0.90251
2609.37500	-6.47592	-5.91301	0.90208	0.32869
2613.28125	-8.65586	-6.26533	1.57748	1.79523
2617.18750	-9.80142	-7.05181	-1.04465	-0.88170
2621.09375	-8.23751	-6.20401	-3.63651	-6.94744
2625.00000	-9.48297	-5.33569	-1.85893	-11.87290
2628.90625	-11.45025	-6.54470	-4.53468	-16.57354
2632.81250	-5.78511	-6.25888	-6.16422	-14.42190
2636.71875	-0.90274	-2.79146	-2.52140	-5.26639
2640.62500	-4.38287	-4.43663	-0.90774	-3.33368
2644.53125	-5.35031	-7.33854	-2.32446	-5.09237
2648.43750	-3.96074	-8.04335	-4.35950	-6.13614
2652.34375	-3.58185	-6.07369	-3.58043	-7.52517
2656.25000	-5.98665	-6.27672	-2.45904	-7.07546
2660.15625	-11.86807	-9.75810	-6.94163	-6.20753
2664.06250	-13.06157	-9.14082	-8.28980	-6.95916
2667.96875	-9.41451	-7.95876	-6.60852	-7.87138
2671.87500	-8.10300	-8.12268	-5.97747	-10.17013
2675.78125	-12.14548	-7.86649	-7.32321	-12.74251
2679.68750	-15.76204	-8.49343	-8.86212	-12.31788
2683.59375	-13.67757	-6.70072	-8.86876	-11.42334
2687.50000	-10.50685	-5.04935	-4.40940	-9.71428
2691.40625	-8.88778	-5.94963	-1.66197	-7.87215
2695.31250	-10.10061	-7.58760	-4.63981	-9.76718
2699.21875	-9.59510	-7.11697	-6.68848	-13.17564
2703.12500	-6.79148	-6.85990	-6.47526	-13.64079
2707.03125	-3.63202	-4.11737	-3.38120	-5.64268
2710.93750	-3.13406	-2.76404	-1.90511	-5.08785
2714.84375	-2.26209	-0.62842	-2.07962	-5.39767
2718.75000	-0.59679	2.80303	-2.85995	-2.30747
2722.65625	-0.45403	6.09940	-2.72103	-3.52562
2726.56250	-0.08994	13.00133	0.12338	-2.92805
2730.46875	-2.54661	13.94342	-0.64921	-2.24550
2734.37500	-5.95085	13.39440	-2.47500	-0.43840
2738.28125	-6.06952	16.80296	-3.44227	-2.65364
2742.18750	-7.54767	19.68514	-3.24980	-5.23698
2746.09375	-7.55187	20.14696	-1.93411	-1.58545
2750.00000	-5.93816	18.81022	-1.90712	-0.98367
2753.90625	-7.46606	19.15379	-1.40241	-1.74197
2757.81250	-7.05327	17.52419	1.61578	0.31614
2761.71875	-1.86821	16.56512	0.39432	5.01769
2765.62500	5.80046	18.15397	0.13548	10.86446
2769.53125	7.21804	14.68230	1.59296	7.13209
2773.43750	4.06905	13.81791	-2.49373	-2.46509
2777.34375	2.11410	16.61839	-5.43685	-3.85134
2781.25000	2.90141	18.48633	-4.69166	-2.55623
2785.15625	4.09658	17.92692	-4.12826	-3.05875
2789.06250	5.06754	16.89923	-3.42614	-1.69849
2792.96875	8.50272	16.31752	-1.72285	1.81396
2796.87500	8.96150	10.82919	-0.84962	5.01094
2800.78125	6.77970	6.89825	-0.38829	6.71779
2804.68750	7.07282	4.98238	-0.20605	6.60472
2808.59375	5.71852	1.31545	0.38304	7.14995
2812.50000	5.82583	2.07240	3.73166	9.87267
2816.40625	9.07401	3.75169	6.49217	10.40068
2820.31250	3.34081	6.76363	6.03681	7.88424
2824.21875	-6.62912	7.94764	3.85396	3.18817
2828.12500	-10.99811	8.25655	0.95424	-2.20953
2832.03125	-11.62907	9.36396	-0.63227	-4.09463
2835.93750	-5.99521	10.26415	-0.35425	-1.36844
2839.84375	2.27652	15.23831	0.86686	1.37224
2843.75000	0.46268	16.36022	1.61304	-1.62009
2847.65625	-2.79718	18.01135	4.35407	0.01477
2851.56250	-4.79306	20.06802	5.74215	0.58680
2855.46875	-1.98524	21.07141	3.97812	7.18602
2859.37500	2.80385	23.02842	5.43818	11.78770
2863.28125	1.75814	21.36563	3.55224	8.30506
2867.18750	1.28966	20.53996	1.74039	5.33955
2871.09375	1.73810	22.51231	2.71870	3.34523
2875.00000	4.59291	23.25530	0.93937	3.83690
2878.90625	6.96079	24.86677	-0.81902	2.08908
2882.81250	7.74013	26.19227	0.00289	0.74173
2886.71875	7.28769	25.14203	-2.03000	-3.17724
2890.62500	5.93039	24.77207	-3.24249	-7.12618
2894.53125	4.88083	26.46475	-1.82752	-5.36905
2898.43750	5.90653	23.54283	-2.21189	-4.72971
2902.34375	3.51066	22.37870	-3.39570	-5.35687
2906.25000	-1.74262	22.98417	-2.10133	-9.03150
2910.15625	-3.11640	21.22712	1.17062	-6.27456
2914.06250	-1.52247	23.42996	4.12871	0.11663
2917.96875	-0.33667	24.66508	2.84862	-3.00194
2921.87500	-2.85930	22.81404	1.40992	-1.51048
2925.78125	-6.07184	22.96037	1.14216	4.28395
2929.68750	-5.27805	19.15471	1.87342	4.26087
2933.59375	-4.54431	17.36173	3.08720	5.37968
2937.50000	-5.29973	14.90417	0.64086	8.50442
2941.40625	-6.11521	12.98368	0.30942	8.67565
2945.31250	-4.90462	13.41257	3.28562	5.73427
2949.21875	-5.41236	12.94166	2.51206	4.30633
2953.12500	-6.60651	11.47555	2.29717	3.15838
2957.03125	-7.75371	6.31509	1.21600	1.20280
2960.93750	-10.26858	4.96137	0.94697	-0.15932
2964.84375	-11.54580	8.06360	3.13434	-1.86559
2968.75000	-9.98997	11.48162	5.52455	4.31010
2972.65625	-5.29993	13.42305	6.59263	7.54138
2976.56250	-5.66635	10.95313	5.35810	5.33061
2980.46875	-8.85307	7.99606	2.09957	4.24359
2984.37500	-5.85412	10.15652	0.70006	0.82317
2988.28125	-1.70842	13.59749	5.69480	1.02214
2992.18750	-2.24727	13.13255	7.11219	0.38039
2996.09375	-3.85718	10.65579	2.57126	-0.85519
