 	TP9	AF7	AF8	TP10	
-1000.00000	0.46249	-3.66234	5.32010	2.51288
-996.09375	5.29765	-7.29169	-0.72366	0.49742
-992.18750	0.05958	-1.25067	-13.61719	-2.32386
-988.28125	4.08881	11.64018	-14.42294	3.31634
-984.37500	2.47705	8.41379	0.08270	0.89796
-980.46875	4.49175	-1.66247	3.70926	-3.53516
-976.56250	12.95333	-4.08292	7.73871	-5.14779
-972.65625	2.47719	-1.26531	12.17113	-0.71638
-968.75000	-6.38716	4.77563	7.73908	-3.53766
-964.84375	-6.79008	8.80186	1.29231	-9.98535
-960.93750	-9.61060	11.21650	-1.93100	-10.38906
-957.03125	-4.37258	-0.06846	-1.52778	-3.53997
-953.12500	5.70055	-11.75639	6.12820	1.29438
-949.21875	4.08878	-7.32711	16.60453	2.50236
-945.31250	1.67117	-4.91246	8.14323	2.09857
-941.40625	6.50634	-0.48303	-8.37671	1.69486
-937.50000	9.72981	10.39323	-1.12385	3.70873
-933.59375	10.13278	14.01665	13.78464	2.09619
-929.68750	12.14744	11.99911	21.03758	9.34814
-925.78125	6.50636	1.52000	12.57626	14.98842
-921.87500	0.86536	-0.09459	-3.13778	8.13787
-917.96875	1.26828	10.37866	-0.31696	7.73414
-914.06250	-0.34346	3.92875	6.93601	6.52449
-910.15625	0.46230	-2.11814	9.35377	5.31486
-906.25000	6.50619	0.69949	5.72761	4.10527
-902.34375	10.13258	3.11428	-7.16607	0.47806
-898.43750	5.29731	-3.33545	-3.53956	-3.95507
-894.53125	3.68561	-2.12950	10.56314	-8.79104
-890.62500	1.26812	5.12043	11.77216	-7.98590
-886.71875	-1.95519	1.49121	7.74309	-8.79246
-882.81250	4.08887	3.50297	9.75795	-5.97271
-878.90625	10.13284	6.32060	8.54937	4.90566
-875.00000	14.16216	14.77921	1.29689	6.91950
-871.09375	8.92403	13.16465	-2.32918	-2.75168
-867.18750	-1.14925	2.28255	1.29742	-2.34958
-863.28125	-0.34344	-3.76430	8.95336	4.49937
-859.37500	-0.74649	-3.76714	16.60922	2.08087
-855.46875	3.68568	0.66228	10.16259	-3.15812
-851.56250	5.29730	-10.21971	1.70127	-2.35304
-847.65625	-2.76134	-12.64011	3.71617	0.06375
-843.75000	-7.19353	-4.18146	4.92521	1.67476
-839.84375	-2.76131	-3.37855	16.20749	11.34423
-835.93750	16.57943	2.66250	22.25171	21.41672
-832.03125	19.39991	13.13594	0.09076	6.50742
-828.12500	4.08849	13.53620	-7.96767	-9.61065
-824.21875	2.87962	-1.37503	0.89700	-7.99982
-820.31250	5.29715	-2.98956	2.91185	-3.56839
-816.40625	5.70009	5.46916	2.50911	7.30984
-812.50000	5.70001	5.46637	4.12100	9.72659
-808.59375	7.71459	3.04594	5.73296	-0.75045
-804.68750	3.68528	-0.98618	3.31562	2.06917
-800.78125	3.28228	-0.98891	4.92764	1.26246
-796.87500	8.52034	-6.22977	6.53956	-4.37934
-792.96875	6.10281	-13.08239	-0.71292	-3.57427
-789.06250	-0.74703	-9.45881	-2.32437	-3.17218
-785.15625	-2.76168	1.41740	6.13740	0.45339
-781.25000	3.68526	10.27908	7.34638	2.46726
-777.34375	4.08828	3.02361	5.73487	5.68994
-773.43750	-1.95572	-3.02308	10.97314	3.27148
-769.53125	2.47650	-1.81710	8.95877	0.45011
-765.62500	5.29699	-7.05789	4.92977	-1.96828
-761.71875	-0.34396	2.60978	4.52710	-3.58071
-757.81250	-2.76151	8.65094	10.16846	1.25367
-753.90625	-6.38782	9.05114	10.57167	-3.58228
-750.00000	-3.97026	8.64545	6.94559	-2.77723
-746.09375	0.86499	3.40459	9.76634	3.26600
-742.18750	-0.34383	4.20775	15.40764	3.26528
-738.28125	0.05908	2.99625	15.81077	4.07038
-734.37500	-1.95564	-1.43872	4.93193	2.45794
-730.46875	-3.56737	-4.66493	2.51465	4.47180
-726.56250	-2.35860	-4.66772	6.14139	1.24755
-722.65625	0.05895	1.37347	-0.70823	3.26141
-718.75000	3.28229	-3.46433	-9.57248	6.48409
-714.84375	-1.14994	-0.64651	-3.52832	0.84229
-710.93750	-7.99982	7.40939	6.94813	-8.42591
-707.03125	-10.01449	5.39210	12.18651	-10.84428
-703.12500	-7.19394	2.16602	15.41024	-4.80113
-699.21875	-3.97050	-8.31276	13.39584	-6.81658
-695.31250	-10.01440	-7.50960	16.61945	-10.04085
-691.40625	-5.58217	4.57559	16.61970	-11.65339
-687.50000	-2.35871	0.94659	8.15851	-7.62496
-683.59375	-5.17917	1.34683	-2.72035	-4.80529
-679.68750	3.68534	9.40274	-0.70542	0.02908
-675.78125	3.28244	-1.88201	6.95058	1.23709
-671.87500	-1.55269	-0.67595	4.13035	-0.37542
-667.96875	-2.35856	8.18587	2.11600	-4.00266
-664.06250	0.86482	8.18326	10.57785	0.83173
-660.15625	0.05896	7.37479	17.42805	0.42796
-656.25000	-3.97038	0.11939	11.78731	-9.64615
-652.34375	-2.35866	-7.53897	13.39931	-4.81192
-648.43750	-7.19385	-4.31818	12.59361	-3.20111
-644.53125	-5.98509	-1.09733	9.37040	-4.00777
-640.62500	-4.77628	-1.90585	7.75896	0.82658
-636.71875	-8.40258	0.10618	4.93870	5.66084
-632.81250	-7.99961	3.32701	8.16242	-0.78694
-628.90625	-5.98492	-5.54009	15.41543	-2.80248
-625.00000	-4.77610	-11.98965	4.13359	-2.80335
-621.09375	3.28255	5.33370	-7.55104	-1.19240
-617.18750	3.68561	7.34576	3.32832	0.82147
-613.28125	-3.97002	0.89638	19.04293	-0.38811
-609.37500	-5.58167	2.50547	15.81986	0.81991
-605.46875	-1.95526	3.30863	1.71768	-4.82192
-601.56250	2.07421	4.51477	2.12092	-6.43442
-597.65625	5.29770	-0.32294	10.98573	4.84677
-593.75000	2.47723	1.28617	13.00066	1.62246
-589.84375	-12.02820	4.50707	16.62722	-8.85458
-585.93750	-6.38703	1.68404	20.25381	1.62078
-582.03125	6.10395	-3.55662	22.26871	8.46970
-578.12500	-1.95454	1.27603	20.25440	2.02199
-574.21875	-3.96907	8.12336	14.61374	0.81243
-570.31250	1.67203	6.50898	10.18190	-1.20312
-566.40625	-0.34260	1.67122	9.77925	4.03404
-562.50000	-0.34254	-2.36070	4.13852	9.67430
-558.59375	7.71609	-3.16912	4.94469	9.27048
-554.68750	11.34248	2.06641	11.39180	11.28421
-550.78125	7.31324	-3.98004	4.54232	2.41890
-546.87500	12.95429	-13.25006	5.75139	-2.01422
-542.96875	10.53674	-5.99993	7.36336	-4.02972
-539.06250	5.70165	-3.98781	3.33438	-6.04522
-535.15625	6.50751	2.05362	9.37861	-4.03144
-531.25000	8.11932	14.54199	12.19947	2.41460
-527.34375	8.92526	7.68971	2.12646	2.41374
-523.43750	4.09020	-5.20661	2.93271	-2.82523
-519.53125	-1.55078	-4.00034	8.97705	2.41202
-515.62500	-5.17711	-1.58526	8.17158	7.64930
-511.71875	-2.75958	-1.99075	5.35135	5.63380
-507.81250	0.06109	-2.39619	6.96339	4.82714
-503.90625	4.89637	2.83940	14.21632	5.63217
-500.00000	6.10528	10.49250	14.61945	3.61667
-496.09375	-1.14740	6.05777	10.59049	-0.41351
-492.18750	-3.56498	-4.01804	9.38206	-2.02620
-488.28125	0.46435	-10.46744	10.18833	3.61396
-484.37500	6.50835	-3.21707	8.97986	3.21015
-480.46875	1.27031	7.25664	2.93623	0.38879
-476.56250	-6.78817	8.06011	-3.10747	1.59674
-472.65625	2.07645	2.41658	-1.89831	1.19299
-468.75000	10.53801	-0.40640	8.17536	5.22147
-464.84375	2.07657	-6.85576	4.14629	2.80306
-460.93750	-2.35564	-7.26123	2.53488	-6.06232
-457.03125	-6.38488	-0.41391	10.59382	-5.25732
-453.12500	-9.60827	2.00114	17.84691	-1.22882
-449.21875	-4.77303	-1.62766	24.69707	4.41132
-445.31250	-6.78756	-5.25649	15.83293	4.41051
-441.40625	-3.96696	2.39681	4.14832	2.39510
-437.50000	1.67414	4.81195	5.35749	-1.63495
-433.59375	0.46540	5.61532	0.52272	-4.05336
-429.68750	-0.34034	4.80703	-8.74437	0.78100
-425.78125	-0.34026	0.77525	5.76143	2.39192
-421.87500	1.67446	-4.06238	14.62623	3.59992
-417.96875	7.71848	-11.72036	4.55332	4.80787
-414.06250	13.35962	-7.69344	0.52439	2.38938
-410.15625	9.33041	-4.47239	1.73356	0.77679
-406.25000	0.46603	-10.11579	4.15144	4.80524
-402.34375	-0.33975	-4.07423	0.12245	3.19263
-398.43750	2.88383	9.21999	-2.69774	-3.65805
-394.53125	-0.33951	13.64972	5.36120	-6.47941
-390.62500	0.06344	-2.87295	8.58503	-8.49488
-386.71875	6.10739	-8.91936	6.97374	-7.28696
-382.81250	11.34548	7.59838	8.98877	-2.04971
-378.90625	5.30151	11.62530	3.34803	-0.03591
-375.00000	0.06358	10.81708	-9.14254	-0.03678
-371.09375	9.33107	1.95024	-7.53046	-0.84353
-367.18750	12.95745	-12.55759	7.78122	1.17023
-363.28125	16.98678	-14.97746	10.19915	7.61623
-359.37500	20.61323	-3.29484	7.78187	10.03292
-355.46875	14.97223	15.64044	8.18518	9.22610
-351.56250	6.51072	15.63809	0.12692	0.36080
-347.65625	0.06391	9.59174	-7.12543	-6.48985
-343.75000	-4.77127	5.15709	-1.88691	0.35905
-339.84375	-2.35366	1.52839	6.97800	9.22260
-335.93750	-0.33900	-0.48861	6.17251	8.01298
-332.03125	1.27267	5.95591	5.76990	-0.44947
-328.12500	4.89905	13.60909	3.75564	-3.27095
-324.21875	4.89901	0.30996	-0.27330	1.16036
-320.31250	11.74881	-2.51285	1.74168	2.36830
-316.40625	10.13713	-1.70931	4.56247	-0.45300
-312.50000	4.89898	-15.00837	4.56276	8.00765
-308.59375	8.92832	-5.74333	3.35433	13.64785
-304.68750	5.30201	17.22129	5.77236	5.18553
-300.78125	3.28749	18.83055	8.99620	1.15538
-296.87500	3.69062	8.75495	8.99658	1.96043
-292.96875	6.10848	10.36431	4.96765	-1.26368
-289.06250	6.91463	14.39125	7.38552	3.16785
-285.15625	6.10908	12.37422	1.34194	11.22585
-281.25000	8.12411	2.29861	-8.32795	3.97262
-277.34375	3.69234	-14.22390	-5.10418	-1.66877
-273.43750	-0.33641	-6.97348	-2.68617	-3.28092
-269.53125	8.93157	13.17075	4.97001	5.58326
-265.62500	4.90291	6.31853	5.77636	10.41815
-261.71875	-6.78143	-4.16003	6.17981	1.95637
-257.81250	0.87495	-0.93896	8.19493	0.34448
-253.90625	5.71083	1.07327	3.36014	2.76183
-250.00000	1.68220	8.72654	1.74890	-1.26772
-246.09375	-0.33187	8.72417	0.94353	-6.90903
-242.18750	1.68336	9.52772	6.98795	-0.86539
-238.28125	1.28091	9.52537	8.19722	-4.49208
-234.37500	-0.33030	-5.78835	5.37702	-7.31306
-230.46875	4.10246	-14.65523	13.03308	1.95388
-226.56250	1.68529	-10.22529	7.79538	3.56516
-222.65625	-4.35829	-9.82462	-6.30673	3.16169
-218.75000	-6.77559	-8.61817	-3.48584	7.99630
-214.84375	-10.40168	9.51140	-0.66496	3.16044
-210.93750	-8.78978	24.01474	1.75306	1.54802
-207.03125	-3.95449	15.95400	4.97688	7.99410
-203.12500	3.29837	4.66974	0.54493	3.15805
-199.21875	0.47798	5.07044	0.14231	-2.08092
-195.31250	-7.58065	2.65070	3.36608	-3.69360
-191.40625	-4.35734	-2.99257	6.18693	0.33467
-187.50000	-2.34275	-5.41234	8.20184	0.33364
-183.59375	-1.13403	0.62955	6.99336	-7.72599
-179.68750	11.35673	3.04495	6.18792	5.16675
-175.78125	16.19179	3.44570	6.18832	16.85077
-171.87500	3.29779	9.89037	2.96522	6.37350
-167.96875	-10.40192	5.45590	0.14501	0.32845
-164.06250	-7.58148	-0.59027	4.57762	0.32737
-160.15625	0.47697	-0.59249	6.59266	1.53510
-156.25000	-1.13494	-9.86210	5.38426	5.96623
-152.34375	0.87950	-11.87887	6.59345	4.75633
-148.43750	1.28228	3.43040	4.57919	1.12892
-144.53125	2.08817	4.23413	-1.86726	1.53093
-140.62500	3.69985	-9.06472	0.55076	1.12705
-136.71875	-1.94123	-15.91663	-0.25471	-0.88855
-132.81250	-3.14996	-5.03964	-1.46310	1.12508
-128.90625	-1.13530	9.06077	5.38711	5.15342
-125.00000	-3.95588	8.65572	2.56702	3.13786
-121.09375	-5.16464	9.86236	-1.86482	2.73405
-117.18750	-1.13531	13.88952	2.16490	3.53905
-113.28125	0.07353	3.81420	4.98584	-0.08822
-109.37500	2.49112	-6.66406	7.80672	2.32849
-105.46875	6.11758	-4.24861	6.19545	6.35692
-101.56250	9.74399	-6.26548	-4.28032	6.35610
-97.65625	11.35580	-6.67063	-4.27990	5.54941
-93.75000	5.71477	7.83278	0.55567	3.53390
-89.84375	1.28250	11.45719	-4.27910	-0.49627
-85.93750	-3.14972	5.00834	-2.26410	-4.52647
-82.03125	-7.98494	1.78286	7.00371	-5.73614
-78.12500	-8.38784	3.39253	9.42171	-5.33409
-74.21875	-8.79075	5.40508	2.57234	-1.30557
-70.31250	0.87969	-4.26736	3.78158	1.51408
-66.40625	6.11778	-5.88110	3.78193	-2.51616
-62.50000	-1.94092	2.57845	-2.66462	-4.53182
-58.59375	-3.55264	-1.04993	2.17095	1.51115
-54.68750	0.87958	-3.06657	3.38018	4.73364
-50.78125	-4.35849	0.96070	-3.46919	-6.54935
-46.87500	-5.16430	-3.87649	2.57514	-6.55024
-42.96875	-1.94087	-3.87849	10.23121	4.73089
-39.06250	-11.61117	0.95468	5.39641	-4.94041
-35.15625	-13.22296	8.60842	2.97928	-11.38821
-31.25000	-9.99952	11.42695	7.00895	-4.13630
-27.34375	-7.58199	0.94878	6.60644	3.92141
-23.43750	-3.55275	-9.52931	0.96597	-0.10880
-19.53125	0.47654	-11.54581	3.38400	-7.36243
-15.62500	3.29703	-14.77115	4.59322	-1.72228
-11.71875	4.90888	-13.96719	-1.04739	1.90315
-7.81250	11.75880	5.37149	0.16174	4.72280
-3.90625	6.92372	17.05448	0.16219	6.73654
0.00000	0.87981	15.84365	0.16262	1.09453
3.90625	7.72966	15.84168	4.99825	-4.14451
7.81250	-1.13479	8.58692	0.16350	-7.77174
11.71875	-9.99931	-4.30888	-1.85067	-7.36970
15.62500	-6.37291	-9.54876	-1.85022	-5.75883
19.53125	-1.94070	-5.11824	1.37368	-8.58026
23.43750	1.68569	0.92384	7.01519	-8.17833
27.34375	2.49154	2.53357	0.97170	-2.94120
31.25000	2.89451	-0.69184	-6.28061	0.68425
35.15625	0.47692	-1.49958	-4.26548	2.69801
39.06250	6.11802	0.91595	-0.63862	6.32345
42.96875	13.37080	-1.10074	3.39110	4.71080
46.87500	4.90933	6.15001	8.22667	3.50109
50.78125	-2.74626	12.59499	7.82415	4.70897
54.68750	-2.74616	8.96667	5.00412	1.88752
58.59375	3.29784	2.92079	3.39287	7.12474
62.50000	6.11839	-0.30446	2.18459	10.75022
66.40625	8.93884	0.09685	2.99093	4.70532
70.31250	5.31238	1.30397	10.24408	1.07794
74.21875	0.88017	4.92847	7.02106	-2.14645
78.12500	8.93872	-0.31154	5.00685	7.11999
82.03125	5.71524	-5.14850	5.00732	9.93958
85.93750	-2.34332	2.90829	-4.25960	-2.55216
89.84375	0.07435	0.89178	0.57608	-2.55309
93.75000	-2.74619	-1.52751	7.02350	-0.53941
97.65625	-0.73147	5.72363	10.24745	4.29478
101.56250	0.47744	0.08094	7.83035	5.50265
105.46875	-5.96943	-9.99404	0.17509	-6.18329
109.37500	-3.55175	-5.96647	-3.85371	-11.42231
113.28125	-1.93991	-4.35653	-9.09125	-6.18509
117.18750	-1.53690	-7.58179	-3.85266	2.27549
121.09375	-0.73104	-5.16594	2.59471	3.08034
125.00000	-7.17781	-1.54125	5.41575	-0.54691
128.90625	-11.61002	-3.15479	-0.62768	-0.54781
132.81250	-1.53678	5.30494	-1.43305	5.09230
136.71875	4.50721	9.73543	5.82014	8.71785
140.62500	0.88093	3.28676	1.79127	6.70227
144.53125	-3.14837	2.88197	-2.23760	-0.95448
148.43750	-0.73084	5.70067	0.18034	-4.17893
152.34375	0.47797	6.10169	-0.22219	-3.77694
156.25000	2.49263	5.29391	4.21039	0.65435
160.15625	0.88087	3.27732	6.62845	3.07094
164.06250	-4.76024	1.66371	2.59958	-2.16810
167.96875	-6.77485	1.25906	5.42051	-1.36309
171.87500	-6.37186	-4.78654	8.24152	3.06807
175.78125	-6.77490	-12.44395	6.22731	-2.57404
179.68750	-4.76033	-10.43127	3.00435	-4.99275
183.59375	-0.32809	-4.79199	5.42245	-1.77039
187.50000	-4.76028	1.25032	4.61707	-0.96555
191.40625	-2.34262	2.86021	1.39404	0.64525
195.31250	2.49249	6.08186	6.63260	1.04715
199.21875	-5.16320	8.09477	0.18616	-4.19185
203.12500	-1.13392	5.27254	-6.66314	-5.40164
207.03125	2.08943	2.45022	-3.03633	-5.40271
210.93750	-0.73120	-3.59555	-0.61827	-1.37427
214.84375	6.92447	-4.80599	-0.21487	10.30977
218.75000	9.34197	3.65406	1.39724	10.71163
222.65625	0.47741	-0.37703	4.21824	2.24894
226.56250	-3.95487	-6.02006	3.81582	1.44199
230.46875	-0.32858	4.85679	1.80148	6.27596
234.37500	-1.53749	9.68974	-4.64509	3.05143
238.28125	-2.34336	5.25530	-4.64456	-6.21683
242.18750	-2.74634	0.41790	9.05561	-3.80011
246.09375	-2.74634	-0.79322	12.27954	1.83989
250.00000	-5.16386	-5.22778	12.27999	3.04768
253.90625	-6.77562	-2.00654	9.45979	7.07594
257.81250	0.07429	-3.21765	7.04256	12.31301
261.71875	-3.14913	-11.68181	7.04289	5.05921
265.62500	-6.77562	-11.28179	1.40216	-3.40340
269.53125	-7.17871	1.60882	-3.83560	-8.23964
273.43750	-1.94081	16.11117	-0.61180	-11.06123
277.34375	4.90893	16.91400	1.40318	-6.22725
281.25000	6.11752	11.67286	6.23870	-1.39329
285.15625	1.28209	6.83477	8.65656	-1.79739
289.06250	5.31123	5.22060	8.65687	0.61902
292.96875	9.74335	-0.01960	11.07478	5.45285
296.87500	6.51982	-0.02136	4.62815	3.83985
300.78125	7.32569	4.40941	-5.44486	1.01818
304.68750	6.11684	3.60222	-5.44461	-2.20640
308.59375	1.68446	-7.68107	3.01719	-5.43094
312.50000	5.31070	-24.20237	5.43503	2.62668
316.40625	12.56336	-14.13042	3.42067	6.25190
320.31250	7.32518	8.43218	-1.41431	2.62433
324.21875	5.71328	8.43059	-1.41409	1.81717
328.12500	3.69849	1.17602	5.43602	-2.21339
332.03125	2.08668	7.21789	8.25692	-3.82628
335.93750	0.47483	9.23014	5.43672	-7.45376
339.84375	-0.33118	-5.68093	5.43701	-9.46954
343.75000	-5.16643	-12.13040	3.01972	-6.24724
347.65625	-10.00173	0.76057	1.00542	-3.42787
351.56250	-5.16672	0.35485	2.61753	-0.60853
355.46875	-2.74933	-10.52722	5.43840	8.25476
359.37500	-4.76407	-13.75386	11.48267	6.23902
363.28125	-12.82280	-9.72780	10.67714	-10.68513
367.18750	-17.65807	-8.52214	4.23054	-13.90960
371.09375	-12.01723	3.96531	-1.41018	-8.26984
375.00000	-3.95879	12.82615	-3.02165	-3.43594
378.90625	-4.36178	7.98746	-1.40952	-2.22825
382.81250	-3.55605	7.17813	4.23190	-4.24392
386.71875	-0.33270	1.53328	9.47044	-0.21555
390.62500	-1.94452	-0.48520	9.87377	-3.84285
394.53125	0.07012	2.73462	13.09753	-5.05268
398.43750	1.68172	-6.93904	6.24810	-2.63621
402.34375	-6.37698	-11.37465	-3.42182	-4.24914
406.25000	-8.39167	-6.14008	-6.24190	-0.62385
410.15625	1.27859	-3.72604	1.41408	5.01608
414.06250	2.48727	4.73202	9.07012	3.40333
417.96875	2.08427	14.39914	9.87628	1.38759
421.87500	2.48705	13.18704	13.10005	2.59531
425.78125	1.27808	1.90155	14.71215	4.60889
429.68750	8.12773	-4.54880	13.50388	10.65175
433.59375	3.29234	-2.53758	9.87794	5.41258
437.50000	-3.96047	-2.54103	9.47538	-4.66173
441.40625	1.68050	-2.14149	17.13145	0.57529
445.31250	-1.54311	-6.17400	17.13184	2.99171
449.21875	-3.96092	-6.58003	9.07370	0.16998
453.12500	-4.36408	1.87837	9.07414	6.61564
457.03125	-3.15554	-3.76572	14.71551	9.03196
460.93750	-1.14125	-5.78331	9.07489	-0.23676
464.84375	-1.54463	3.48130	1.41952	-3.46167
468.75000	2.48434	6.29897	1.01695	-3.46308
472.65625	-0.73944	8.71376	-3.81785	-5.88198
476.56250	-0.33687	10.32271	1.82365	-3.86871
480.46875	8.52718	4.27609	12.30025	-1.45247
484.37500	6.10916	0.24440	13.91234	-3.06564
488.28125	5.30282	2.65969	14.31573	-0.24654
492.18750	12.55524	4.26921	11.49564	2.16979
496.09375	7.71977	9.10217	3.84043	0.55680
500.00000	1.67552	11.11469	4.64671	1.76424
503.90625	7.31635	9.09787	17.13803	4.98646
507.81250	-1.95127	7.48403	16.73554	-0.65576
511.71875	-6.38363	3.45272	6.25987	-0.25408
515.62500	-0.74285	2.64487	2.63396	6.59457
519.53125	-0.34015	4.25470	3.03743	3.77282
523.43750	1.67425	-7.43219	9.48476	0.95116
527.34375	1.27107	-19.11904	16.73801	-1.06473
531.25000	-3.16134	-10.65933	16.73857	-0.66305
535.15625	4.49407	1.42673	12.30691	6.99141
539.06250	13.35843	7.06595	9.48685	10.21371
542.96875	10.13489	7.86992	9.89034	3.36278
546.87500	9.73185	5.85339	8.27919	7.79387
550.78125	11.74636	4.64271	12.71185	15.85125
554.68750	16.98434	5.84978	8.68302	17.46176
558.59375	15.77545	5.84813	5.46008	22.69864
562.50000	18.19297	3.02587	11.50456	23.50329
566.40625	32.69840	2.21823	13.11686	27.12853
570.31250	35.11597	5.43998	13.11741	33.17131
574.21875	36.72765	4.22949	13.92382	33.97602
578.12500	39.54803	1.40721	12.71558	34.78077
582.03125	39.54791	6.64360	13.92500	39.21180
585.93750	46.80062	4.22432	18.35791	40.41947
589.84375	45.18892	-0.61259	16.34389	35.58324
593.75000	32.69809	5.02685	12.71805	37.59679
597.65625	31.89224	3.01060	12.71862	42.43081
601.56250	39.95082	-6.66133	13.92805	45.25023
605.46875	43.98011	-9.08050	10.70523	40.01115
609.37500	45.18888	-7.47050	5.87065	38.80132
613.28125	38.74192	-5.05453	7.88578	43.63540
617.18750	30.28036	2.59953	10.70678	39.20208
621.09375	28.66868	11.46248	15.54255	36.78352
625.00000	29.47463	7.02871	15.54319	33.96195
628.90625	16.58106	-4.25488	5.47056	28.31990
632.81250	8.11973	4.60799	7.88881	28.31880
636.71875	18.19324	7.02407	19.97732	29.92940
640.62500	12.14952	-6.67708	8.29300	23.07853
644.53125	14.16436	-12.31955	-7.82361	24.68914
648.43750	22.22324	-15.94754	-1.37609	23.88225
652.34375	13.76198	-11.91993	6.68311	18.24017
656.25000	6.10654	0.16649	6.68377	18.64213
660.15625	9.33008	10.23838	5.07274	19.04399
664.06250	14.16540	11.44585	8.29680	22.66920
667.96875	13.76273	10.63865	14.34137	21.05652
671.87500	14.97180	5.39922	16.75962	18.63793
675.78125	12.15156	-3.06366	9.50762	20.65157
679.68750	20.21044	-1.85619	5.88197	19.44180
683.59375	25.04590	-0.24594	11.52367	14.20281
687.50000	18.59928	3.37895	12.33027	12.18725
691.40625	15.77887	11.03313	9.91333	10.57452
695.31250	12.15274	10.22587	5.88467	15.00570
699.21875	10.13834	-2.26638	1.85600	14.60169
703.12500	10.94441	-3.87953	5.48297	17.82414
707.03125	8.92998	-3.88093	7.90119	19.83785
710.93750	7.31849	-1.06175	4.67839	15.00174
714.84375	11.75085	5.78680	-0.96187	12.98616
718.75000	11.75099	2.96507	11.52962	17.82037
722.65625	10.13949	6.59009	19.99179	17.41646
726.56250	13.76608	6.58871	17.17191	16.20671
730.46875	6.11069	-5.90350	11.53150	15.39995
734.37500	-3.96241	-5.50197	3.47359	3.31109
738.28125	0.87296	2.95805	3.47428	0.08660
742.18750	7.32003	2.95657	6.29549	5.32372
746.09375	0.87326	6.98445	5.49022	6.53162
750.00000	-1.54424	9.80352	3.07330	4.11305
753.90625	4.49979	-1.88277	6.29735	9.35007
757.81250	5.70868	-3.89866	10.73016	12.97541
761.71875	5.30582	8.18795	7.91032	9.75097
765.62500	8.52936	11.41012	13.55206	11.36168
769.53125	13.76754	1.73848	10.73223	8.94307
773.43750	9.33546	-5.91860	7.10660	6.12162
777.34375	3.29155	-9.14343	15.56880	6.12069
781.25000	6.91809	-7.53311	12.34599	6.11974
785.15625	8.93287	0.12131	9.52607	10.55108
789.06250	4.09791	4.14932	12.34727	15.38529
792.96875	0.47171	8.98314	6.70684	8.53449
796.87500	5.30697	8.98177	5.90164	0.87777
800.78125	9.73932	12.60685	14.76670	0.07080
804.68750	9.33659	15.42610	11.14099	4.09903
808.59375	7.32214	6.56034	9.52992	1.68051
812.50000	5.30761	3.73861	9.12773	2.48551
816.40625	6.51661	6.96077	2.68150	6.91675
820.31250	9.74025	0.51246	-1.34717	9.33342
824.21875	8.53158	-5.13003	-2.15236	4.09436
828.12500	10.14352	5.34477	3.08638	5.70516
832.03125	3.29389	1.31412	7.11628	2.88370
835.93750	-10.00264	-2.31354	5.90807	-8.39928
839.84375	-5.97322	-0.30014	3.89404	-4.37096
843.75000	-2.34664	-1.10723	4.29758	-1.14844
847.65625	3.69749	0.50317	7.52168	-4.77571
851.56250	15.38258	-4.73619	7.11940	1.67013
855.46875	13.77084	-7.96100	9.13467	14.96587
859.37500	1.28009	-3.53022	11.95581	11.33852
863.28125	-14.03117	-3.12868	10.34481	-3.57080
867.18750	-18.86624	-4.74182	11.15138	-14.85377
871.09375	-20.88076	-3.93726	-0.12998	-23.31625
875.00000	-33.77451	-7.16211	-9.79963	-25.33183
878.90625	-43.44485	-5.55173	2.28894	-30.97371
882.81250	-49.08578	-3.53825	11.55697	-41.45075
886.71875	-52.30918	-5.15121	9.54293	-40.24286
890.62500	-49.89156	-5.95853	1.48495	-43.87024
894.53125	-50.29449	-9.58629	-0.93199	-52.73562
898.43750	-46.66802	-4.75255	1.88914	-47.90138
902.34375	-32.16243	5.72218	5.11326	-32.59101
906.25000	-32.16233	5.72069	3.50221	-27.35392
910.15625	-36.59447	-2.74232	-2.94396	-26.14606
914.06250	-28.93870	-12.41404	-11.80770	-28.16159
917.96875	-20.47698	-8.38618	-13.41873	-28.56537
921.87500	-15.23872	-9.19348	0.28148	-27.35760
925.78125	-18.46202	-7.58310	3.50558	-27.35857
929.68750	-16.04430	4.90653	-4.55231	-22.52429
933.59375	-14.83539	8.93459	0.28348	-15.67547
937.50000	-17.65572	0.06874	11.16321	-12.05004
941.40625	-15.23807	-9.60307	11.96963	-16.48320
945.31250	-16.04379	-14.43956	1.89702	-18.09589
949.21875	-16.44656	-12.42622	-4.54920	-16.88799
953.12500	-17.25237	1.67509	-6.16018	-15.68007
957.03125	-16.44653	12.55292	-2.93608	-15.68106
960.93750	-15.64051	7.71626	4.31736	-15.68207
964.84375	-13.22289	-6.79068	7.94447	-13.26546
968.75000	-6.77602	-3.97143	1.90119	-7.62547
972.65625	-3.95556	2.47411	2.30473	-2.38842
976.56250	-7.58200	-0.34780	7.14049	-8.03061
980.46875	-11.20843	-10.82546	6.33526	-13.26979
984.37500	-2.74678	-12.84152	3.91833	-7.22680
988.28125	-5.97016	-4.78433	-5.75136	-5.21318
992.18750	-16.84923	-5.99455	-8.57117	-5.61715
996.09375	-16.04342	-3.17536	-0.10895	-2.79760
1000.00000	-6.77611	6.09071	7.14444	-1.18699
1003.90625	-3.55275	6.49222	6.33926	2.43820
1007.81250	-3.14992	4.47613	7.54872	4.85459
1011.71875	5.71439	10.51866	11.57870	3.64471
1015.62500	6.11714	8.90543	3.11783	0.82313
1019.53125	5.71390	3.66581	0.70085	-4.41609
1023.43750	-1.94207	-1.17079	3.92493	-4.82011
1027.34375	-11.20968	0.84248	-5.34178	-5.62718
1031.25000	-7.18052	11.31731	-7.35575	-2.80785
1035.15625	-1.94268	5.27215	6.74744	0.01141
1039.06250	-1.94283	-10.84616	13.19504	-1.60153
1042.96875	-9.19572	-9.23542	7.55470	-4.02036
1046.87500	-12.82226	0.83686	7.55537	-5.63334
1050.78125	-9.19611	0.43284	3.92963	-8.05214
1054.68750	-14.03136	5.66976	-2.51665	-10.87395
1058.59375	-12.41971	12.51849	-1.71012	-9.66632
1062.50000	6.11497	7.68216	-1.70939	0.00296
1066.40625	5.71199	-0.37761	1.11187	4.83712
1070.31250	-10.00230	-12.46660	7.55936	1.20978
1074.21875	-9.59938	-6.42370	4.33658	-6.44698
1078.12500	-8.39062	7.27486	-0.90080	-10.47734
1082.03125	-9.19652	6.87085	2.32323	-7.25495
1085.93750	-3.95837	5.66108	6.75615	-7.65900
1089.84375	-2.34656	8.48068	3.13052	-6.85416
1093.75000	-0.73486	11.30021	-3.31568	-2.42303
1097.65625	4.10031	13.71668	-2.10622	-0.40941
1101.56250	-0.73490	8.47760	9.17650	0.39556
1105.46875	0.87685	9.68539	6.75959	4.02094
1109.37500	4.90615	11.69906	-12.17747	4.42289
1113.28125	4.90617	2.83364	-6.93869	-5.24845
1117.18750	2.08571	0.41500	3.53823	-12.09919
1121.09375	5.71214	1.21980	7.56823	-1.22105
1125.00000	-0.33169	-6.83985	7.16606	1.59847
1128.90625	-7.58431	-13.69071	3.54035	-0.41708
1132.81250	2.48901	-6.84207	9.98786	0.38787
1136.71875	-2.34608	-6.44024	8.77971	-8.47760
1140.62500	-12.01636	-5.63537	1.93063	-8.47855
1144.53125	3.29503	-6.44214	5.96064	14.48756
1148.43750	18.60652	0.80960	3.54375	14.88958
1152.34375	2.89234	19.74627	-3.70823	-6.46672
1156.25000	-6.77793	18.93925	1.93353	-6.06474
1160.15625	-13.62766	12.08836	-5.31860	-10.09507
1164.06250	-24.90958	6.04342	-12.97366	-20.16931
1167.96875	-28.93885	1.20722	-8.13777	-28.22878
1171.87500	-30.14751	-1.61435	-1.69022	-30.24435
1175.78125	-27.72987	-2.01822	1.13105	-31.05113
1179.68750	-28.93858	-8.06325	-1.68884	-33.06668
1183.59375	-29.34137	-22.97275	-7.32920	-22.18850
1187.50000	-19.26803	-14.51222	-7.32855	-15.74252
1191.40625	-18.05912	7.24497	-10.14844	-20.98153
1195.31250	-16.85021	6.43805	-9.34186	-18.96782
1199.21875	-7.98572	-5.24783	1.13503	-12.52189
1203.12500	-10.40325	-4.04005	3.95622	-7.68773
1207.03125	-10.40320	-2.42928	1.94226	-6.88278
1210.93750	-3.55332	3.21090	-0.07169	-7.28667
1214.84375	-1.94152	13.68604	-2.89152	-4.46711
1218.75000	-3.15012	10.46156	0.73564	2.78475
1222.65625	-1.13532	10.46053	-0.87532	1.97807
1226.56250	-5.56744	14.89178	-8.53031	-5.27556
1230.46875	-7.98490	5.62333	-5.70912	-9.70871
1234.37500	-1.53787	-3.64514	10.00585	-6.08320
1238.28125	-1.53773	5.62130	17.66232	-3.66656
1242.18750	-8.79031	10.05254	9.20158	-9.30838
1246.09375	-14.83408	4.41046	-0.06506	-8.90618
1250.00000	-14.02812	-3.24614	-3.28784	-7.69822
1253.90625	-12.01338	-8.48515	2.35381	-7.29613
1257.81250	-12.41614	-8.88905	9.20434	-3.67065
1261.71875	-6.37204	-6.06959	7.59326	-1.25397
1265.62500	-1.13378	-3.25003	2.75883	1.96858
1269.53125	0.88102	-2.84811	7.99765	4.38533
1273.43750	-1.53648	-8.08720	11.22178	6.80196
1277.34375	-8.78915	-4.05888	-4.49184	4.38351
1281.25000	-5.96851	6.41624	-5.29696	-0.45258
1285.15625	-4.35655	12.86219	3.97118	-4.48274
1289.06250	-3.55049	18.90519	8.00118	-0.45428
1292.96875	8.13470	11.65156	10.01651	5.58890
1296.87500	7.73191	-4.86949	0.34688	-5.69409
1300.78125	6.52328	-8.09385	-0.86116	-12.54477
1304.68750	16.59678	2.38144	-3.68105	-6.50177
1308.59375	21.83502	-6.88685	-10.53020	-1.26465
1312.50000	6.92669	-18.57277	-4.48557	-4.48902
1316.40625	-12.81672	-4.06811	2.36502	-3.68409
1320.31250	-14.42835	7.21303	-0.85756	-2.47619
1324.21875	-12.41350	3.18278	2.36659	-8.11805
1328.12500	-13.21927	6.80817	7.20251	-9.73070
1332.03125	-11.60739	8.01607	5.18861	-11.34327
1335.93750	-7.98094	4.79168	5.59217	-9.73247
1339.84375	-3.54857	6.80535	11.63673	-1.27183
1343.75000	0.07807	-3.67178	2.37005	5.17425
1347.65625	1.68998	-21.40164	-10.52299	7.59099
1351.56250	-0.32451	-15.35863	-2.86665	3.96370
1355.46875	-6.77120	5.99584	5.99858	-2.88697
1359.37500	-5.96515	11.23311	7.61099	-4.49953
1363.28125	-1.12976	8.81468	9.22347	-3.69442
1367.18750	-3.14425	8.41090	8.41832	-2.48641
1371.09375	-3.94997	4.38080	6.00136	0.73613
1375.00000	1.69127	3.17113	3.18155	2.74983
1378.90625	4.51194	-2.87385	5.59980	5.56946
1382.81250	5.31795	-0.45722	7.61513	10.00077
1386.71875	5.72096	7.19755	-3.66621	5.56761
1390.62500	4.10936	1.15271	-19.37973	-2.49202
1394.53125	5.72135	3.16653	-8.09684	2.74529
1398.43750	6.12466	4.77721	11.64742	2.34169
1402.34375	-3.94830	1.55282	9.23055	-5.31473
1406.25000	-11.20071	6.38705	8.02242	-5.71837
1410.15625	-6.76808	1.14805	6.00847	-5.71898
1414.06250	1.29090	-10.13487	-0.84059	-6.52547
1417.96875	-4.75261	-6.50935	3.59234	-3.30261
1421.87500	-5.15496	3.16013	10.04002	-7.33240
1425.78125	3.71002	3.96519	1.17638	-8.54168
1429.68750	2.90477	4.36728	2.38591	4.75457
1433.59375	1.69658	-0.06578	2.38666	4.35122
1437.50000	-7.57024	-0.46964	-10.90928	-4.51377
1441.40625	-14.01661	3.55872	-4.05867	-6.12597
1445.31250	-9.18107	9.60169	6.41828	-2.09728
1449.21875	-3.13670	12.42126	2.79266	-1.69493
1453.12500	0.49006	5.57051	6.01689	1.12504
1457.03125	4.92270	9.19610	9.64398	4.75078
1460.93750	4.92307	6.37475	9.24180	8.37643
1464.84375	5.72934	-3.69928	9.64541	9.98740
1468.75000	8.14741	-3.29719	8.43743	8.77789
1472.65625	5.32715	-2.89514	3.20004	5.15080
1476.56250	7.34208	3.14800	0.38016	2.32959
1480.46875	13.78921	6.77343	0.38091	7.96985
1484.37500	7.74557	-0.88308	-1.22999	7.16326
1488.28125	0.89604	-0.07804	6.82936	1.52146
1492.18750	-3.53599	-1.28779	9.24766	-3.71742
1496.09375	-2.72995	2.74062	1.99564	1.11698
1500.00000	1.29952	7.57483	1.59345	5.14544
1503.90625	-3.53534	5.15633	1.19127	-1.30230
1507.81250	-5.95259	1.52895	-2.03149	2.32334
1511.71875	-5.95224	-6.53054	2.80436	3.53134
1515.62500	-6.35484	-5.32263	4.81966	0.71002
1519.53125	-1.11651	-3.30897	6.83498	7.15604
1523.43750	-0.71333	-3.71285	7.23861	6.75221
1527.34375	-8.77160	-0.49026	3.61287	1.11035
1531.25000	-7.56248	3.94112	4.82239	-1.30806
1535.15625	-5.14464	7.56656	1.19678	-1.30884
1539.06250	-3.93565	-1.29875	3.21219	0.30217
1542.96875	-2.72663	-2.91132	12.07738	5.94234
1546.87500	-10.78502	7.16117	12.07807	3.12099
1550.78125	-9.17305	4.33973	11.27286	2.71725
1554.68750	-1.11420	1.92123	11.67642	10.77499
1558.59375	-5.14332	3.53204	2.40979	8.75938
1562.50000	-3.93434	1.11364	2.81351	3.92331
1566.40625	7.34800	4.33626	12.88748	12.38402
1570.31250	8.95989	-2.51445	2.00904	11.57727
1574.21875	0.49856	-2.91834	-8.06353	-3.73504
1578.12500	-3.53046	5.54227	-5.64526	-1.31828
1582.03125	2.91673	3.12390	-5.64451	6.73948
1585.93750	4.12586	-3.32380	-0.40566	7.54457
1589.84375	-0.30608	-2.51889	0.40087	0.69397
1593.75000	5.73813	8.76219	2.01329	-2.53024
1597.65625	6.54419	1.10558	6.44624	7.13931
1601.56250	-2.32003	-6.14808	1.20878	6.33265
1605.46875	-3.93151	5.53600	-10.87846	-1.32384
1609.37500	0.09809	-2.92640	-6.04249	-2.13048
1613.28125	-1.11052	-11.38869	11.28420	0.28630
1617.18750	-1.91623	-4.13659	13.29959	0.68836
1621.09375	0.50165	-2.52571	9.27104	-4.95349
1625.00000	-7.15373	8.35246	8.86877	-3.34265
1628.90625	-7.95942	22.05122	5.64597	3.90920
1632.81250	-5.13867	9.96250	4.43779	-0.52396
1636.71875	-0.70630	1.50015	0.00631	-0.52482
1640.62500	1.30854	13.18432	-6.84279	-3.34622
1644.53125	-7.15280	7.54233	-4.02156	-8.98812
1648.43750	-9.16732	-1.32309	3.63476	-5.36262
1652.34375	-6.74949	1.09356	2.42664	-4.55763
1656.25000	-3.92883	-8.17476	2.02441	1.08254
1660.15625	-9.97262	-7.77272	4.44266	2.69334
1664.06250	-11.18123	-4.14707	5.65224	-3.75443
1667.96875	2.11574	-9.78894	7.66756	1.48280
1671.87500	-0.70462	-0.52246	7.66819	5.10833
1675.78125	-5.94254	6.72944	2.83373	-0.93646
1679.68750	0.50452	7.13157	-6.43300	0.67436
1683.59375	1.71347	7.93646	-12.87927	2.68817
1687.50000	-3.52444	2.29437	-2.80541	3.49314
1691.40625	-5.53896	-2.94471	13.71539	9.53622
1695.31250	-5.94179	-5.36316	8.07495	3.08843
1699.21875	-6.34452	-4.15520	2.03164	-3.35933
1703.12500	-5.53847	0.27613	3.64392	-3.76313
1707.03125	-5.94118	2.28988	-4.41405	-1.74934
1710.93750	-1.50871	-1.33732	-2.39875	6.71126
1714.84375	0.50608	-2.54703	-0.38349	5.90457
1718.75000	7.75895	3.49594	0.82593	4.69489
1722.65625	0.10343	2.28622	2.84127	4.29113
1726.56250	-5.94047	6.71764	-3.60488	-6.99180
1730.46875	-0.29926	12.35780	-4.40999	-12.63377
1734.37500	0.50670	6.31281	3.64928	-2.96434
1738.28125	-1.10480	-5.37314	9.69396	-1.75641
1742.18750	-3.52212	-11.41812	-1.18439	-2.56314
1746.09375	-3.11889	1.47479	-12.86872	3.88295
1750.00000	-7.14795	7.92082	-4.80945	-4.98233
1753.90625	-7.14778	-0.13863	-0.37648	-15.45942
1757.81250	8.56660	-4.97461	3.25062	-1.35781
1761.71875	7.76096	-6.58706	11.71276	3.87943
1765.62500	-3.11788	6.70879	12.11637	-2.16537
1769.53125	-4.32645	13.15476	11.71409	-1.76330
1773.43750	-5.53502	4.69235	4.05909	-0.95831
1777.34375	-0.29670	-2.96421	1.64216	-1.36208
1781.25000	-1.50527	-15.05298	8.49274	-4.98924
1785.15625	-7.14606	-16.26260	3.25532	-6.19893
1789.06250	-11.57814	-16.66634	3.65884	-7.00574
1792.96875	-3.11632	-10.22049	8.09176	-0.55974
1796.87500	2.52494	5.89575	3.25729	5.48351
1800.78125	-8.35391	9.92417	-1.98017	8.30326
1804.68750	-9.56249	5.49108	-1.17364	7.49665
1808.59375	-8.35354	-12.64163	6.48281	0.64592
1812.50000	-11.17398	-19.49224	9.70687	-7.01066
1816.40625	-5.12986	-2.97291	6.08115	-7.01163
1820.31250	2.52593	2.66725	6.48480	-2.98327
1824.21875	2.92909	-7.40684	7.69426	-5.80467
1828.12500	-2.30874	-3.78134	-0.36365	-1.37321
1832.03125	-1.50265	-3.37915	-2.78058	5.87868
1835.93750	2.12394	-15.87087	1.24945	8.29536
1839.84375	1.31826	-7.81319	2.45890	6.27987
1843.75000	2.93022	2.25912	-3.18141	1.04096
1847.65625	12.19779	5.07872	-2.37491	5.47235
1851.56250	6.15398	4.27197	6.49024	3.85968
1855.46875	-0.29277	2.25648	2.46152	-2.58814
1859.37500	6.55720	0.24099	2.86515	4.26079
1863.28125	10.98965	-1.37156	6.49220	2.24519
1867.18750	9.37818	-8.22231	0.04592	-2.99380
1871.09375	2.52856	-15.07298	-1.96805	1.84051
1875.00000	7.36396	-10.64154	5.68826	5.86898
1878.90625	8.97586	-5.00137	6.89766	11.91210
1882.81250	-1.09715	-10.64318	2.06313	8.28489
1886.71875	-5.52920	-13.46456	-1.96552	0.62830
1890.62500	-10.36416	-5.00378	-1.15900	-4.20774
1894.53125	-3.51416	-7.01914	3.27397	-5.01447
1898.43750	-0.29050	-10.64627	4.08057	-2.59778
1902.34375	1.72435	-7.82657	4.48420	-0.58400
1906.25000	5.35095	-9.03609	10.12595	5.05622
1910.15625	10.18638	-5.81340	13.75300	12.30816
1914.06250	11.39531	-3.39665	3.27745	5.45751
1917.96875	7.36612	-10.65017	-2.76590	-0.99022
1921.87500	3.73985	-13.47149	-3.16822	-4.61744
1925.78125	4.54585	-9.04010	-6.79405	-1.39482
1929.68750	13.00756	1.03229	-5.58457	5.85711
1933.59375	18.64873	0.62864	2.87765	7.46801
1937.50000	11.39611	-5.81908	6.90758	11.09345
1941.40625	3.33760	-9.44630	12.95217	14.31603
1945.31250	13.41107	-0.98558	17.38514	12.70351
1949.21875	17.84352	7.47524	6.50677	5.44995
1953.12500	3.74126	-1.38995	-7.19222	-6.23589
1957.03125	0.11522	-7.43466	-4.77404	-7.04255
1960.93750	2.53305	-3.80907	1.67351	-9.05799
1964.84375	1.32453	3.03994	-3.16101	-13.49102
1968.75000	-5.92796	2.23318	-7.59264	-7.44792
1972.65625	-4.71894	1.82947	-8.39782	-4.22534
1976.56250	1.32523	1.42572	-1.95020	-1.40572
1980.46875	-1.49507	-15.90105	3.28862	7.05498
1984.37500	0.51982	-28.39263	6.10979	4.23364
1988.28125	3.34057	-11.06739	3.69279	1.41221
1992.18750	0.52027	7.86956	-1.54464	5.44074
1996.09375	2.13219	6.66003	-4.76743	-1.40993
2000.00000	3.34112	3.83883	-2.75215	-2.21661
2003.90625	-2.70267	6.25568	4.90418	-1.81452
2007.81250	1.32670	3.83737	5.30768	-5.03891
2011.71875	0.92392	-3.81908	0.87595	-3.42816
2015.62500	-3.10519	-12.68431	3.69707	-1.41442
2019.53125	-4.71670	-11.07343	3.29491	-5.84749
2023.43750	0.52161	-1.00089	-0.73366	-11.08632
2027.34375	6.96870	1.01308	-7.98568	-7.46067
2031.25000	-2.70139	-0.19638	-7.58208	-4.23804
2035.15625	-1.08937	9.47318	4.10362	-2.62713
2039.06250	8.58113	2.62258	5.31307	4.22191
2042.96875	6.56672	-7.85447	2.89607	9.05622
2046.87500	2.53765	-5.43764	1.68782	2.60851
2050.78125	2.13498	-2.61786	-1.93794	-3.43625
2054.68750	-2.29700	4.63410	-4.75778	-4.64588
2058.59375	-0.68509	3.42444	-5.96580	-3.84092
2062.50000	0.52391	-4.23203	-1.53296	-4.64765
2066.40625	-1.89355	-1.81515	5.72041	0.18665
2070.31250	-0.68460	5.03408	-1.93459	-1.02302
2074.21875	8.18011	1.40696	-1.93392	-3.44145
2078.12500	4.95686	-19.94898	9.34879	-1.83054
2082.03125	-1.89281	-12.69684	10.96113	-3.04015
2085.93750	-1.89262	-3.83313	1.29148	-3.04099
2089.84375	-8.74224	-14.71302	-6.76657	-4.65370
2093.75000	-5.11568	0.59754	-4.75137	-4.25172
2097.65625	-2.29502	11.07293	-2.73612	-2.23791
2101.56250	-1.89195	5.43101	0.08508	-0.22405
2105.46875	3.74923	-1.82254	12.57657	3.40147
2109.37500	9.39042	-11.09066	19.83002	7.42998
2113.28125	5.76421	-13.91191	2.10177	-6.27053
2117.18750	-0.68251	-3.43646	-8.77668	-7.88313
2121.09375	-1.89118	1.39801	-2.73204	-0.63119
2125.00000	-2.29395	4.62073	0.89501	-3.45253
2128.90625	-0.27911	13.48440	-1.92484	-1.43871
2132.81250	4.15334	4.21635	4.52258	3.39558
2136.71875	9.79446	-21.16899	11.37296	20.31776
2140.62500	12.21225	-12.30537	-0.71434	19.10816
2144.53125	8.18318	11.86970	-16.42796	-1.84501
2148.43750	3.34817	16.30118	-9.98046	-2.65180
2152.34375	2.13964	11.86825	-1.92118	-1.44381
2156.25000	11.00435	6.62950	-5.54695	0.16709
2160.15625	21.07782	4.21112	-4.33748	3.38956
2164.06250	11.81067	-7.07170	4.93065	-0.23775
2167.96875	4.15527	-4.25178	5.33437	-1.44740
2171.87500	-1.08255	-1.43194	1.30578	-4.67164
2175.78125	-1.88825	-1.43277	1.30636	-0.64327
2179.68750	6.57350	5.01332	3.32156	5.39979
2183.59375	3.75328	3.40084	1.30746	3.38423
2187.50000	5.76816	7.02654	4.53143	4.18930
2191.40625	8.99179	12.66684	8.15838	3.78546
2195.31250	2.14219	-4.65985	-6.74949	2.97873
2199.21875	0.93361	-14.33081	-13.59862	2.97787
2203.12500	-0.27497	-5.06398	-4.33051	1.76828
2207.03125	-5.91580	-3.85577	-3.92685	1.36446
2210.93750	-4.70680	-2.64764	-7.55261	4.98996
2214.84375	1.33733	3.79852	-5.53736	4.18327
2218.75000	5.36690	1.38015	3.32774	-0.65272
2222.65625	5.77017	-0.63530	12.19288	3.37587
2226.56250	2.94996	-1.84488	7.76130	2.16636
2230.46875	3.75609	-3.86024	2.92678	-3.07254
2234.37500	4.15924	0.16837	0.50977	-1.46170
2238.28125	0.53308	1.77946	-4.72770	-6.29770
2242.18750	1.33921	-7.08570	-8.35335	-5.89560
2246.09375	8.99509	-6.28056	-7.14392	-2.67306
2250.00000	6.57764	6.20957	-3.51694	0.14661
2253.90625	0.93686	10.64116	2.52768	6.59269
2257.81250	10.20446	6.20825	9.37818	11.42708
2261.71875	16.65154	5.40170	6.55835	15.45552
2265.62500	9.39900	16.28012	2.93265	13.84294
2269.53125	5.77281	7.81786	-0.69302	4.57473
2273.43750	11.01111	-0.24143	-3.91583	5.78267
2277.34375	18.66702	11.44290	-0.28887	9.00525
2281.25000	19.07013	3.38372	-2.30291	-0.26299
2285.15625	21.89085	-4.27258	-1.89935	0.94496
2289.06250	17.45876	-1.45282	1.32478	4.16761
2292.96875	4.56520	-4.67703	5.35480	9.80787
2296.87500	-2.68732	-14.34813	0.92314	8.59824
2300.78125	-1.88123	-16.36361	-2.29975	2.95645
2304.68750	-2.68683	3.37920	0.92427	4.56739
2308.59375	-4.29825	11.84005	-0.68688	6.98423
2312.50000	6.17821	3.37772	4.95467	13.43033
2316.40625	12.62521	2.57109	0.52303	15.04114
2320.31250	3.76097	8.21137	-15.19061	-0.27105
2324.21875	3.35820	11.83715	-6.32543	-3.49533
2328.12500	3.76128	-1.86313	4.15146	0.93608
2332.03125	-1.07367	-7.90780	-2.69770	3.75577
2335.93750	-3.89398	-0.65590	-4.30874	8.18719
2339.84375	1.34435	4.58137	8.58561	8.99214
2343.75000	2.15051	9.81878	13.42132	12.61767
2347.65625	-1.07268	15.05625	8.58680	9.79634
2351.56250	-5.10170	5.78824	5.76680	2.13998
2355.46875	-2.68393	0.14652	7.37907	0.93046
2359.37500	5.37490	3.36927	9.39422	-1.89078
2363.28125	3.76348	3.77149	0.12738	2.94360
2367.18750	8.59888	-2.27319	-3.09541	9.79262
2371.09375	15.44896	-7.51204	4.15802	10.19473
2375.00000	15.85213	-3.08050	10.60560	10.99975
2378.90625	5.37623	8.20100	13.02379	2.53745
2382.81250	-9.53193	8.20032	2.54820	-6.73068
2386.71875	-6.30825	8.19952	-3.09221	-5.52262
2390.62500	-2.68171	9.00460	6.17576	-4.31458
2394.53125	-6.30790	5.78038	8.59394	-5.12123
2398.43750	-6.71069	5.77968	-2.68763	-7.13675
2402.34375	-6.71052	5.77896	-3.08995	-4.72005
2406.25000	-5.50147	2.15179	0.94000	-3.91489
2410.15625	-5.90417	-6.71338	-2.28280	2.93423
2414.06250	-2.68055	-12.75797	0.13538	10.99201
2417.96875	-1.47154	-16.38509	6.58276	1.72378
2421.87500	-3.48589	-17.59474	6.58327	-2.30628
2425.78125	1.34950	-6.31352	6.58384	-0.29237
2429.68750	-3.88839	4.96785	4.97265	-3.91956
2433.59375	-9.52917	8.19060	7.79376	-5.12913
2437.50000	-10.33484	10.20472	0.13880	-8.35343
2441.40625	-5.49950	7.38354	-17.18662	-9.16013
2445.31250	0.14173	4.96527	-15.97724	-5.53462
2449.21875	0.94777	-0.67650	-5.50045	-3.11785
2453.12500	5.78312	-7.92982	7.39391	2.11941
2457.03125	5.38033	-0.67764	9.81201	1.31267
2460.93750	5.78341	3.75391	3.36574	-1.10569
2464.84375	4.17182	6.17061	-4.69238	0.10231
2468.75000	-0.26021	3.75225	-7.10933	3.72784
2472.65625	-3.48344	-5.11296	0.54694	7.75634
2476.56250	-0.66275	-3.50192	-1.87003	5.33800
2480.46875	9.41074	-6.32325	-6.70469	8.15764
2484.37500	12.63431	-5.11521	-7.91291	13.39493
2488.28125	9.41118	4.95741	-6.70360	7.35022
2492.18750	1.35277	6.56846	0.14683	4.52887
2496.09375	2.15886	4.95612	6.99709	12.18371
2500.00000	13.44103	6.16425	9.01221	17.01795
2503.90625	1.75618	6.96950	1.76003	4.92921
2507.81250	-6.70518	2.93949	0.95478	-8.77118
2511.71875	0.95069	-3.91107	5.38759	-7.96608
2515.62500	1.75673	-5.52348	3.37347	-6.75804
2519.53125	-0.25769	-7.53892	-10.32565	-3.13239
2523.43750	-4.68971	-2.30164	-18.78664	0.49319
2527.34375	-7.10703	8.17377	-9.11573	-3.13394
2531.25000	-6.30103	9.38189	-1.45950	-3.94066
2535.15625	-10.73313	0.11385	-2.26477	-4.74729
2539.06250	-10.32995	-8.34839	0.15343	-5.55391
2542.96875	-9.92684	-9.55783	1.76572	-5.55470
2546.87500	-10.73253	-2.30575	1.76633	-5.95849
2550.78125	-2.67383	1.32007	1.76694	-0.31834
2554.68750	-0.25612	6.96068	0.15578	1.29250
2558.59375	1.35569	9.78055	0.96211	0.08292
2562.50000	0.14710	-1.50232	2.57432	2.49963
2566.40625	-3.47904	-10.77050	-0.24555	-1.12747
2570.31250	-1.46414	-7.95064	-8.70652	-2.33705
2574.21875	1.35654	8.16596	-6.69141	-3.54665
2578.12500	7.40074	19.85028	-0.64692	2.89950
2582.03125	10.22143	15.41724	5.80043	6.92812
2585.93750	-0.65754	-2.71533	2.57748	-2.34002
2589.84375	-1.86613	-7.14822	-1.04830	-2.74375
2593.75000	2.96927	0.50682	-1.45064	4.10530
2597.65625	1.35770	-5.94069	4.19107	6.92490
2601.56250	-1.05965	-1.10615	11.44448	4.90937
2605.46875	-0.25362	11.78695	4.19232	11.35549
2609.37500	1.35825	2.11592	-6.68630	9.34009
2613.28125	-0.25324	-8.76380	-5.47696	6.51876
2617.18750	-5.49111	2.92051	0.16460	9.33853
2621.09375	-8.31143	7.75503	-4.26708	-3.15313
2625.00000	-5.49075	6.94853	-3.05768	-4.76571
2628.90625	-6.69934	8.15655	2.18098	2.48622
2632.81250	-11.53428	4.93254	-1.44486	0.06784
2636.71875	-9.92237	-2.32077	-4.26479	-0.33596
2640.62500	-4.68407	-7.15659	2.98850	2.48371
2644.53125	-9.11609	-4.73971	5.80953	2.08007
2648.43750	-10.32458	-4.74043	0.97492	3.28808
2652.34375	-4.28040	-16.82891	-4.66560	0.86971
2656.25000	-2.26553	-9.57674	-8.29139	0.46590
2660.15625	-2.66832	6.94267	-5.87319	-1.14657
2664.06250	-5.08575	0.09202	2.58887	0.86733
2667.96875	-3.47389	-3.13220	-1.84277	7.71638
2671.87500	0.95854	5.73152	-5.06566	8.92444
2675.78125	3.37621	11.37181	-3.45342	7.31199
2679.68750	1.36171	6.13309	-2.24407	5.29659
2683.59375	7.40588	4.92368	3.39756	8.51924
2687.50000	-0.24966	-1.12104	-3.85461	4.48914
2691.40625	-7.09927	-9.98612	-6.67458	-0.74982
2695.31250	6.19759	-2.73401	1.78745	4.89037
2699.21875	7.00364	4.51807	0.98204	5.29249
2703.12500	-3.87530	9.75554	-3.85264	-5.99045
2707.03125	-3.06921	10.15790	-1.03162	-7.20000
2710.93750	-5.48665	-7.97462	3.40118	-3.17150
2714.84375	-8.71000	-17.64556	2.59583	1.66282
2718.75000	0.55748	-4.34933	-5.46224	6.90010
2722.65625	1.76642	4.91740	-14.72909	4.48166
2726.56250	-1.85980	9.75177	-8.68451	5.28670
2730.46875	-3.47132	10.55691	-5.46046	-3.57864
2734.37500	0.15523	6.92992	-4.65413	-5.99710
2738.28125	2.17004	4.10878	-0.62424	1.25479
2742.18750	2.17019	-2.74164	0.58501	1.65694
2746.09375	4.58784	-10.39806	5.82354	1.25317
2750.00000	1.76750	-5.56359	5.82405	0.84951
2753.90625	-1.05280	-1.53501	2.19825	0.44578
2757.81250	6.60303	-1.13286	-0.62171	10.92117
2761.71875	5.39444	-2.34224	-17.14134	5.27939
2765.62500	-3.06686	-3.95459	-19.55828	-3.58586
2769.53125	-7.09594	-0.73176	-0.62000	5.68080
2773.43750	-3.06639	3.69983	3.00689	6.48589
2777.34375	7.81292	6.11670	-0.21596	9.30569
2781.25000	0.56041	8.53364	2.20218	7.29026
2785.15625	-1.45404	4.10076	-6.66185	4.87187
2789.06250	6.20182	-14.83750	-9.88484	4.46812
2792.96875	-3.06538	-20.07622	0.18888	-4.39719
2796.87500	-10.72091	-0.33331	4.21865	-5.20389
2800.78125	-10.31780	9.73922	2.60740	-1.98124
2804.68750	-3.87077	7.32095	1.80205	-2.78788
2808.59375	1.77056	3.29104	1.80255	0.03195
2812.50000	1.36787	-3.96232	-1.42035	1.23994
2816.40625	-2.25822	-1.14240	-10.68716	-7.22230
2820.31250	-4.67559	3.28924	-11.08952	-6.01432
2824.21875	-1.04899	6.91499	-1.01577	-1.58284
2828.12500	1.36879	1.27331	0.99939	-0.77773
2832.03125	4.18962	-9.60640	-2.62656	4.05672
2835.93750	2.17522	-2.75727	-6.25245	0.83251
2839.84375	-5.48026	9.73285	-8.26664	-3.19754
2843.75000	-1.85367	12.14967	-2.62521	-0.78073
2847.65625	7.41399	6.91087	5.03095	8.88889
2851.56250	1.37022	-5.17768	-2.62423	11.30574
2855.46875	-1.85297	-8.80464	-16.72622	7.67858
2859.37500	2.57953	-3.97013	-17.53151	6.46903
2863.28125	-2.25540	-7.19423	-8.66656	6.06541
2867.18750	-2.65816	-4.37426	-3.02506	5.66173
2871.09375	4.19193	-8.00120	1.00470	7.27277
2875.00000	-1.44890	-14.04573	3.82566	1.22801
2878.90625	-0.23985	-2.36133	2.21448	-1.99620
2882.81250	4.59548	-1.55611	3.82670	6.46446
2886.71875	0.16348	5.29307	2.21553	6.86664
2890.62500	0.96954	4.48656	-5.03673	1.62779
2894.53125	2.17858	-0.34922	-7.05085	-5.62569
2898.43750	-5.07389	10.93214	-1.00637	-10.86450
2902.34375	-4.26784	-1.96240	0.20284	-1.19493
2906.25000	1.37335	-17.67736	-3.42315	2.83359
2910.15625	3.79115	-12.03699	2.62125	3.23570
2914.06250	8.62646	-2.77021	0.60704	8.87593
2917.96875	5.80615	6.49666	-7.85397	4.44289
2921.87500	-1.84932	11.33126	-5.43586	-1.60176
2925.78125	0.16561	6.09249	-0.60010	2.02391
2929.68750	-3.05756	6.09180	1.01211	3.63484
2933.59375	-6.68375	9.71757	0.20675	-0.39521
2937.50000	2.58381	9.31394	-0.19572	2.42451
2941.40625	0.97232	4.07515	-5.43333	-0.79975
2945.31250	-6.28022	-0.76063	-4.62700	-2.00935
2949.21875	0.97273	-0.35839	1.82037	10.48058
2953.12500	1.37584	-14.86456	-5.83484	8.06225
2957.03125	-7.08541	-16.47691	-10.26669	-6.84694
2960.93750	-7.48812	1.65438	-2.20766	-10.87697
2964.84375	-8.29375	6.48893	-1.40133	-12.48934
2968.75000	-0.23496	-0.76446	-0.19203	-2.41681
2972.65625	7.82382	-15.27062	2.22607	1.20879
2976.56250	0.97420	-17.28590	-0.19103	-3.22415
2980.46875	3.39190	8.09807	-4.21988	2.81901
2984.37500	5.00378	19.78249	-4.21946	6.44457
2988.28125	-3.05465	6.48522	0.21324	1.60862
2992.18750	-4.66613	4.06707	7.86940	5.63716
2996.09375	0.57222	-8.42440	7.86995	11.68036
