 	TP9	AF7	AF8	TP10	
-1000.00000	4.83297	-0.25392	3.99405	15.96583
-996.09375	7.65337	-6.29814	2.78147	15.56341
-992.18750	2.81815	-6.29837	-7.69848	15.56399
-988.28125	1.60929	-2.26930	-6.89640	15.56463
-984.37500	5.23562	-5.49292	-0.85625	13.14770
-980.46875	6.44439	-5.09024	0.34875	11.53666
-976.56250	4.42973	0.55063	-5.29608	6.70216
-972.65625	5.63852	4.98266	-11.34384	9.52324
-968.75000	3.62386	7.80305	-6.91548	6.70335
-964.84375	-0.40541	1.75893	-4.09886	-1.75754
-960.93750	-1.61419	-1.46467	-0.87927	4.68997
-957.03125	9.66787	-3.07654	4.75786	14.76400
-953.12500	11.68252	-2.67367	-3.30473	11.94418
-949.21875	6.84736	-3.07671	-9.35274	12.75079
-945.31250	12.08540	-0.25631	-10.56548	13.96027
-941.40625	14.10000	4.57875	-8.95759	13.55799
-937.50000	12.89117	1.75809	0.30593	14.36450
-933.59375	10.47356	-0.25676	0.30204	7.91831
-929.68750	8.45894	1.75783	-0.50771	5.50152
-925.78125	5.23555	-2.67455	-0.10877	10.33740
-921.87500	0.40044	-1.46589	-5.75371	16.38206
-917.96875	2.41508	0.14565	-7.77223	17.59157
-914.06250	-1.21127	0.14549	-4.55270	19.20400
-910.15625	-4.03161	3.77173	-0.93035	18.39894
-906.25000	4.43014	-5.89874	1.88613	20.81740
-902.34375	-0.00198	-10.73402	1.47920	19.60943
-898.43750	-4.03115	-3.48143	-2.15121	12.76045
-894.53125	-5.64277	-0.25817	2.27702	14.77596
-890.62500	-10.47791	-1.86997	12.74912	25.25298
-886.71875	-6.44846	-1.46713	13.14799	19.61272
-882.81250	-5.64254	-1.46723	1.86187	11.95788
-878.90625	-11.68640	-1.46732	-1.36552	17.59973
-875.00000	7.65432	2.96481	5.48030	19.21217
-871.09375	16.11595	4.57649	4.67055	19.61591
-867.18750	-4.03054	-0.25879	2.65196	12.76690
-863.28125	-4.03050	-0.25883	1.03616	9.14130
-859.37500	6.04279	-3.07939	-3.40011	22.03592
-855.46875	9.66922	2.15864	-5.01600	27.27480
-851.56250	5.23703	9.81427	-5.82603	15.59061
-847.65625	3.62544	7.79953	-3.00970	6.72701
-843.75000	2.41670	8.20235	2.22427	10.75718
-839.84375	2.81973	6.59058	-1.00327	15.59328
-835.93750	9.26669	9.00808	-4.23077	16.40014
-832.03125	4.83455	5.78458	-3.83191	10.35712
-828.12500	2.41704	0.94935	-7.46241	3.91109
-824.21875	2.82014	4.97863	-2.63126	16.00000
-820.31250	1.20852	11.42551	-2.23244	15.59807
-816.40625	-6.04408	17.06651	-6.66873	14.79327
-812.50000	-2.41755	19.48402	1.38574	25.67334
-808.59375	6.04411	12.63418	7.42560	26.88310
-804.68750	1.61210	2.56090	7.42151	30.51052
-800.78125	0.80642	-5.09481	5.40270	30.51157
-796.87500	8.05933	-3.48311	-1.45126	21.24521
-792.96875	7.25357	8.20173	0.15628	24.46969
-789.06250	2.82149	15.05150	1.76385	31.72363
-785.15625	-4.02824	19.08069	1.35684	28.09854
-781.25000	3.62759	22.70689	-5.49715	25.27932
-777.34375	9.26871	16.25992	-7.11304	28.90701
-773.43750	-4.83367	5.38075	4.16478	32.13184
-769.53125	-4.43058	4.57491	6.57819	32.13319
-765.62500	0.00175	12.63350	4.96226	32.13457
-761.71875	-6.04204	14.24518	7.77865	30.92715
-757.81250	-7.65361	6.18653	3.74520	28.51095
-753.90625	-5.23592	0.14250	2.53226	27.70641
-750.00000	1.21116	0.54536	5.34861	32.14003
-746.09375	6.85239	-0.66351	0.91225	37.78246
-742.18750	0.80860	3.36575	-0.70357	32.54571
-738.28125	-6.84689	15.05078	4.53031	27.30898
-734.37500	-1.60853	19.88598	5.73487	25.69859
-730.46875	1.21217	15.85672	3.71602	20.86475
-726.56250	2.01815	6.58930	2.50305	21.67191
-722.65625	-0.80219	-0.26058	6.93112	21.67323
-718.75000	-2.41372	4.57461	3.30067	24.89798
-714.84375	2.01870	8.60388	-3.95620	33.76373
-710.93750	-1.20455	7.79804	0.06901	30.94441
-707.03125	-2.81611	6.58928	0.46789	26.91636
-703.12500	2.01917	3.36585	-3.56551	22.88825
-699.21875	0.40759	0.54534	-2.76379	22.48645
-695.31250	0.40772	2.15700	4.08188	24.90525
-691.40625	0.00490	1.75403	10.12173	18.05662
-687.50000	3.22848	2.55985	9.71478	19.66941
-683.59375	1.21390	6.99209	0.44326	22.49097
-679.68750	-2.41234	3.76874	-1.57563	23.29796
-675.78125	2.42293	2.96284	5.26995	24.50781
-671.87500	2.82597	11.82735	10.50388	20.88258
-667.96875	0.40850	15.85664	6.47043	21.68955
-664.06250	-3.21778	12.63320	-3.20404	19.67605
-660.15625	-2.00890	6.58924	0.82111	16.05082
-656.25000	-8.45569	-1.46936	2.83163	20.88700
-652.34375	-11.27608	-7.51337	1.21583	20.88807
-648.43750	-8.85838	-4.28997	5.64395	15.24815
-644.53125	-13.69348	10.21550	9.66908	10.81706
-640.62500	-4.82887	18.67711	10.06784	11.22108
-636.71875	-2.00824	8.60394	5.22860	13.23684
-632.81250	-8.45506	1.75420	3.20983	20.08774
-628.90625	-4.42563	7.79820	6.83205	16.86530
-625.00000	0.40959	6.18647	5.21625	12.83697
-621.09375	1.21550	2.15717	1.58577	16.86726
-617.18750	4.03607	5.78354	9.23741	10.82434
-613.28125	0.40983	11.02165	10.03923	5.58724
-609.37500	-6.03693	11.02168	8.82637	11.22924
-605.46875	-8.45438	10.21579	6.80764	9.21562
-601.56250	-3.21613	4.17185	1.16257	7.20201
-597.65625	0.00746	6.18645	-1.66198	14.85879
-593.75000	0.81351	7.39518	-5.69539	12.44229
-589.84375	5.24581	1.75420	-0.46140	10.42871
-585.93750	4.84309	7.39526	1.14623	12.04143
-582.03125	12.49892	13.43927	-3.29008	20.90699
-578.12500	14.11088	9.41002	5.57041	30.98132
-574.21875	-2.81200	2.56030	10.40159	26.14728
-570.31250	-4.42354	1.35155	13.62110	24.13370
-566.40625	-4.82634	9.41021	14.82591	20.50833
-562.50000	-13.69065	9.81324	8.77790	11.64491
-558.59375	-5.63184	0.94875	12.80328	11.24295
-554.68750	2.42693	-3.08055	14.41102	9.22932
-550.78125	-6.84028	-4.69221	9.97480	8.02155
-546.87500	-9.25774	-4.28930	7.55328	10.03720
-542.96875	0.81566	1.75474	-0.91223	12.85865
-539.06250	8.06854	4.57530	-3.33380	15.68013
-535.15625	10.08342	2.96360	0.28861	15.27822
-531.25000	8.06899	3.36658	7.13446	13.66752
-527.34375	14.51597	-1.06566	8.33933	16.89195
-523.43750	15.72492	-4.28908	7.52947	16.89297
-519.53125	12.50160	0.94905	13.97228	20.11746
-515.62500	3.63728	4.17257	11.95361	27.37123
-511.71875	-2.80948	-1.06548	9.53205	19.31358
-507.81250	-6.83860	-1.46833	4.69285	11.25600
-503.90625	-9.65893	2.96394	-2.56384	14.88342
-500.00000	2.42915	10.21673	1.86452	16.49621
-496.09375	2.42937	9.41090	5.08409	12.46804
-492.18750	-2.80855	4.57578	2.66263	13.27497
-488.28125	-11.26988	2.15824	10.71736	13.67894
-484.37500	-5.62858	0.94950	14.33971	8.03883
-480.46875	8.47418	6.59060	6.68004	3.60759
-476.56250	10.48903	6.99355	4.66147	12.47303
-472.65625	7.26579	0.54678	10.70158	21.74143
-468.75000	4.04252	0.94966	15.93571	12.07208
-464.84375	3.23684	-3.07966	11.90250	10.46141
-460.93750	10.08687	-5.09424	5.85467	18.92400
-457.03125	14.92218	4.57622	-4.22245	22.95425
-453.12500	8.87838	7.79979	-5.83808	22.14935
-449.21875	6.46094	3.77060	8.66356	18.12109
-445.31250	4.84941	4.57656	19.53884	18.52502
-441.40625	5.65543	6.59132	22.75840	16.10847
-437.50000	0.82053	2.15918	18.32226	16.91535
-433.59375	0.41785	0.95050	12.67741	21.75156
-429.68750	2.83568	2.15937	7.83831	23.36434
-425.78125	7.67102	1.75654	-0.22424	26.99170
-421.87500	5.65654	3.77127	-2.24285	16.51652
-417.96875	4.44791	4.17422	9.03531	8.86193
-414.06250	10.08916	2.56258	17.09011	14.10110
-410.15625	10.49231	2.56273	17.48923	14.90800
-406.25000	8.07503	-1.86933	17.08240	12.08849
-402.34375	13.31325	-0.25750	16.27267	11.68664
-398.43750	10.09010	4.17492	11.03078	13.29942
-394.53125	2.03169	6.18969	4.98306	16.12105
-390.62500	0.01727	13.44251	1.35276	13.70451
-386.71875	1.22629	13.03969	7.39283	10.48203
-382.81250	-1.99697	5.78702	6.18005	7.66244
-378.90625	-4.41431	0.54900	-0.27082	10.08096
-375.00000	6.06210	5.38423	3.75456	8.87330
-371.09375	7.67409	9.81662	7.37709	3.23332
-367.18750	-0.38442	-1.46527	12.20839	1.62253
-363.28125	0.42139	-6.30034	9.38409	1.62331
-359.37500	4.85357	4.17597	4.54504	6.86216
-355.46875	4.04760	6.19077	4.94409	14.11566
-351.56250	4.45049	1.75873	8.16364	11.69884
-347.65625	6.46507	-0.65871	4.53323	4.44685
-343.75000	2.43574	1.35611	5.73807	6.86511
-339.84375	1.62981	0.55041	11.37524	15.32724
-335.93750	8.07665	-4.28470	12.58010	16.53673
-332.03125	3.64438	-1.86698	14.59088	15.32872
-328.12500	3.64435	6.19174	8.14014	13.31488
-324.21875	10.49413	11.42992	7.73327	14.52448
-320.31250	5.25609	9.41534	9.74394	21.77804
-316.40625	3.64440	2.96858	12.56049	18.15246
-312.50000	5.65906	-3.88102	19.80921	9.28873
-308.59375	4.04741	-7.10429	10.53784	10.09542
-304.68750	-1.59355	-1.06022	-3.56867	15.33435
-300.78125	5.25627	2.16334	2.87429	17.34982
-296.87500	5.25634	0.14884	8.51136	10.90389
-292.96875	-2.39917	0.95482	9.71624	4.45793
-289.06250	4.85362	1.76088	10.51816	2.84705
-285.15625	3.64482	4.17862	6.88780	6.47428
-281.25000	3.24192	6.59642	8.09260	8.08678
-277.34375	3.64501	4.17906	8.49144	5.26713
-273.43750	2.03340	-2.67044	10.90492	5.67093
-269.53125	8.48039	-6.29656	11.30369	6.47767
-265.62500	6.46587	-8.71384	1.22627	6.88160
-261.71875	6.46602	-1.05799	0.81930	6.47962
-257.81250	10.09257	9.01547	4.44153	4.46600
-253.90625	5.25750	8.20973	-0.80062	-8.42675
-250.00000	6.86940	5.79241	-0.80460	-26.55765
-246.09375	8.07838	2.16624	4.42949	-36.63006
-242.18750	7.27260	-2.66870	7.64887	-35.82331
-238.28125	7.27269	2.56956	6.03314	-41.06057
-234.37500	6.06396	8.21075	1.19391	-46.70078
-230.46875	4.45230	5.39051	0.78702	-48.31165
-226.56250	4.85526	-1.45901	6.42394	-45.08739
-222.65625	2.03469	-5.08517	15.68719	-41.86315
-218.75000	-0.38290	2.57077	17.69776	-47.10046
-214.84375	-1.18884	9.42079	6.81448	-56.77007
-210.93750	-6.02400	6.60048	2.78114	-52.74006
-207.03125	-10.85918	-1.05505	3.98593	-45.88953
-203.12500	-4.41234	-3.06948	-1.65918	-42.66533
-199.21875	4.45208	0.55719	-1.66326	-45.08213
-195.31250	-0.78599	6.19842	1.15315	-52.33412
-191.40625	-2.80062	11.83968	-4.89498	-46.69233
-187.50000	-4.81520	13.04864	-3.28739	-39.03580
-183.59375	-6.02398	5.39303	0.33491	-39.43796
-179.68750	-1.59176	-2.66541	10.40420	-36.61673
-175.78125	2.84049	1.36408	12.41482	-35.40717
-171.87500	0.82586	2.17011	6.76973	-35.40639
-167.96875	2.03463	1.36445	4.34808	-41.44953
-164.06250	4.85524	7.00558	1.12059	-41.04574
-160.15625	2.03473	12.24382	1.51958	-35.80681
-156.25000	6.06403	9.02060	7.55956	-33.79141
-152.34375	5.25822	0.15626	-0.10005	-25.32907
-148.43750	2.03482	2.57407	-10.58020	-28.14877
-144.53125	-1.18857	7.81241	1.50368	-32.17720
-140.62500	-10.45591	2.97745	9.96119	-24.52067
-136.71875	0.02035	-3.06625	7.13664	-20.89353
-132.81250	-2.80009	-0.64847	9.55016	-26.93661
-128.90625	-10.05280	-0.24545	5.51690	-29.75619
-125.00000	0.82643	-3.46868	-0.93398	-26.93476
-121.09375	2.03533	-3.87146	1.47960	-24.51626
-117.18750	-5.21731	-0.24495	2.28144	-26.12716
-113.28125	-3.20258	6.60511	-1.75184	-21.29108
-109.37500	-0.38189	5.79949	-6.99388	-10.00810
-105.46875	0.82705	-1.45304	-3.77430	-22.09512
-101.56250	8.48283	-0.64700	3.87750	-28.94400
-97.65625	5.66249	0.15906	9.91749	-20.88448
-93.75000	4.45384	-0.64658	7.09303	-19.27189
-89.84375	4.85700	3.78586	1.04508	-11.61551
-85.93750	6.87190	7.41236	2.65292	-6.37666
-82.03125	1.23115	5.80083	11.11053	-14.83747
-78.12500	0.02258	-2.25762	8.28600	-18.86615
-74.21875	3.24623	-3.06324	-13.47620	-17.65683
-70.31250	6.06694	6.60735	-11.06256	-14.02988
-66.40625	9.69358	5.80169	3.84195	-10.40295
-62.50000	2.84402	3.78722	11.89671	-12.01408
-58.59375	-5.21448	8.62259	9.47529	-13.22229
-54.68750	5.66477	9.42871	3.83035	-7.58071
-50.78125	14.52939	9.42899	0.60289	-9.19179
-46.87500	4.45639	8.62342	-0.20691	-15.23515
-42.96875	8.08307	9.42951	7.04186	-11.20527
-39.06250	5.66580	5.80337	6.63490	-13.21938
-35.15625	0.83103	-5.88141	-1.42769	-11.60720
-31.25000	4.86065	-6.28410	-7.07273	-10.39794
-27.34375	4.86091	-3.06042	-4.25609	-9.99446
-23.43750	2.44356	0.96906	2.99278	-7.97919
-19.53125	1.23499	7.01318	0.57131	-6.76974
-15.62500	2.44405	5.40170	-0.23841	-0.32219
-11.71875	2.04140	2.58146	2.98115	-0.32159
-7.81250	4.86221	0.16406	4.18601	-7.57387
-3.90625	5.26533	0.97010	0.15285	-1.93230
0.00000	3.65391	0.56747	0.55192	0.08286
3.90625	8.89226	2.58238	-5.49597	-3.14004
7.81250	8.08663	10.64119	-12.75259	-1.52775
11.71875	6.47508	9.02971	-0.26554	-0.72142
15.62500	3.25188	6.61230	8.19214	-1.52674
19.53125	-4.00066	-1.04321	6.17363	-1.12330
23.43750	-2.38875	-6.68397	4.96104	0.08600
27.34375	-4.00034	2.18070	-0.28089	-0.31639
31.25000	-14.87928	9.03080	-1.89653	2.90748
35.15625	-16.08793	12.65740	-1.49742	4.51970
39.06250	-22.53468	10.64303	0.11053	0.08791
42.96875	-30.99615	6.61399	2.52436	-0.31454
46.87500	-26.16086	5.80839	-1.91169	3.31228
50.78125	-24.95198	5.00273	1.71094	-1.11942
54.68750	-24.54885	6.61473	7.75108	-1.11882
58.59375	-18.50470	7.82380	7.74722	2.91106
62.50000	-16.48984	4.60063	6.53455	7.74685
66.40625	-20.51891	1.37742	3.71015	9.35917
70.31250	-23.74215	0.16885	0.88577	8.15098
74.21875	-20.11557	-3.05433	6.52308	10.16626
78.12500	-14.07144	1.78112	8.53395	7.74944
82.03125	-16.48886	9.03409	6.51546	11.77949
85.93750	-14.07107	6.21379	3.69111	12.58610
89.84375	-16.89137	5.81117	-3.96840	5.33409
93.75000	-20.11462	5.81142	2.87765	2.51437
97.65625	-18.90563	-4.26168	8.91783	3.32102
101.56250	-18.90544	-3.85851	6.49650	2.51596
105.46875	-10.44370	3.39451	2.46346	6.94902
109.37500	-11.24932	-1.03744	3.66852	9.77037
113.28125	-17.29310	4.20097	9.30576	1.71264
117.18750	-7.62251	12.25989	12.52548	0.90759
121.09375	-3.59295	10.24551	8.89545	-2.71783
125.00000	-3.59271	8.23113	2.84779	-5.53740
128.90625	-5.20419	10.24607	3.64985	0.10448
132.81250	-2.78633	9.84350	-0.38328	2.12005
136.71875	-0.36846	5.00864	2.03040	8.16492
140.62500	-0.77111	0.97972	7.26473	10.98643
144.53125	2.04967	2.18888	5.64936	10.58445
148.43750	-2.38223	3.80100	4.03393	9.37662
152.34375	-3.59070	9.03945	5.23906	4.94538
156.25000	-3.18738	11.05443	6.44417	9.78167
160.15625	0.03645	5.81664	5.63466	20.25892
164.06250	-5.20140	2.19055	3.21343	10.58954
167.96875	-12.45387	3.80261	4.01565	8.57590
171.87500	-16.88575	2.19113	11.26472	9.78578
175.78125	-22.12349	3.80317	3.60539	3.74297
179.68750	-7.21470	4.60932	4.00461	2.53529
183.59375	-6.40837	0.98317	16.89471	2.93930
187.50000	-8.01967	-2.24003	16.89104	4.14925
191.40625	-2.78110	-5.06022	5.60540	0.92690
195.31250	-3.98947	0.98403	6.00467	4.15145
199.21875	3.26374	5.41659	18.89487	5.76432
203.12500	-1.16803	3.40225	18.08551	8.58592
207.03125	-3.18224	2.19367	13.64975	14.63099
210.93750	4.07090	2.59684	11.63148	14.63212
214.84375	7.29473	2.59713	8.40435	11.81271
218.75000	3.66875	5.82087	3.16254	12.61963
222.65625	3.66909	10.65628	3.56180	11.00903
226.56250	6.48989	8.23896	7.18452	13.83062
230.46875	8.10192	-0.62513	4.76338	19.87563
234.37500	4.87872	-5.05709	5.56567	11.41512
238.28125	4.47600	-1.02751	12.41195	3.76052
242.18750	5.68500	8.24022	12.81139	9.40254
246.09375	-0.76166	15.09039	7.16680	6.58305
250.00000	0.85034	9.85259	5.55152	6.58403
253.90625	4.07394	5.42062	1.51866	11.82313
257.81250	9.31234	4.61509	7.55906	8.60073
261.71875	12.13318	0.18315	17.22585	12.22815
265.62500	4.47772	0.18342	13.99889	15.85564
269.53125	8.10435	2.60135	15.20415	13.43910
273.43750	9.31330	1.39293	14.39485	9.00792
277.34375	7.70184	4.61672	10.76504	5.78544
281.25000	12.53722	1.79654	13.58200	4.98047
285.15625	13.34331	0.99091	7.13156	4.98143
289.06250	12.94066	5.02047	1.08415	0.14724
292.96875	10.92618	5.82668	3.49829	-2.26949
296.87500	7.70289	7.43868	10.34460	-2.67150
300.78125	1.65908	13.48297	11.54990	-1.86474
304.68750	2.86802	10.25989	10.74051	9.01538
308.59375	7.70333	5.82808	11.94574	16.26913
312.50000	10.52398	9.45475	10.73338	7.80858
316.40625	10.92712	9.45514	5.49177	10.22700
320.31250	5.28621	6.63504	6.29413	18.28645
324.21875	3.27165	0.59140	11.12581	17.88436
328.12500	4.48055	2.20340	11.12242	19.89988
332.03125	9.31586	6.23307	2.65752	14.25975
335.93750	6.49554	5.02467	2.65406	12.24590
339.84375	2.86937	7.03970	10.30624	14.26146
343.75000	4.48124	14.29282	12.31738	17.48571
347.65625	4.48145	11.87567	15.94024	15.47198
351.56250	2.46707	1.80280	16.74260	3.38502
355.46875	3.27320	3.01190	7.47170	3.38592
359.37500	2.06467	2.60937	5.45352	7.01327
363.28125	2.87080	5.02731	10.68816	2.58194
367.18750	0.45333	6.23655	5.44663	10.23842
371.09375	1.66230	7.44582	-3.82426	13.05981
375.00000	5.28888	9.05805	0.60449	6.61384
378.90625	2.06567	6.23790	5.83919	6.21190
382.81250	-3.17219	-0.20862	11.47683	5.40703
386.71875	-3.17194	-5.04339	17.92033	7.01973
390.62500	1.66355	5.03021	15.90226	10.24406
394.53125	2.06675	13.49211	7.84015	15.08024
398.43750	4.08170	11.47782	5.82202	13.06660
402.34375	-3.17077	8.65770	7.43028	-1.43790
406.25000	-2.76760	11.47860	0.97992	-7.88382
410.15625	8.51463	8.65853	0.97652	2.59330
414.06250	9.32070	0.60037	13.06096	10.65286
417.96875	14.55907	0.19783	11.84879	13.47434
421.87500	21.40920	1.40702	6.20443	21.93688
425.78125	25.84158	5.83961	9.82751	26.37014
429.68750	29.87111	8.25751	12.24161	29.99751
433.59375	23.02148	6.64623	10.22351	32.41614
437.50000	12.14264	7.04956	10.62300	25.56737
441.40625	14.15752	7.85593	16.66348	24.76241
445.31250	16.57528	3.02115	11.42196	19.12239
449.21875	10.53150	0.60396	5.37462	22.74975
453.12500	11.33757	5.84245	4.96825	23.15370
457.03125	16.97888	5.84282	8.99410	17.51368
460.93750	16.17326	4.23147	4.55848	15.90302
464.84375	15.36765	5.03778	-3.50353	19.93333
468.75000	15.77074	5.44114	0.92538	27.59005
472.65625	12.54753	2.62106	7.77181	25.17347
476.56250	16.17415	7.45663	9.38013	22.75686
480.46875	18.99483	8.26287	12.60016	21.14617
484.37500	20.60679	1.41344	13.40262	21.14717
488.28125	16.17490	1.81678	8.96698	21.14820
492.18750	14.56343	1.01129	6.94898	23.96975
496.09375	15.77248	0.20583	8.96032	23.56781
500.00000	12.14636	1.01208	14.59805	21.95700
503.90625	19.39931	0.20667	8.95365	26.39025
507.81250	18.19068	-3.82217	6.53267	28.00295
511.71875	11.74393	2.22224	7.33506	24.37765
515.62500	16.98218	10.28127	-1.53286	19.94647
519.53125	15.37067	6.65531	-1.13331	11.88890
523.43750	10.53569	7.05859	6.51904	10.68117
527.34375	0.86563	7.46195	9.33622	16.32328
531.25000	1.67171	1.01543	10.94463	15.92134
535.15625	6.50708	1.41880	10.94136	13.90777
539.06250	2.47801	1.82225	4.08829	14.31180
542.96875	1.26950	1.41976	2.07034	16.32755
546.87500	7.71670	2.62901	7.30510	18.74619
550.78125	10.94041	1.82361	9.71935	16.73271
554.68750	5.29959	0.61521	7.70128	14.71929
558.59375	9.73208	-1.80198	2.86275	21.16740
562.50000	14.56750	-3.81615	3.26234	24.39209
566.40625	5.30031	-1.80104	1.64726	19.96103
570.31250	-4.36981	0.61702	-4.80292	19.55923
574.21875	0.46551	-0.59129	0.02885	27.21614
578.12500	9.73309	-2.60544	8.08410	36.88771
582.03125	6.50988	-1.79915	5.66321	40.91822
585.93750	7.71892	0.21586	2.43654	36.89013
589.84375	15.37479	-3.00721	7.67134	33.66784
593.75000	11.74858	-1.79798	10.08574	39.71298
597.65625	1.27265	3.03757	8.87374	34.47615
601.56250	2.07871	0.21747	8.46767	25.21003
605.46875	8.12291	0.62083	4.43519	30.04637
609.37500	6.51142	2.63592	-0.80615	32.46512
613.28125	5.30289	-3.81053	-0.80942	30.45164
617.18750	0.46802	-6.22769	-2.02149	26.42353
621.09375	-3.15806	-4.21262	-1.21893	18.76908
625.00000	2.88628	-1.79459	7.23928	21.18793
628.90625	0.87192	-1.39123	7.63886	25.21843
632.81250	1.67807	-7.43484	8.84445	34.89005
636.71875	5.30466	-9.44909	8.03543	37.71183
640.62500	6.11073	5.05684	1.18240	26.43102
644.53125	6.11099	9.08671	1.58200	25.22344
648.43750	7.32004	-0.18027	5.20518	33.28327
652.34375	9.73788	-5.82080	7.61950	36.10501
656.25000	22.63198	-2.99980	4.79575	45.37359
660.15625	29.48203	-2.19337	4.79250	51.01577
664.06250	27.06462	-2.99868	11.23621	51.01697
667.96875	32.30297	2.64281	10.42720	51.42118
671.87500	36.33250	3.04609	8.40940	52.63123
675.78125	35.52692	-0.17695	7.60033	48.60310
679.68750	34.72136	-0.57938	-3.68491	47.79832
683.59375	40.76556	-1.78770	-4.49393	51.82872
687.50000	39.95998	-1.38429	4.36741	52.63577
691.40625	33.51337	0.22786	7.18477	57.47208
695.31250	28.67851	-4.20398	7.58451	53.84691
699.21875	30.69349	-4.60645	2.74615	52.63937
703.12500	30.29081	-0.17383	0.72831	52.64057
707.03125	24.24712	-0.17335	3.14272	42.56845
710.93750	26.66497	-0.17285	-2.09865	42.97261
714.84375	25.05347	-3.79868	-13.38395	42.16796
718.75000	22.23323	-8.23039	-1.70218	38.94564
722.65625	23.03930	-3.39463	22.06755	41.76720
726.56250	16.18973	3.05275	28.10841	43.38004
730.46875	12.16070	8.29129	23.67304	39.75482
734.37500	20.62245	6.27710	21.65527	38.95017
738.28125	22.63734	-0.16925	18.83159	46.20398
742.18750	17.80235	1.04007	14.39614	38.14643
746.09375	12.96745	3.05522	8.34902	28.07422
750.00000	12.16183	1.04108	7.94289	36.13391
753.90625	12.96792	-5.80824	9.14852	35.32902
757.81250	14.98284	-5.80774	5.92189	30.09199
761.71875	17.80357	2.25141	-2.13988	30.09311
765.62500	17.40092	0.64029	-2.54595	31.70592
769.53125	15.38651	-2.98557	5.50953	29.69221
773.43750	16.19260	1.44719	12.35624	25.66392
777.34375	13.77526	5.87996	17.18814	34.93237
781.25000	6.92566	8.29803	11.94682	35.33628
785.15625	9.74626	3.46341	5.89976	24.86111
789.06250	21.83426	-1.37125	3.07617	26.87688
792.96875	19.81976	-0.56495	3.07305	24.46040
796.87500	12.16424	-0.56448	8.30805	18.01449
800.78125	5.71749	1.04766	8.30495	18.01550
804.68750	4.91186	2.65987	3.86958	16.40488
808.59375	6.12086	1.04862	7.08994	16.80884
812.50000	3.70353	-0.56259	3.86341	16.80989
816.40625	-0.72851	-0.56209	2.65149	13.58753
820.31250	4.10688	2.25896	6.27476	11.17106
824.21875	8.94235	5.48294	5.46575	7.14282
828.12500	9.34553	5.48346	10.70075	11.57607
832.03125	8.53996	2.66348	12.71233	14.39768
835.93750	-2.33882	-2.97707	12.70923	13.18991
839.84375	-8.38255	-1.76773	12.30317	13.59390
843.75000	2.49682	-1.76716	4.64428	16.81847
847.65625	6.12348	-6.60172	2.22359	20.44593
851.56250	2.09451	-4.98944	6.65269	21.25280
855.46875	0.88606	-4.58590	13.09656	24.07439
859.37500	-0.72538	-4.98826	4.63200	17.62871
863.28125	4.51305	-1.76423	-4.63844	9.16846
867.18750	9.75148	-2.56956	4.62586	18.03427
871.09375	1.29026	-1.36023	3.41397	12.79760
875.00000	0.88772	5.08715	4.61968	6.75509
878.90625	2.49974	5.89361	14.68986	8.36826
882.81250	-1.52921	-2.56740	12.26925	11.99609
886.71875	11.76774	-6.19325	13.47499	17.63849
890.62500	12.17090	-0.95458	11.86017	14.01364
894.53125	6.93310	4.68704	3.79843	16.43274
898.43750	12.57438	9.52275	5.00413	18.85172
902.34375	8.54535	5.89693	5.40401	15.62971
906.25000	2.90455	-3.77291	6.20696	18.04864
910.15625	3.30764	-6.59285	11.44200	20.06454
914.06250	6.12828	-0.54836	16.67702	16.84228
917.96875	12.17235	8.31662	13.04755	14.02294
921.87500	4.51667	3.88497	2.97121	9.59187
925.78125	2.90498	-1.35257	-0.65829	7.98135
929.68750	8.54598	2.27434	4.17383	10.40012
933.59375	1.29326	3.88667	8.60298	8.38667
937.50000	-5.95949	5.49896	5.77944	7.58191
941.40625	-0.72137	5.09663	5.77638	13.62692
945.31250	4.11379	4.69437	8.59379	12.01629
949.21875	5.32261	3.48619	0.12917	6.37629
953.12500	5.72559	0.26336	-7.52955	11.21250
957.03125	2.50210	5.09911	0.12295	11.61640
960.93750	2.50214	11.54661	8.98440	6.78227
964.84375	1.29344	2.68275	8.17550	5.57447
968.75000	-2.33279	-2.15185	3.33715	7.18720
972.65625	-2.73555	2.28103	4.54286	6.78528
976.56250	0.48810	1.07283	4.53982	7.59224
980.46875	5.72633	3.08809	4.13389	5.17571
984.37500	6.93528	3.89465	6.14551	-0.06126
988.28125	17.00870	3.08939	7.35124	4.77496
992.18750	16.60593	1.88124	7.75116	7.19357
996.09375	9.35339	3.09055	-2.32519	4.77687
1000.00000	5.32425	7.52338	-3.53702	11.62761
1003.90625	2.10090	1.07709	6.13031	12.03149
1007.81250	8.14503	1.88367	6.53012	11.22657
1011.71875	8.14519	3.49603	8.94471	8.81011
1015.62500	-0.31620	-2.14441	13.77685	7.19953
1019.53125	-3.94248	-0.12917	11.75921	6.79759
1023.43750	-4.34521	0.67733	4.10059	7.20164
1027.34375	-1.52458	2.69258	2.48587	6.79975
1031.25000	8.54883	7.52835	6.10926	15.26236
1035.15625	10.56371	0.27622	7.71797	22.11323
1039.06250	2.90827	-5.76713	9.72965	10.83218
1042.96875	-6.35893	-1.73723	6.50322	-4.47810
1046.87500	-18.04367	-5.76595	5.29147	-9.31215
1050.78125	-26.10205	-13.82392	4.48268	-6.08764
1054.68750	-23.68423	-16.64385	9.31493	-4.47491
1058.59375	-21.26624	-13.82268	18.17637	-10.11483
1062.50000	-25.69812	-7.77808	14.54697	-8.50191
1066.40625	-25.29484	-12.20971	14.94695	-6.88910
1070.31250	-20.86232	-15.43259	14.54111	-14.14074
1074.21875	-8.77407	-9.79095	15.74702	-8.90168
1078.12500	-3.93864	-5.35800	18.56460	-5.67720
1082.03125	-8.37059	-5.35727	14.12933	-10.91413
1085.93750	-20.45818	-11.80350	12.91758	-8.89854
1089.84375	-20.45780	-14.22042	14.12349	-0.03312
1093.75000	-7.56358	-3.74351	6.46479	-0.03204
1097.65625	-11.18958	2.30119	6.05891	-1.23972
1101.56250	-11.59208	1.49606	10.08529	1.58190
1105.46875	-7.15949	-3.33847	8.87362	4.80644
1109.37500	-5.95029	-2.93495	13.30296	2.38994
1113.28125	-5.54694	-4.14308	16.92640	-2.84700
1117.18750	-4.33772	-7.76876	12.89421	-1.63702
1121.09375	-10.38143	-7.36525	13.69722	-3.65050
1125.00000	-15.21634	-7.36462	17.32082	3.60338
1128.90625	-10.38098	-4.14044	16.91499	11.26020
1132.81250	-5.54550	1.50136	4.01837	7.63491
1136.71875	-2.32186	-3.33317	0.38927	14.08284
1140.62500	4.52811	-9.37651	7.23629	9.65166
1144.53125	2.91692	-9.37578	9.24804	-2.03205
1148.43750	-5.54424	-7.76343	10.85709	5.62480
1152.34375	-4.73814	0.29575	12.46605	16.50489
1156.25000	1.70897	4.32569	12.86608	15.69986
1160.15625	4.12672	3.52054	12.46037	9.65698
1164.06250	3.72415	3.52127	6.81659	10.06106
1167.96875	-0.70777	1.91025	1.17273	12.07674
1171.87500	-1.11058	-2.92431	6.00508	13.28652
1175.78125	6.54521	-6.14719	9.22571	8.45216
1179.68750	1.71024	-4.53484	1.56721	2.00623
1183.59375	-0.70738	0.70397	1.56449	3.61878
1187.50000	-3.12503	1.91345	7.60567	-2.42440
1191.40625	-1.91595	-2.11529	6.79692	-22.97285
1195.31250	6.94886	-3.32337	5.98815	-32.64199
1199.21875	2.51688	-4.93451	8.80582	-41.10249
1203.12500	-3.52677	-4.93394	13.63823	-49.16013
1207.03125	-1.10880	-4.12749	14.03839	-57.21766
1210.93750	1.71217	-4.12679	9.60336	-60.84311
1214.84375	-0.30225	-0.09681	5.57135	-63.66265
1218.75000	-6.74881	1.51558	-0.07241	-62.85563
1222.65625	-4.73373	0.71045	5.56591	-54.79589
1226.56250	-4.73346	0.30825	12.41305	-53.98904
1230.46875	-10.77706	-5.73504	14.42500	-54.79393
1234.37500	-6.34434	-8.15196	12.40750	-57.21027
1238.28125	-3.92631	-2.91316	7.56951	-60.83555
1242.18750	-3.92598	-2.91251	8.37263	-55.19348
1246.09375	3.32717	-8.14998	7.96709	-52.77479
1250.00000	-1.91037	-4.52294	8.36730	-51.56475
1253.90625	-7.55095	-0.89593	9.17048	-51.16073
1257.81250	-3.11849	1.52233	4.33254	-54.78600
1261.71875	0.50828	0.71710	5.13575	-49.94957
1265.62500	0.50874	-4.52039	-0.50769	-45.91912
1269.53125	3.32980	3.94180	-8.56870	-41.08260
1273.43750	2.52466	9.58353	-4.13919	-43.09580
1277.34375	-1.50389	1.92869	-0.91849	-43.49725
1281.25000	2.52631	-1.29399	0.69056	-31.81064
1285.15625	-0.29325	4.75071	3.91135	-33.01780
1289.06250	3.33391	6.76607	9.95271	-37.44835
1292.96875	6.96110	1.52873	11.56176	-32.61162
1296.87500	-1.49955	0.32070	9.94740	-30.99829
1300.78125	-0.28990	2.73900	8.73601	-32.20539
1304.68750	-1.09507	-0.48368	9.94226	-33.41276
1308.59375	0.92043	-2.90049	3.08985	-26.15867
1312.50000	4.95056	-6.92902	-4.97132	-19.71027
1316.40625	-1.09274	-14.58403	-0.94455	-22.52943
1320.31250	1.32551	-10.55402	8.32033	-24.94562
1324.21875	7.37012	0.32581	9.92956	-27.36178
1328.12500	6.96784	3.14710	9.52402	-28.56919
1332.03125	6.16260	0.32736	11.13314	-26.55320
1335.93750	3.74570	4.35744	4.68360	-20.91080
1339.84375	6.56684	8.79045	3.47223	-18.49197
1343.75000	6.97050	4.76183	0.24631	-14.46145
1347.65625	9.79161	-6.11666	-9.42658	-3.58090
1351.56250	19.46244	-9.33932	-4.59386	2.86730
1355.46875	16.64241	3.55531	0.23885	-7.60770
1359.37500	0.92890	11.61460	-0.97250	-18.48551
1363.28125	-8.33799	14.03291	4.26299	-33.79555
1367.18750	-14.78433	12.01897	5.06623	-42.65872
1371.09375	-26.46872	10.40791	-2.18906	-42.65757
1375.00000	-24.45363	13.22913	-8.23560	-46.28305
1378.90625	-26.87077	9.60335	-6.62636	-52.32605
1382.81250	-37.34645	4.36597	-9.85228	-56.75740
1386.71875	-42.98697	5.57552	-18.31628	-59.57712
1390.62500	-43.38940	1.94985	-24.76554	-55.54714
1394.53125	-39.35965	-2.48167	-32.82656	-58.76992
1398.43750	-37.74745	2.75723	-22.75576	-57.96328
1402.34375	-29.68848	7.99609	-1.80580	-43.05421
1406.25000	-23.64415	5.98220	5.04142	-40.63603
1410.15625	-22.83794	3.56534	1.81551	-37.81491
1414.06250	-17.19641	1.55133	0.60420	-38.62000
1417.96875	-16.79287	1.55201	-3.83054	-31.36632
1421.87500	-14.37493	-0.05904	-7.86223	-27.73925
1425.78125	-9.53929	-1.26701	-6.65582	-30.55911
1429.68750	-10.74750	-0.86331	-11.09049	-26.52915
1433.59375	-7.52356	-2.87721	-15.92797	-18.06693
1437.50000	-3.09094	-1.66760	-16.33333	-15.64847
1441.40625	-5.91096	3.97429	-8.68026	-18.46808
1445.31250	-13.56600	9.21319	-1.02722	-22.09350
1449.21875	-13.16247	6.39345	-0.22382	-18.46616
1453.12500	-9.13267	0.75331	-0.62914	-12.82419
1457.03125	-7.52037	-2.46935	0.17423	-12.01753
1460.93750	-0.67004	-0.05108	0.97758	-14.43425
1464.84375	-7.11642	4.78498	0.57224	-13.22454
1468.75000	-11.95106	6.39741	-0.23603	-13.62652
1472.65625	-7.11533	9.62157	-1.44717	-15.64023
1476.56250	-1.47375	6.80194	-7.49367	-8.78954
1480.46875	4.16771	0.75881	-3.46679	-1.53587
1484.37500	1.75066	-3.67271	6.60405	2.09144
1488.28125	-1.47226	-3.26901	7.81052	-6.77210
1492.18750	-4.29240	3.98439	9.41992	-13.21803
1496.09375	0.14014	10.02898	3.37367	-7.57620
1500.00000	-0.66520	8.82088	-10.32833	-9.18705
1503.90625	-3.08232	7.20985	-9.92772	-9.99189
1507.81250	10.61783	10.83706	-6.70655	-2.33521
1511.71875	14.24455	10.03204	-11.14127	-2.73724
1515.62500	7.39510	1.16822	-5.90553	-5.55681
1519.53125	7.79850	-0.03978	0.94195	0.48801
1523.43750	10.61932	5.19917	5.37180	-2.73458
1527.34375	6.18753	1.97648	13.42813	-7.97168
1531.25000	6.18801	3.18591	6.97897	-2.32964
1535.15625	6.18841	4.39544	-0.67898	2.90948
1539.06250	2.96547	4.79911	0.52764	-5.95390
1542.96875	4.57766	7.62037	1.33127	-9.17635
1546.87500	-0.66013	4.80064	0.12025	-2.72865
1550.78125	-2.67442	5.20422	5.35613	-4.33938
1554.68750	2.16127	-0.03322	-2.30186	-7.96468
1558.59375	3.37060	-9.70282	-11.97444	-6.75470
1562.50000	-4.68743	-0.03180	-1.50056	-5.94772
1566.40625	-10.32802	14.07155	1.31760	-6.75262
1570.31250	-1.86595	12.05772	1.31520	-5.94566
1574.21875	-2.67116	5.20868	1.31286	-1.10930
1578.12500	-7.50583	-0.43153	0.50478	0.10055
1582.03125	-4.68495	-2.84835	-3.12392	-7.95723
1585.93750	0.15053	5.61393	-7.15549	-8.76218
1589.84375	-1.46072	11.65865	-5.54592	-1.91128
1593.75000	-1.86334	8.43605	-7.15981	-1.50735
1597.65625	-6.69821	2.79587	-4.74445	-5.53563
1601.56250	-2.66834	2.39366	5.72950	-3.11692
1605.46875	-0.25032	1.18556	5.32448	-2.71304
1609.37500	0.15271	-1.63420	-1.52754	-2.30917
1613.28125	4.58542	1.58998	-4.35037	-6.33752
1617.18750	0.95969	4.81423	-6.36719	-3.11301
1621.09375	6.19827	4.41214	-2.34012	4.14096
1625.00000	3.78119	4.01006	1.28413	2.12751
1628.90625	-5.48577	8.44297	2.89375	-4.72121
1632.81250	-0.65011	10.86131	4.10046	-7.94348
1636.71875	5.39431	6.42988	-2.75146	-5.92763
1640.62500	-0.24629	0.38679	-10.00636	-1.49438
1644.53125	-5.08135	-3.23876	-6.78485	-3.50831
1648.43750	-4.67817	-7.67024	-2.75766	0.92481
1652.34375	1.36632	-6.46066	-5.17762	5.35812
1656.25000	-1.05096	0.38994	-5.98566	-1.08770
1660.15625	-7.09471	7.24047	-10.01701	-2.69845
1664.06250	-1.05042	10.06175	-3.97518	-5.11492
1667.96875	4.99404	4.01868	2.46949	-5.11397
1671.87500	5.80041	1.60188	2.87024	2.54277
1675.78125	10.63601	-1.62079	8.50923	2.94682
1679.68750	4.18948	-4.44053	4.07495	-3.09615
1683.59375	-4.27163	-1.21640	-7.61214	-7.12450
1687.50000	2.57858	4.02244	-3.58487	0.12935
1691.40625	3.78781	4.42614	4.06874	7.38327
1695.31250	-1.44997	-2.01996	2.85793	2.14623
1699.21875	2.17671	-1.61618	-1.97929	-2.68807
1703.12500	0.16255	0.80224	0.43628	-2.28408
1707.03125	-0.23991	0.40005	4.46370	0.53744
1710.93750	4.59564	-2.41965	0.43237	2.95595
1714.84375	3.79028	-3.62770	2.04198	-3.08718
1718.75000	7.01422	4.43166	3.24878	-5.90683
1722.65625	10.23817	8.46178	-10.04997	-5.09984
1726.56250	4.19458	0.80695	-10.05203	-9.12828
1730.46875	1.77749	0.80775	0.42207	-7.11276
1734.37500	13.06000	3.22606	2.43464	4.17027
1738.28125	22.32783	-8.45809	7.26786	18.67669
1742.18750	16.28432	-10.47188	6.05724	9.41023
1746.09375	-6.27940	2.42267	-0.79435	-9.52662
1750.00000	-13.12884	0.81176	5.24765	-8.31690
1753.90625	-14.73992	-6.03733	10.48376	-15.16575
1757.81250	-22.79799	-4.42481	10.48177	-20.40290
1761.71875	-23.60327	-2.40935	9.67388	-24.02824
1765.62500	-21.58802	-3.61734	2.82197	-26.44481
1769.53125	-22.79636	-5.63118	-0.40341	-21.20571
1773.43750	-18.76656	-6.43620	4.02700	-15.16070
1777.34375	-9.49864	-12.07640	9.26313	-10.72739
1781.25000	-6.67761	-12.88140	9.66403	-8.71165
1785.15625	-9.09470	-7.64250	6.43855	-10.72522
1789.06250	-4.66212	-9.25353	10.86901	-10.72440
1792.96875	-3.85593	-2.40301	12.47891	-5.08252
1796.87500	-7.07889	4.04466	11.26825	-3.06685
1800.78125	-9.09314	1.62792	12.87807	3.78399
1804.68750	-7.88388	4.85221	3.20579	4.59092
1808.59375	-7.07750	4.04724	0.38339	2.98029
1812.50000	-5.86813	-1.19000	2.39610	4.19015
1816.40625	-3.45000	-3.60682	-0.42628	4.59402
1820.31250	-9.09067	-1.99433	0.78055	-1.85199
1824.21875	-5.46379	1.63290	7.62844	-14.34182
1828.12500	-4.65743	4.45421	15.68515	-11.52013
1832.03125	-6.26868	2.84333	11.25101	0.56897
1835.93750	5.01371	1.63530	-4.86784	0.57000
1839.84375	2.59652	-1.58734	1.57735	0.57106
1843.75000	-2.23812	-3.60117	13.66350	5.00440
1847.65625	-1.83480	-2.39149	8.42371	8.63173
1851.56250	-0.62566	-0.77892	5.19835	2.58889
1855.46875	5.82169	2.04244	13.25508	0.57533
1859.37500	9.04560	2.84912	16.07373	4.20272
1863.28125	7.83715	8.08809	10.43072	0.98036
1867.18750	8.24049	9.29776	7.20537	1.38431
1871.09375	10.65852	4.46338	2.36846	-1.43519
1875.00000	10.25608	6.07605	1.56087	-4.65750
1878.90625	11.46519	3.65936	3.97668	-0.22412
1882.81250	9.04807	1.24256	8.00428	3.40331
1886.71875	2.19871	-0.36828	10.82304	4.61320
1890.62500	3.00494	-4.39669	9.61247	10.65810
1894.53125	6.22869	-2.78416	3.16394	15.89721
1898.43750	2.60284	5.27532	-6.10521	11.46626
1902.34375	-1.82897	10.91729	1.14566	8.64694
1906.25000	-1.42566	9.30648	9.60533	10.25982
1910.15625	-5.85760	11.32206	8.79756	4.61988
1914.06250	-3.03666	8.90537	14.43683	0.18889
1917.96875	4.21658	3.66814	17.65867	2.60752
1921.87500	-5.05044	1.25138	5.97199	5.42911
1925.78125	-8.67636	-1.97129	-0.07363	0.19233
1929.68750	-5.04945	-0.76170	8.38629	1.80516
1933.59375	0.59214	2.46253	11.20510	0.19468
1937.50000	-0.61631	2.86634	6.36824	-4.23639
1941.40625	-2.22770	2.46429	0.72566	1.80853
1945.31250	3.41367	2.46521	1.52992	4.22717
1949.21875	1.39922	0.85437	1.52831	3.82529
1953.12500	-0.61517	-2.36836	1.92961	6.24391
1957.03125	2.60867	-1.96468	9.58357	11.08010
1960.93750	2.60888	-1.56093	14.41716	5.03718
1964.84375	4.22082	-0.75433	16.43026	3.82951
1968.75000	9.05630	2.46993	11.99638	10.27758
1972.65625	5.02733	3.27660	3.53322	6.24929
1976.56250	10.26579	6.50085	-0.90062	6.25041
1980.46875	10.26606	9.72513	1.91833	7.46041
1984.37500	9.05758	3.27900	4.33447	6.25258
1988.28125	2.20805	-0.34659	4.33293	11.49177
1992.18750	-1.82088	4.08635	-1.30974	10.28413
1996.09375	6.23808	5.29588	-3.32604	3.03247
2000.00000	0.19454	4.08802	3.11921	-2.20445
2003.90625	0.19502	-1.95512	5.13220	2.22897
2007.81250	2.21006	-8.40107	10.36859	12.70625
2011.71875	3.82213	-4.77389	16.81405	11.90150
2015.62500	0.19604	4.89733	10.76868	-3.40880
2019.53125	2.21112	12.95685	1.09678	-6.63116
2023.43750	13.89670	8.52551	0.28938	6.66669
2027.34375	1.40641	1.27363	0.28781	2.23558
2031.25000	-4.23426	4.09504	-8.98099	-8.23951
2035.15625	6.64517	0.46952	-15.02656	-4.61199
2039.06250	4.22807	0.06744	-13.01362	-7.02839
2042.96875	6.24321	3.69479	-0.52435	-4.60955
2046.87500	5.43776	0.87522	9.95036	-0.57910
2050.78125	4.63229	-0.73561	11.15760	-6.21902
2054.68750	0.20040	1.68296	9.54440	-4.20328
2058.59375	-3.02256	0.47506	6.72235	-2.18748
2062.50000	9.87183	-4.76213	7.92956	3.85773
2066.40625	14.70747	-1.94075	4.70465	9.90298
2070.31250	5.84348	2.49235	-4.56421	0.23388
2074.21875	6.64986	1.68744	-6.58049	-3.39132
2078.12500	9.47077	4.91191	-7.79086	0.23626
2082.03125	3.02436	3.70405	-0.13662	-1.77736
2085.93750	-3.82508	-6.36826	8.32343	-6.20836
2089.84375	4.63684	-5.15852	5.90440	-2.98367
2093.75000	12.29304	3.70685	0.66484	1.04682
2097.65625	9.47291	-2.73916	-3.76873	-2.57846
2101.56250	4.63817	-7.57345	5.49731	-4.59192
2105.46875	0.60938	1.29186	6.30175	-2.97889
2109.37500	2.22158	6.12805	-2.56414	-3.78354
2113.28125	9.07196	6.53192	-7.80361	-3.37937
2117.18750	6.65489	-1.12279	-7.40211	-2.57233
2121.09375	0.20854	-5.95704	3.87844	-7.80922
2125.00000	2.22376	-3.13553	9.92093	-3.77873
2128.90625	5.44776	-1.92586	3.06968	5.89282
2132.81250	7.86587	1.29847	1.05360	3.87941
2136.71875	9.47797	1.29933	7.09633	-0.55167
2140.62500	5.04628	0.09150	9.51268	-2.16217
2144.53125	6.25554	3.31598	6.69080	1.86837
2148.43750	10.68821	2.10819	2.66027	3.07836
2152.34375	14.31506	-2.32317	2.65900	8.72067
2156.25000	11.89796	-0.30762	-5.40099	11.13969
2160.15625	5.45168	0.09618	-3.38774	5.09707
2164.06250	7.46692	2.11183	-4.59789	-1.34853
2167.96875	-2.20289	-2.31941	-11.44910	-11.42045
2171.87500	-5.82876	-13.60051	3.45798	-9.00156
2175.78125	4.64803	-12.39086	11.91818	-4.97089
2179.68750	5.05154	-5.54008	6.27588	-8.99891
2183.59375	3.44030	2.51940	3.45402	-6.98295
2187.50000	2.23202	6.14673	4.25856	-4.16108
2191.40625	-0.99094	6.55056	-0.57788	-6.98031
2195.31250	-3.00503	9.37209	-6.22027	-15.03762
2199.21875	1.83073	2.12032	-3.40117	-11.40990
2203.12500	4.65175	-3.92274	-2.99948	-2.14120
2207.03125	5.86112	0.10754	-0.58315	-4.55755
2210.93750	8.27921	2.12315	8.28014	-8.58563
2214.84375	-0.18184	-1.50234	11.50232	-8.98729
2218.75000	-0.98718	-10.36578	5.86000	-10.19465
2222.65625	1.83389	-11.57361	3.84408	-11.40215
2226.56250	0.22260	-2.30530	0.61945	-7.37156
2230.46875	3.44658	2.12795	-5.42569	-5.35565
2234.37500	-1.38807	2.93483	-3.00938	-0.92215
2238.28125	1.83590	2.12998	-0.19018	3.91427
2242.18750	7.47748	-2.30131	-4.22076	7.54193
2246.09375	5.06047	-0.68868	-9.86305	9.96074
2250.00000	4.25507	0.11816	-0.99974	4.32106
2253.90625	6.67314	-2.70133	5.04296	-2.12456
2257.81250	5.46471	2.13481	9.87688	-8.57025
2261.71875	10.70324	-0.28184	8.66692	-6.55435
2265.62500	11.91259	-4.31013	3.42756	0.69960
2269.53125	1.43696	-2.69743	2.62042	-1.71678
2273.43750	-0.57711	-1.08467	-6.24520	-0.50670
2277.34375	1.03513	0.12500	-6.64931	3.92677
2281.25000	4.66195	2.14061	-0.20354	-0.50421
2285.15625	4.25948	-3.49947	-5.03982	-4.93512
2289.06250	1.43938	-8.73656	-4.23515	-8.56026
2292.96875	-0.97773	0.53186	4.62812	-10.17072
2296.87500	4.66392	5.36802	5.43287	-8.15491
2300.78125	3.85862	0.93686	4.22291	-7.34783
2304.68750	-0.57315	-0.27097	3.41596	-1.30264
2308.59375	6.68008	3.75926	-0.21152	4.33959
2312.50000	7.48642	3.76022	-1.42143	1.11736
2316.40625	9.90451	-1.07394	2.20388	-0.89606
2320.31250	7.08455	-2.28177	8.64971	0.71689
2324.21875	-0.57059	2.55433	3.41044	-1.29651
2328.12500	-0.57008	1.74949	-6.26107	-5.32460
2332.03125	-2.58425	-0.66707	-2.63582	-7.33803
2335.93750	-0.56913	-1.87487	-4.24862	-7.33683
2339.84375	0.23719	-8.72368	-0.22039	-5.32101
2343.75000	1.84936	-5.09633	2.59909	-5.31988
2347.65625	7.89377	4.57491	0.98632	1.53111
2351.56250	5.47671	4.57591	7.43206	6.77037
2355.46875	-0.96968	3.77103	6.62499	5.56276
2359.37500	-3.38676	3.77196	4.60933	5.96695
2363.28125	-3.78918	0.95242	7.42895	3.14766
2367.18750	-9.02675	-4.28472	5.81619	-0.07462
2371.09375	1.04701	-0.25447	-10.70499	-2.08808
2375.00000	7.09141	-1.46231	-12.72067	-2.08688
2378.90625	1.85379	-8.31108	5.00719	1.94356
2382.81250	3.06305	-4.68371	5.81192	-1.27871
2386.71875	-0.15988	3.77885	2.18450	1.54303
2390.62500	-4.99449	7.40620	4.19806	3.15606
2394.53125	-2.17335	0.96035	3.39112	-4.09550
2398.43750	5.07992	-9.91779	4.19595	-0.46798
2402.34375	1.85698	-10.72263	-1.44600	-2.88428
2406.25000	-7.40990	-5.88648	-9.50548	-7.71821
2410.15625	-5.39467	-3.06486	-3.05957	-6.50822
2414.06250	3.06746	-2.66091	4.59504	-4.08946
2417.96875	2.66506	-0.24228	0.96768	-6.10290
2421.87500	4.68028	2.17637	-2.25677	1.55400
2425.78125	6.69549	-1.44901	-3.06358	4.37584
2429.68750	8.30779	-3.05973	-2.66164	-0.45806
2433.59375	9.51713	-2.65583	8.21653	5.99012
2437.50000	1.45905	-0.64015	9.02139	-0.45552
2441.40625	-2.56975	-0.63908	0.55887	-1.26016
2445.31250	3.07180	-0.23500	-1.45665	5.18789
2449.21875	8.71329	4.60126	-9.11314	-1.66081
2453.12500	9.11680	1.37887	-6.69651	-2.06250
2457.03125	2.67041	-5.46988	4.18167	7.20612
2460.93750	-0.55252	-3.45417	4.98652	12.84832
2464.84375	-1.76076	3.79961	4.17975	3.58210
2468.75000	1.46320	6.21821	-3.87975	-1.65488
2472.65625	5.49301	-1.43649	-7.91005	0.76390
2476.56250	6.70231	-6.67352	-2.26996	3.58553
2480.46875	6.29982	-5.86661	2.56421	5.60134
2484.37500	9.12089	-0.22452	1.35453	1.57321
2488.28125	8.31562	5.01462	-7.10793	0.36562
2492.18750	7.51027	6.22447	-15.16749	5.20197
2496.09375	11.94306	2.59911	-13.15373	9.63543
2500.00000	9.12314	-1.42917	-1.06660	0.36923
2503.90625	4.28848	-11.50136	9.81166	-6.07653
2507.81250	6.30368	-13.91788	7.79614	1.58024
2511.71875	7.11017	4.21508	0.94544	2.79021
2515.62500	-1.75381	11.06595	-2.68188	-0.02910
2519.53125	0.66437	7.44061	-5.90613	-0.02790
2523.43750	7.11189	2.60653	1.34578	-1.63846
2527.34375	2.68023	0.99594	3.35959	-3.24899
2531.25000	5.09842	2.20580	-1.07345	-2.03904
2535.15625	7.91950	-1.01663	0.94039	1.58848
2539.06250	4.69664	-4.64202	5.77477	-0.42499
2542.96875	0.26499	-3.43220	-0.26994	-3.24430
2546.87500	6.71241	-1.01360	-8.32930	-1.22848
2550.78125	9.53343	4.22553	-4.70367	4.01082
2554.68750	4.69890	7.04708	0.13079	-0.42027
2558.59375	6.31126	3.82470	-7.52569	-5.25428
2562.50000	-2.55257	-4.63574	-13.97337	2.80557
2566.40625	-4.56666	-4.63470	-5.51257	9.25379
2570.31250	2.28366	0.20147	3.75413	3.61410
2574.21875	0.67250	-4.63264	9.39449	1.60091
2578.12500	-1.34162	-0.60230	6.17028	-2.02396
2582.03125	1.47937	5.44268	3.75193	-4.44016
2585.93750	0.27111	-0.60019	2.54244	-0.00647
2589.84375	5.91273	-12.28409	6.57105	6.44198
2593.75000	7.92790	-7.85075	3.34697	12.48748
2597.65625	5.51086	9.47636	-11.15924	7.65385
2601.56250	14.37597	13.90962	-14.78628	-0.00032
2605.46875	10.34730	8.26975	-9.54885	-4.83390
2609.37500	0.27467	1.82397	-0.68511	-3.62362
2613.28125	4.30465	3.03382	5.35826	-1.60745
2617.18750	1.08190	0.61725	7.77516	-0.39717
2621.09375	-4.55855	-3.81391	7.77448	2.82770
2625.00000	-3.75211	-3.00688	9.78846	-2.40895
2628.90625	0.27771	-0.58821	8.17610	1.21892
2632.81250	8.73979	1.83053	-5.12127	-2.40608
2636.71875	4.30807	0.21981	-12.77762	-5.22513
2640.62500	1.08514	-1.79391	-7.13716	-1.19439
2644.53125	11.96474	0.62471	-1.89965	0.01589
2648.43750	12.36824	-4.20936	-5.92960	2.03201
2652.34375	9.95123	-9.44640	-14.79469	-1.59300
2656.25000	5.92261	-0.17797	-8.75124	-1.99450
2660.15625	4.31153	6.26993	-1.49904	2.43913
2664.06250	3.90927	11.10605	2.93260	8.88733
2667.96875	3.50690	12.71879	5.75244	6.06819
2671.87500	7.93971	8.28771	8.16946	4.86076
2675.78125	6.32855	8.69171	6.96011	6.87682
2679.68750	6.73210	-0.17164	4.94490	2.04306
2683.59375	2.70339	-6.21447	5.75018	0.02973
2687.50000	-4.14578	-2.58705	-3.51786	1.64273
2691.40625	5.52508	0.63739	-6.33892	-2.78811
2695.31250	7.13741	2.25012	0.51037	-6.81611
2699.21875	3.51156	-1.37524	3.73328	0.03510
2703.12500	5.92969	3.05805	2.92691	4.87160
2707.03125	-0.11368	5.47662	4.13517	5.67877
2710.93750	-2.53062	-5.40141	5.74630	0.44205
2714.84375	-3.73883	-6.20617	3.73117	-6.80945
2718.75000	0.69402	9.50925	1.71609	-7.61396
2722.65625	5.52988	12.73374	0.90978	-0.76279
2726.56250	2.30711	6.28801	0.50638	-1.16448
2730.46875	-3.73615	0.64803	4.53520	-6.80429
2734.37500	6.74072	-4.58905	0.50541	0.44988
2738.28125	12.78531	-1.76753	-6.74782	-0.35469
2742.18750	-0.51078	1.05403	0.10158	-5.18856
2746.09375	4.32501	-0.55674	8.96560	-11.23125
2750.00000	9.56380	-0.55572	7.35346	-15.66220
2753.90625	5.13232	3.07171	2.92079	-11.22863
2757.81250	-2.11972	5.89327	4.53206	-10.82446
2761.71875	-6.55130	8.71482	7.75509	-5.58514
2765.62500	-0.50665	5.08955	7.75466	-10.41901
2769.53125	-5.74405	2.67301	1.71024	-18.07344
2773.43750	-8.16097	0.25648	-12.79567	-14.44577
2777.34375	0.70422	-7.80101	-11.58727	-13.23573
2781.25000	8.36059	-4.57653	4.93243	-15.24915
2785.15625	9.56998	1.46840	7.75251	-21.29192
2789.06250	3.92966	-1.75399	12.58728	-11.62035
2792.96875	2.31864	-1.75293	9.76630	-3.96342
2796.87500	-0.90410	6.30676	-3.93370	-5.97683
2800.78125	-4.52970	4.29317	-0.71070	-8.79611
2804.68750	-7.75238	-7.39080	6.94469	-13.63004
2808.59375	-10.97505	-13.03082	8.15312	-12.01708
2812.50000	-5.33324	-2.15057	2.10876	-13.22460
2816.40625	-6.94431	0.67102	0.49658	-10.80585
2820.31250	-5.33182	-3.76014	-4.74188	-6.37240
2824.21875	-4.52522	-3.75902	-6.35385	-0.73007
2828.12500	-6.13618	-4.16081	5.73367	-0.72884
2832.03125	-6.53844	-1.33925	7.74791	-9.18923
2835.93750	-6.13482	1.88523	4.52407	-9.99390
2839.84375	0.31272	3.90089	-8.77301	-11.60445
2843.75000	11.19256	3.09607	-10.78802	-4.35046
2847.65625	6.76101	-0.12627	8.95526	1.69471
2851.56250	-1.29687	1.08368	14.99889	-2.73626
2855.46875	2.33020	0.27884	5.73115	-0.31753
2859.37500	0.71924	-0.52599	-4.34243	-2.33111
2863.28125	-2.50349	2.29560	-6.76036	-7.16529
2867.18750	-9.75560	2.69951	4.11851	-8.37321
2871.09375	-5.72569	-2.94042	14.59449	-7.16353
2875.00000	1.12480	-3.74527	14.19136	-8.37147
2878.90625	-0.48633	3.10568	12.17656	-7.96766
2882.81250	-1.29148	5.52441	12.57925	0.89762
2886.71875	-6.12590	-0.51837	8.54964	0.09258
2890.62500	-4.11049	-6.15822	2.50531	1.30223
2894.53125	-0.48343	-3.73955	0.08740	2.51187
2898.43750	-2.90037	-1.72378	2.50455	-1.51671
2902.34375	-4.91431	1.90369	6.13062	-0.30706
2906.25000	-2.89892	1.90470	2.90691	-7.55893
2910.15625	1.53406	-5.74992	-1.12263	-1.51415
2914.06250	7.57869	-2.52528	0.08588	6.14237
2917.96875	12.41455	1.10232	2.50312	7.75499
2921.87500	13.62393	-3.73174	4.92045	8.15872
2925.78125	10.40124	1.10463	4.51733	-3.52542
2929.68750	4.35789	3.52332	5.32311	-3.52452
2933.59375	5.56738	1.50980	5.32290	2.92330
2937.50000	11.20914	2.71972	4.91972	0.90961
2941.40625	7.98632	-0.09968	4.51652	-3.11873
2945.31250	1.13719	-6.54550	3.30755	-4.32659
2949.21875	1.13786	-4.12681	0.88978	0.91246
2953.12500	0.73550	3.12706	-3.94547	2.92806
2957.03125	1.13912	-0.09528	4.11302	-1.10026
2960.93750	2.34858	-3.72055	14.58905	-2.30813
2964.84375	3.15513	-0.09301	15.39474	8.16900
2968.75000	6.37909	-1.70367	11.76829	14.21386
2972.65625	8.39440	-4.52305	8.14186	4.54447
2976.56250	14.43900	-1.29846	3.30655	3.33663
2980.46875	13.23088	3.53778	2.90346	8.57572
2984.37500	11.61983	1.52422	2.90332	5.75623
2988.28125	22.09674	5.15177	-0.32031	9.78663
2992.18750	16.45647	6.76460	0.48538	7.77301
2996.09375	5.98095	0.72181	2.49992	2.53594
