 	TP9	AF7	AF8	TP10	
-1000.00000	8.25031	7.18037	4.41327	1.79458
-996.09375	11.87598	6.37405	2.80091	1.53822
-992.18750	8.65188	0.73259	8.03840	5.08894
-988.28125	-3.03378	-0.87948	10.85833	3.15134
-984.37500	-1.42284	-1.68579	4.81367	3.14876
-980.46875	11.47016	3.55190	-12.11001	-3.10860
-976.56250	8.24598	12.41603	-14.12530	-10.90697
-972.65625	-8.27487	11.20689	3.60300	-5.68469
-968.75000	3.40948	6.77428	3.19940	4.39155
-964.84375	15.89975	3.55042	-3.24812	3.07118
-960.93750	13.88447	5.16177	2.39238	0.44207
-957.03125	8.24269	5.16141	2.39181	3.63296
-953.12500	7.43613	-1.28587	4.80872	4.09119
-949.21875	10.25593	-2.89792	8.43446	-2.01296
-945.31250	11.06106	-2.09243	6.82205	8.64170
-941.40625	6.62818	-1.68990	2.79210	12.04494
-937.50000	-0.62515	7.98012	-0.83491	5.26798
-933.59375	-11.50486	6.36804	0.37325	7.82231
-929.68750	-3.44695	3.94999	1.98436	5.29322
-925.78125	2.19343	4.35249	5.61020	8.57985
-921.87500	-0.62773	0.32271	-2.04605	10.34642
-917.96875	13.87714	1.93409	-20.58137	10.51797
-914.06250	17.50280	2.33665	-12.52334	13.16265
-910.15625	4.20540	6.36548	1.17569	-1.49329
-906.25000	-4.65965	12.81186	2.78676	-18.06638
-902.34375	1.78667	10.39385	10.03892	-10.69674
-898.43750	5.81537	2.73767	18.49986	2.86260
-894.53125	5.81483	-2.50089	16.48457	6.41143
-890.62500	9.84347	-4.11302	11.64879	3.81745
-886.71875	1.38129	-2.09876	8.42473	0.02269
-882.81250	-3.85743	3.13892	9.63292	9.35640
-878.90625	-3.85807	6.76480	15.67623	16.55073
-875.00000	-6.27630	5.15268	5.60235	7.71364
-871.09375	0.57285	5.95809	-9.70967	-0.93675
-867.18750	7.01906	3.13716	-2.86040	5.63154
-863.28125	11.85346	-0.48964	3.58589	9.66481
-859.37500	7.82344	-7.33981	1.97352	6.45486
-855.46875	9.83742	-11.36951	-2.05638	4.98034
-851.56250	7.82209	-1.69962	1.16649	-0.84860
-847.65625	-2.25184	1.52341	10.83627	3.59564
-843.75000	-1.04370	1.92587	11.23856	11.98776
-839.84375	4.19371	-0.89510	6.40280	11.25613
-835.93750	7.41645	-1.29846	5.59632	8.68639
-832.03125	7.81869	9.17731	2.77511	1.26018
-828.12500	9.42982	14.41490	-7.70175	-1.24930
-824.21875	2.98224	13.20556	-8.50820	2.22433
-820.31250	-1.45080	10.78749	2.77331	-1.27904
-816.40625	2.98065	7.56361	8.81673	-0.91271
-812.50000	9.82972	5.95148	3.57819	0.55333
-808.59375	6.60561	3.93638	-0.85454	6.00515
-804.68750	-0.24498	2.32423	-1.25806	8.17774
-800.78125	0.56019	-1.30261	-3.67624	-3.34798
-796.87500	1.36539	-7.74998	0.75532	-8.50640
-792.96875	6.60279	3.53157	-0.85699	-3.37325
-789.06250	9.01966	11.18680	-4.48396	4.80989
-785.15625	4.58665	4.33651	0.75356	6.07686
-781.25000	5.39179	4.73887	7.19988	5.85627
-777.34375	5.39106	4.73837	5.99050	9.67735
-773.43750	2.16686	3.93208	8.40751	12.44601
-769.53125	-2.26611	1.91698	9.61574	7.65537
-765.62500	-2.26680	-5.33623	4.37709	1.16069
-761.71875	2.97059	-3.32202	-1.26459	-0.25899
-757.81250	9.81965	5.54196	-8.92089	3.67460
-753.90625	10.62477	9.57085	-10.93618	5.29916
-750.00000	5.38591	7.15278	-7.71332	6.48290
-746.09375	3.37050	-0.90624	-7.71392	7.93584
-742.18750	1.35504	-4.93592	1.55287	6.51235
-738.28125	1.35429	-4.53348	12.02842	-1.13075
-734.37500	5.38286	-5.33980	12.43077	-2.25119
-730.46875	9.81429	2.71833	10.41555	-1.12570
-726.56250	8.60477	11.17941	3.56520	-4.21904
-722.65625	2.96295	14.80532	-8.12031	-7.27152
-718.75000	2.15643	11.58147	-10.13552	1.70827
-714.84375	4.57330	2.71650	1.95175	13.16401
-710.93750	-2.68019	2.31323	6.78626	7.39351
-707.03125	-1.06918	5.93918	0.33875	7.00479
-703.12500	2.55646	7.95336	-2.48246	7.95103
-699.21875	-0.66767	3.52061	-0.46844	-2.71720
-695.31250	-0.26556	1.50545	-3.28952	-11.31414
-691.40625	2.95709	1.10208	-5.70768	-6.64207
-687.50000	1.34471	-6.55407	-0.87300	3.73228
-683.59375	-0.67061	-12.19554	-5.30580	4.23220
-679.68750	-5.50657	-10.18128	-5.70936	-6.75166
-675.78125	-9.53662	-8.16715	0.73691	-8.80042
-671.87500	-7.92558	-6.55601	-1.27832	1.89531
-667.96875	4.16157	-2.93018	-5.30820	2.48468
-664.06250	8.99593	5.12790	-6.92050	-1.50325
-660.15625	2.54823	8.35095	-7.72700	6.52857
-656.25000	1.33871	12.37994	-6.51875	7.40741
-652.34375	-5.51191	12.37962	1.94220	-1.64724
-648.43750	-9.94497	8.75277	10.00020	-10.83992
-644.53125	-9.94578	3.11124	6.77615	-5.62758
-640.62500	-11.15524	-0.11274	3.14911	6.50072
-636.71875	4.96118	5.52779	3.14841	9.50591
-632.81250	12.21314	5.52735	3.55070	8.91940
-628.90625	0.12446	1.49758	-0.88215	3.64863
-625.00000	0.52648	-4.54688	-7.32963	2.33638
-621.09375	4.55503	-16.23238	-10.15072	6.46186
-617.18750	11.40412	-10.99471	-16.19527	7.56696
-613.28125	13.01498	4.31632	-13.77828	8.61231
-609.37500	10.19367	9.15106	2.33842	4.85214
-605.46875	4.55177	4.71830	8.38178	3.85570
-601.56250	-1.89586	-0.11733	5.96353	4.80129
-597.65625	-1.49377	1.89690	3.94826	1.18725
-593.75000	-1.49466	0.28476	3.14181	2.66875
-589.84375	-3.51018	-0.11854	6.36460	2.84373
-585.93750	-5.52560	-0.11902	-0.48589	6.18394
-582.03125	-1.49705	-3.74595	-14.18606	9.57796
-578.12500	9.78421	-1.32881	-9.75446	11.31798
-574.21875	3.33658	4.31185	7.16798	8.81613
-570.31250	-2.30525	7.13195	9.18197	2.05589
-566.40625	9.78184	0.28163	-4.11530	-0.75042
-562.50000	11.79564	-3.34516	-7.33932	12.33135
-558.59375	5.75088	-0.52509	-4.11649	14.99138
-554.68750	-3.92022	-0.12258	-0.89363	2.87738
-550.78125	-11.17381	-0.92888	-0.08836	1.27955
-546.87500	-8.35408	-0.92933	-7.34179	-1.23214
-542.96875	4.53893	0.68188	-5.73083	-3.45762
-539.06250	8.56754	-3.34792	3.53601	3.74561
-535.15625	2.92579	-7.37775	-0.49395	3.38615
-531.25000	-1.50717	-14.63111	-2.10633	-1.50003
-527.34375	3.73017	-17.45219	-0.09236	0.30821
-523.43750	0.50592	-4.15598	-11.37503	0.08780
-519.53125	-0.70369	4.30514	-7.74929	-3.48197
-515.62500	10.98042	7.12521	-8.15272	-6.17929
-511.71875	9.77078	7.93060	-17.01779	-9.50702
-507.81250	-1.10914	1.48322	-3.72166	-0.96403
-503.90625	1.30773	-6.57584	9.97728	6.04542
-500.00000	9.36552	-8.99392	12.79712	-0.64791
-496.09375	6.54419	-0.12993	6.75239	-0.43566
-492.18750	-1.51527	4.30182	0.30488	4.25430
-488.28125	-3.53073	-2.14560	-2.91924	3.81652
-484.37500	5.33298	-5.77249	-4.93457	1.11964
-480.46875	10.57031	-0.93778	-5.74116	-1.45213
-476.56250	9.76367	6.31442	-3.72711	1.27479
-472.65625	5.73362	13.56664	-11.38345	2.31032
-468.75000	-3.53459	10.74564	-14.20463	-2.67528
-464.84375	-1.92356	3.08959	-0.90869	-4.21200
-460.93750	5.32855	1.47743	3.11981	4.17890
-457.03125	9.35716	-0.94054	-0.10439	-0.24300
-453.12500	0.89489	-0.53807	3.11837	-5.66898
-449.21875	-3.53808	0.67026	3.52063	-1.50091
-445.31250	-1.52414	-4.16543	-0.50943	-4.70985
-441.40625	-1.12191	2.28090	-1.31595	-9.54210
-437.50000	-0.31685	9.13008	-7.36054	-10.63138
-433.59375	-7.97325	8.72655	-9.77884	-2.76180
-429.68750	-15.22682	7.11439	-9.77952	8.14624
-425.78125	-5.15428	5.50213	-7.76547	6.07440
-421.87500	4.91822	1.06941	0.29250	-3.53055
-417.96875	5.72333	-3.76627	6.33568	-1.28315
-414.06250	9.34901	-9.40776	9.15538	1.36073
-410.15625	6.12478	-9.00532	4.31944	5.71698
-406.25000	3.70641	11.14076	-2.53122	5.98092
-402.34375	6.12331	20.00461	-11.79943	0.85891
-398.43750	7.33144	14.36304	-12.20315	10.87723
-394.53125	4.51021	11.94497	-2.93658	0.24997
-390.62500	-2.34032	8.31817	-3.34029	-12.41527
-386.71875	-1.13222	5.09421	-3.34101	-4.18354
-382.81250	6.11989	2.27321	-5.75937	-8.86430
-378.90625	3.70161	1.46677	-12.60997	-4.77362
-375.00000	-1.13425	5.09268	-4.55221	4.78447
-371.09375	1.28270	9.52445	2.29680	0.08733
-367.18750	2.89370	10.32980	0.28128	-3.06184
-363.28125	4.50463	2.67360	1.89209	-5.70288
-359.37500	3.29516	-2.96792	3.10009	-13.58478
-355.46875	3.29442	-0.55093	2.69636	-13.64589
-351.56250	-1.54154	0.25438	0.68092	-1.90437
-347.65625	-8.79497	1.86559	-4.15510	-3.94978
-343.75000	4.50113	3.47677	-3.35015	-6.17603
-339.84375	9.73862	2.67041	-5.36565	-2.66297
-335.93750	5.30575	3.87871	-13.42511	-0.24352
-332.03125	8.12554	5.48994	-11.00846	-1.87000
-328.12500	-0.73961	0.65429	-0.13019	-0.39920
-324.21875	-4.76966	2.66840	4.70412	3.41688
-320.31250	2.88529	3.87663	8.32972	5.42732
-316.40625	-0.33888	3.87610	8.73177	4.69725
-312.50000	-3.96590	9.51670	1.88114	-2.22745
-308.59375	-2.35491	8.71032	-2.55195	-8.12307
-304.68750	-12.83182	3.87464	-0.94106	-11.17194
-300.78125	-16.86185	3.87412	1.87860	-8.65490
-296.87500	-1.55128	5.88825	-7.38956	-2.04843
-292.96875	2.07436	1.85843	-8.59914	6.69297
-289.06250	-7.19380	-0.55970	-6.18235	4.30792
-285.15625	1.66982	2.66325	-6.98906	3.24518
-281.25000	1.26617	5.88620	-0.94603	1.82975
-277.34375	-3.56968	7.90029	-1.34988	-10.00602
-273.43750	2.07068	8.70559	1.87270	-4.12076
-269.53125	6.50214	3.46697	9.12461	5.86886
-265.62500	9.32179	-0.15990	8.31796	3.95888
-261.71875	-2.76698	-3.78683	6.70538	5.04974
-257.81250	-3.17066	0.64488	-4.17456	3.79030
-253.90625	-3.17142	6.28542	-8.20470	-4.44939
-250.00000	-6.39555	0.64383	-0.14693	-3.43928
-246.09375	5.28875	-2.17726	2.67271	-2.58250
-242.18750	6.49679	0.23975	-0.14867	3.42294
-238.28125	-2.77143	4.67155	-0.14956	5.49326
-234.37500	-9.21905	-3.79050	5.08766	0.87091
-230.46875	-2.77297	-7.01447	9.51907	6.60398
-226.56250	1.65858	-0.16517	3.07135	4.17196
-222.65625	0.44907	1.44593	1.86177	0.17312
-218.75000	1.25421	7.89229	1.86099	-1.27186
-214.84375	-2.77592	8.29477	-3.37799	-0.65157
-210.93750	-1.16496	11.11479	0.65038	5.37642
-207.03125	1.65471	12.72603	-5.39445	4.07714
-203.12500	4.47440	4.26407	-10.23043	7.38876
-199.21875	3.66776	1.44299	-4.99314	17.74305
-195.31250	2.05531	2.24834	3.06467	15.15801
-191.40625	6.48685	5.87409	13.13717	8.18987
-187.50000	10.11247	5.06767	13.13643	9.22242
-183.59375	-2.37913	0.63491	7.49469	14.19127
-179.68750	-9.22969	-2.18612	2.65877	9.75300
-175.78125	0.84282	-7.42475	-4.19179	3.57270
-171.87500	3.66253	-4.60480	-1.77500	8.19425
-167.96875	1.24418	-1.78488	2.65640	8.32655
-164.06250	1.24344	-0.17367	3.86440	10.91063
-160.15625	-1.57781	5.86977	5.07235	3.76790
-156.25000	-8.02534	5.86923	1.84804	-3.17414
-152.34375	-3.59387	5.06278	-4.19668	3.37524
-148.43750	4.86697	5.86807	-3.79447	-1.42912
-144.53125	9.29853	3.85291	0.63696	-8.09283
-140.62500	10.50659	2.64358	-2.58726	-3.83896
-136.71875	12.92339	4.65774	-6.61731	5.39246
-132.81250	10.10215	9.49250	-6.21507	21.13192
-128.90625	1.23691	1.03047	1.84278	28.30805
-125.00000	-5.61367	-9.44623	3.05078	17.62125
-121.09375	-11.65832	-5.01450	1.84113	12.71929
-117.18750	-2.79466	0.62602	3.04910	7.10998
-113.28125	5.26323	5.86369	7.07755	-0.18428
-109.37500	-6.01957	8.28080	6.67371	2.85077
-105.46875	-5.21452	8.68314	1.83771	2.63277
-101.56250	-1.58895	4.25040	4.65748	5.49341
-97.65625	0.02215	-3.80884	8.28322	16.07947
-93.75000	3.64776	-7.43575	5.86490	11.95344
-89.84375	2.84106	-4.21284	1.83483	3.59148
-85.93750	3.24317	0.62181	0.62522	4.96428
-82.03125	-5.21919	4.65070	-3.00198	6.31409
-78.12500	-4.81704	11.09713	-7.43504	8.92905
-74.21875	6.46433	11.90239	-11.06218	5.56604
-70.31250	2.83710	12.30474	-5.82484	-4.92653
-66.40625	-4.41652	7.46894	1.42713	-2.78180
-62.50000	-6.83493	2.23028	-2.20002	2.69088
-58.59375	-2.00046	2.22966	-9.45355	1.77556
-54.68750	4.44563	3.43785	-3.00739	-1.21466
-50.78125	-3.21077	5.04905	5.05045	-0.54109
-46.87500	-7.64384	5.85430	3.43804	5.18342
-42.96875	-4.82415	7.06253	1.42263	3.89145
-39.06250	-5.22785	3.43560	7.46584	5.89962
-35.15625	-0.79643	1.01757	-2.20532	8.53362
-31.25000	9.27599	-0.19168	-12.27936	7.88438
-27.34375	6.45468	2.62838	-2.60985	6.70032
-23.43750	3.23044	6.65714	1.01581	0.24526
-19.53125	4.43838	-0.59622	3.83555	1.95886
-15.62500	-4.82976	-6.64074	6.25238	2.97787
-11.71875	-4.42759	-1.80615	0.61060	3.02382
-7.81250	4.83898	2.22267	-1.40475	9.42543
-3.90625	8.06167	5.04260	-1.00251	4.24345
0.00000	2.82282	5.44490	-4.22672	-1.58599
3.90625	2.01616	6.65316	-10.27149	13.54575
7.81250	5.23878	8.66731	-3.42246	15.09757
11.71875	-0.00010	3.83160	11.08231	4.49581
15.62500	-4.83608	-1.40705	9.87280	3.39588
19.53125	-3.22510	3.42761	0.60469	2.11389
23.43750	2.01226	3.83010	1.81272	3.56970
27.34375	4.02615	-0.60264	7.05005	3.41034
31.25000	2.41366	3.02326	4.63170	6.82167
35.15625	11.68033	13.49890	-1.41291	2.94155
39.06250	10.06782	8.66308	-4.63703	-1.44772
42.96875	4.82890	-4.23128	-3.02599	4.07406
46.87500	9.66322	-5.84359	-0.20622	5.03163
50.78125	0.39504	1.00579	-5.84803	2.30147
54.68750	-6.05255	0.19941	-4.23703	7.71588
58.59375	-3.63577	-6.24794	3.01492	8.27730
62.50000	-10.08341	-4.63675	7.84928	4.17791
66.40625	-14.11346	-4.63729	11.87783	5.05239
70.31250	-1.62338	-1.01148	8.25083	3.82979
74.21875	2.80805	4.22598	3.81795	-5.24730
78.12500	2.00135	5.43411	0.19092	-4.97535
82.03125	9.65619	4.62771	0.59306	0.65673
85.93750	-0.41780	-3.02846	6.23335	-2.16814
89.84375	-14.11818	-3.43196	5.82966	-2.69436
93.75000	-10.49259	-2.22371	-2.22964	-0.48887
97.65625	3.60915	-0.20962	-16.33285	1.50457
101.56250	17.71092	3.41612	-19.55697	6.80601
105.46875	5.62216	0.99803	-3.44050	4.32223
109.37500	-5.66063	-2.22592	13.48191	-5.18174
113.28125	1.18849	-8.67338	19.12226	-6.61569
117.18750	3.60528	-9.07693	14.68933	-0.08543
121.09375	0.38106	-6.25693	13.07674	1.67189
125.00000	-0.42556	-4.24277	12.27011	-1.26498
128.90625	-12.11136	-5.45213	4.21081	-8.06394
132.81250	-14.52968	-6.25858	-0.62510	-5.09206
136.71875	-10.09826	-1.02110	3.00061	1.13338
140.62500	-11.71078	0.99294	3.80575	-8.70294
144.53125	-7.68229	-1.42524	1.79036	-9.25983
148.43750	-4.45952	-9.08154	4.20726	1.95687
152.34375	-3.65442	-8.67919	-0.22567	4.48645
156.25000	-2.44643	-3.84466	-6.27030	5.56378
160.15625	2.38791	-3.03936	-1.43586	4.69103
164.06250	5.61058	2.60103	-1.83947	1.69212
167.96875	2.78932	5.42092	-3.04902	-0.90612
171.87500	3.99732	-1.83243	0.57654	-5.68121
175.78125	5.20530	-6.66813	2.99336	-8.55209
179.68750	-5.67465	-7.87747	5.41022	-2.87246
183.59375	-6.07832	-9.48972	6.61823	-1.85313
187.50000	-6.07910	-9.08740	0.17063	-4.96705
191.40625	-16.95907	-1.83521	-11.51514	0.26761
195.31250	-10.51298	3.40232	-9.90417	-0.51802
199.21875	-0.84344	2.19299	0.16848	-3.99552
203.12500	3.18509	4.60992	9.03226	-2.97392
207.03125	-0.44204	5.01226	12.65796	-5.39081
210.93750	0.36303	3.39988	7.01624	-7.88625
214.84375	4.79447	2.59343	5.40387	-7.80648
218.75000	6.00244	-2.64524	7.82068	-1.09686
222.65625	3.98699	-3.85463	-1.85036	-1.67114
226.56250	1.97159	-6.27275	-8.70095	-3.38559
230.46875	1.56787	-5.87044	-3.46358	-0.72731
234.37500	-5.68564	-1.43878	2.98260	-7.44976
238.28125	-4.47763	4.20165	-3.06206	-13.51813
242.18750	-1.65796	8.23034	-9.10670	-3.18420
246.09375	-7.29974	3.39453	-0.64592	5.88396
250.00000	-8.50933	-3.05293	6.60606	6.03164
253.90625	-13.74824	-6.27701	9.02291	3.77615
257.81250	-3.27285	-6.68060	7.41048	-4.19077
261.71875	14.45526	-9.90465	2.97754	-4.29092
265.62500	14.85735	-4.26417	-3.87292	-3.36958
269.53125	9.61850	2.18217	-4.27653	-5.33696
273.43750	3.97677	2.58450	2.97554	-7.97360
277.34375	1.15548	5.00155	-0.65152	-8.57283
281.25000	-3.68056	2.98634	-10.72534	-9.42442
285.15625	-0.05494	4.59743	-3.47322	-6.56732
289.06250	-4.89086	-1.04420	9.41982	-0.17978
292.96875	-16.97947	-7.89467	14.25421	-6.43449
296.87500	-8.11575	-5.88065	11.43301	-10.14515
300.78125	-1.26681	-5.47829	7.80590	-4.48393
304.68750	-6.50576	-4.26999	7.40226	-3.70985
308.59375	-3.68609	-4.67345	4.58095	-3.47759
312.50000	0.74530	-9.10627	3.77440	5.57378
316.40625	-6.10541	-5.07746	3.77374	3.98561
320.31250	-0.86816	7.41278	-11.13532	-3.57327
324.21875	2.35439	8.62100	-15.97100	-4.87099
328.12500	1.95063	6.20282	-3.48077	-4.35017
332.03125	1.14402	3.78458	2.56251	3.47374
335.93750	-7.31827	2.17233	4.97943	-0.43002
339.84375	-6.91613	5.39521	6.59043	-7.49976
343.75000	-8.93149	0.15659	5.38099	-12.06574
347.65625	-2.48527	-4.27609	6.58904	-11.66101
351.56250	6.78139	-0.65030	4.97663	-4.67487
355.46875	6.78059	0.55788	-1.47093	-3.24564
359.37500	7.18279	2.97488	-7.51546	-2.56483
363.28125	7.98786	0.95960	-7.11309	1.70159
367.18750	1.54016	-1.05566	-7.51664	1.18458
371.09375	5.56869	-1.45916	-3.89092	-1.94722
375.00000	4.35907	-1.86268	3.36112	-4.86398
378.90625	-6.11792	5.79239	4.56924	1.15668
382.81250	-14.17735	11.02985	-2.28116	-5.47494
386.71875	-19.01333	8.20880	-3.89349	-21.41772
390.62500	-23.04355	-0.25334	1.34388	-16.54781
394.53125	-7.73306	-4.28330	-0.26847	-13.74668
398.43750	16.84484	3.37167	0.93976	-14.87098
402.34375	15.63524	4.17692	2.55092	-11.03191
406.25000	2.74060	1.75866	-1.07597	-3.71604
410.15625	-0.48365	3.36973	-7.52354	-8.58477
414.06250	0.72434	2.16036	-8.73309	-21.83474
417.96875	-2.90291	3.36847	-2.28691	-11.96796
421.87500	-3.30678	-0.66146	-1.48178	-1.27102
425.78125	-7.73997	-1.46789	0.53217	-6.55277
429.68750	-9.75537	6.59022	6.17254	-8.27679
433.59375	7.97278	8.20149	5.36603	-8.57863
437.50000	9.18072	4.57452	2.54488	-4.64107
441.40625	-1.69923	-2.27588	2.94727	-2.38420
445.31250	-0.08824	1.75278	-3.09723	-1.72260
449.21875	-6.53592	3.76676	-5.51542	1.30038
453.12500	-5.32792	-3.48662	-10.35118	-4.60002
457.03125	5.95329	-7.11366	-16.39576	-8.20185
460.93750	7.56415	-5.50257	0.12374	-1.47807
464.84375	5.14583	4.57006	10.19630	2.31383
468.75000	-6.13701	10.21053	6.56915	0.40530
472.65625	-6.54080	4.56888	12.61242	0.57823
476.56250	-8.95926	0.13601	13.82054	-5.72833
480.46875	-10.97472	2.15006	6.97017	-9.43336
484.37500	-6.94624	1.74652	11.80470	0.72094
488.28125	-1.30604	5.77523	10.19242	-2.09658
492.18750	6.34888	6.17759	2.93908	-6.33985
496.09375	6.34811	0.13296	-0.28499	-2.05631
500.00000	-1.71134	0.93817	-2.30028	-4.49324
503.90625	-12.18832	0.53457	-10.35950	-8.51611
507.81250	-6.54803	3.75742	-13.58355	-9.02487
511.71875	-1.31066	4.15974	1.72721	-6.81864
515.62500	-0.90840	4.56206	10.99399	-2.42475
519.53125	-1.71505	7.38206	8.97873	-1.16485
523.43750	-4.93930	3.35223	6.96347	-0.01334
527.34375	-2.52249	5.76928	2.12767	-0.63480
531.25000	-3.73202	11.81269	0.91820	-12.54205
535.15625	-2.52395	8.58870	2.12635	-17.30993
539.06250	3.92222	-1.08215	3.33456	-12.74565
542.96875	0.69800	-6.72381	2.12516	-0.36403
546.87500	3.51771	-1.88932	-9.56042	10.98713
550.78125	18.02238	6.16863	-12.38146	6.71130
554.68750	14.39515	9.39142	-1.50298	0.83378
558.59375	2.30642	7.37616	10.98721	2.66739
562.50000	3.11164	2.13760	12.19539	-4.33140
566.40625	3.51377	0.12232	10.18011	-7.19909
570.31250	-2.53095	2.13643	10.17949	-1.03619
574.21875	-5.75512	2.53875	7.76127	0.02752
578.12500	-1.72650	-2.69989	7.35770	-0.45850
582.03125	-5.35351	-4.71509	2.52188	-6.67799
585.93750	-15.42752	-1.08926	-5.94019	-10.46702
589.84375	-9.38427	4.14825	-8.76125	-10.80086
593.75000	-3.74405	8.17691	-3.92663	-8.04291
597.65625	-2.93894	2.53527	-3.52430	-1.57458
601.56250	5.52188	-1.09160	0.10149	5.89234
605.46875	-3.34327	-1.89800	10.57701	-1.63633
609.37500	-19.46126	-3.91319	10.97926	-14.52280
613.28125	1.49034	4.54771	2.92005	-6.05148
617.18750	21.63613	9.78513	2.91941	11.40565
621.09375	9.95032	8.17283	7.35103	16.05222
625.00000	2.29377	8.17228	6.14157	9.21973
628.90625	9.14288	8.57451	3.32043	10.36299
632.81250	10.75387	6.96211	4.12562	18.08982
636.71875	17.20003	3.73798	2.11034	15.11095
640.62500	15.18459	0.51390	3.31846	16.14489
644.53125	7.12516	-0.69549	0.09429	17.66969
648.43750	9.54193	1.72150	-4.74161	12.28322
652.34375	8.73536	5.34724	3.31636	11.59790
656.25000	6.31702	5.34665	6.53906	14.77840
660.15625	12.36013	5.74900	3.71790	11.00432
664.06250	13.16520	6.15134	-0.71499	-0.46219
667.96875	13.56739	4.53896	-7.16246	-0.29942
671.87500	17.59591	8.56765	-5.95435	3.08142
675.78125	20.81859	8.56706	-1.92562	1.14009
679.68750	21.62372	2.92551	0.49127	-0.17640
683.59375	13.16143	5.34251	-3.13578	-4.07694
687.50000	10.34019	0.50678	-4.74823	1.22458
691.40625	9.13064	-9.56706	-0.71957	9.86739
695.31250	7.92104	-6.34423	4.11499	13.27939
699.21875	7.11442	7.35473	2.90550	13.22427
703.12500	4.69610	12.99515	-0.31860	7.22869
707.03125	5.50120	5.74176	-3.13971	4.76881
710.93750	9.93266	3.72650	-3.54331	9.79564
714.84375	11.14070	4.12888	1.69417	8.88800
718.75000	10.73702	6.54587	2.90237	6.47941
722.65625	2.27472	10.57455	3.70757	4.03998
726.56250	-4.97876	8.96221	4.91571	5.49882
730.46875	14.36118	11.37919	2.49742	4.47867
734.37500	18.38968	7.75219	4.51134	2.47088
738.28125	7.50978	-0.30700	8.94286	2.15197
742.18750	1.86801	0.49824	10.15098	3.28002
746.09375	2.67313	4.92988	5.31522	5.43064
750.00000	8.71644	6.13808	-3.14697	7.21434
753.90625	5.89518	0.89933	-2.74473	9.33894
757.81250	0.65627	-1.51901	6.11917	6.28432
761.71875	1.05848	1.70370	4.50684	-5.12529
765.62500	6.69872	3.31472	1.68576	-3.89630
769.53125	3.87744	3.31409	6.52031	3.90157
773.43750	5.08541	2.50768	5.71387	3.70446
777.34375	7.90514	5.32760	2.08694	5.17552
781.25000	4.27801	6.13292	3.69797	6.22258
785.15625	13.54475	3.31181	2.48847	7.33546
789.06250	25.63196	3.31125	4.90540	13.88184
792.96875	20.39318	9.75754	4.50184	7.32576
796.87500	17.16905	15.80083	1.68079	-0.36970
800.78125	20.79478	10.96503	-0.73739	7.90910
804.68750	21.19695	9.35273	-4.76725	16.56284
808.59375	34.89577	12.17261	-0.73855	24.26302
812.50000	43.75945	11.36618	5.70765	27.05276
816.40625	38.92361	9.35096	8.12453	25.91111
820.31250	38.51994	7.73855	5.30338	28.54130
824.21875	34.89282	7.73789	8.52612	34.66565
828.12500	35.29498	4.91676	14.97240	40.28461
832.03125	46.57627	4.51318	11.74841	44.35092
835.93750	53.02236	2.09503	3.68932	39.69422
839.84375	46.57478	-3.54667	4.89757	37.09224
843.75000	36.09785	-5.56197	14.97023	49.95884
847.65625	40.12639	-1.13034	16.98424	52.27730
851.56250	45.76662	3.70416	12.55143	45.52087
855.46875	48.58644	-4.75802	8.92446	40.97865
859.37500	34.88605	-14.02602	7.31220	33.15793
863.28125	26.02081	-8.38556	6.90863	27.79086
867.18750	28.84045	-0.32757	0.86403	32.84296
871.09375	24.40733	-0.73116	-5.98642	34.59230
875.00000	24.40650	0.07407	-4.37532	30.56910
878.90625	21.18223	5.71450	1.26498	30.43668
882.81250	22.79308	9.34030	4.08488	22.15463
886.71875	24.80675	6.51916	2.06960	16.63528
890.62500	17.55300	-0.33120	6.90408	16.80410
894.53125	10.29925	-1.94352	10.12687	14.91127
898.43750	7.07479	-1.13819	9.72329	19.65914
902.34375	15.53525	2.08473	9.31978	15.72325
906.25000	20.77227	3.69597	8.51327	10.10163
910.15625	16.74187	-0.33386	6.90097	12.70630
914.06250	19.56139	2.08314	1.25931	17.37466
917.96875	21.17207	7.72361	-1.15885	12.91258
921.87500	21.97689	6.91718	6.89912	17.76492
925.78125	13.51431	-1.94793	12.94246	22.51149
929.68750	13.91614	-9.60413	9.31550	9.40661
933.59375	19.55620	-5.57536	8.91191	10.15691
937.50000	15.12298	4.09450	1.65847	13.01656
941.40625	16.73371	-0.74123	-3.98323	10.14781
945.31250	11.49465	-8.39746	4.07468	8.73821
949.21875	12.29967	2.07814	4.07408	2.07146
953.12500	17.13395	7.31555	-4.38804	0.91348
957.03125	6.25400	4.89738	-5.59744	3.04653
960.93750	1.01507	8.92607	-3.18048	1.33272
964.84375	8.26698	5.70203	-3.98702	5.44924
968.75000	11.89248	-4.37183	-2.37602	4.80435
972.65625	10.27997	-4.37247	4.87610	2.53785
976.56250	8.26452	-2.76140	6.89013	5.96837
980.46875	3.02567	-3.16487	4.87484	5.82469
984.37500	-2.61616	7.31068	3.26245	-1.05405
988.28125	3.42698	13.75696	-0.36463	1.08625
992.18750	3.42615	10.53287	-1.57401	7.77705
996.09375	-6.64799	8.11467	4.46935	5.26039
1000.00000	-1.81370	6.09936	2.45408	-0.55288
1003.90625	4.22942	2.47232	-2.38171	-4.72676
1007.81250	-6.65051	0.05409	0.43818	-5.45498
1011.71875	-12.69529	-0.75242	3.66104	-5.12709
1015.62500	1.40638	2.06749	-3.59228	-3.10792
1019.53125	5.83779	2.46976	-7.21923	-4.90731
1023.43750	5.43405	-0.75431	1.24164	-1.53922
1027.34375	11.88015	2.87148	2.04688	1.70198
1031.25000	10.26765	-5.18772	8.49300	7.45928
1035.15625	2.61115	-6.39713	10.50711	8.81858
1039.06250	5.02797	2.46669	4.05967	9.79942
1042.96875	8.25061	2.46601	0.43272	9.76808
1046.87500	9.05567	0.85359	-2.79126	4.34369
1050.78125	8.65200	-3.17641	-4.80654	4.79366
1054.68750	5.02498	-5.19177	-6.01596	4.87282
1058.59375	7.44178	-2.37196	-4.00185	-1.57523
1062.50000	10.26157	0.44791	-4.80844	-1.65398
1066.40625	14.69298	3.26780	-9.24127	-0.89022
1070.31250	12.67743	1.65550	-9.64480	-11.17485
1074.21875	5.02093	0.44603	-4.81023	-14.36596
1078.12500	3.00543	1.25114	-2.39321	-6.88746
1082.03125	1.39284	-1.16715	-2.39382	-3.41166
1085.93750	-3.04020	0.04088	0.42604	-3.32625
1089.84375	2.60007	8.50176	5.66354	2.66409
1093.75000	-1.83297	10.91871	5.26012	0.66044
1097.65625	-5.46009	6.48583	-3.20198	1.51985
1101.56250	-0.62571	1.24713	-2.79968	4.90090
1105.46875	-5.05869	-1.97693	2.84076	1.06551
1109.37500	-1.03004	-2.78341	1.22841	-5.26712
1113.28125	0.58090	-12.85733	-2.39853	-1.62499
1117.18750	2.99775	-14.87264	0.82428	5.11384
1121.09375	11.45856	-3.18827	3.64410	0.32086
1125.00000	-3.45054	6.88435	-4.81810	-1.81607
1128.90625	-8.28649	12.52469	-12.07142	2.09848
1132.81250	3.80058	8.49469	-3.20748	-3.09346
1136.71875	5.41147	3.65885	2.03001	-7.38734
1140.62500	8.23118	-0.77408	-1.99992	-1.83807
1144.53125	-0.23114	-3.19229	0.01411	4.54983
1148.43750	-7.48458	0.03047	3.63987	2.19406
1152.34375	-2.24711	0.43279	0.81878	-4.95688
1156.25000	3.79616	-5.61178	0.41522	-0.92820
1160.15625	-4.26319	-6.41826	2.42926	-1.57222
1164.06250	-1.44338	3.65439	-3.21233	-4.41333
1167.96875	0.57054	4.86263	-6.03354	0.25589
1171.87500	1.37566	4.45908	0.00982	-1.98029
1175.78125	4.59835	4.45845	1.21798	-6.13175
1179.68750	-4.26687	-1.58614	0.41152	-3.31089
1183.59375	-11.11748	-0.78095	2.42557	5.14273
1187.50000	1.77552	-0.78162	-0.39553	1.11751
1191.40625	3.78943	-2.79692	-4.42543	-10.28418
1195.31250	-0.24054	2.84350	-2.00843	-17.35760
1199.21875	-0.24130	7.67805	-0.39731	-10.67766
1203.12500	5.80189	6.87161	-4.42721	2.59786
1207.03125	6.20410	2.84166	2.01911	3.16617
1210.93750	3.38273	0.82636	7.65952	-9.32234
1214.84375	4.18775	5.25793	2.01786	-8.41630
1218.75000	-9.10978	1.63092	2.42009	-3.12049
1222.65625	-6.69298	-7.63713	6.04591	-3.18063
1226.56250	-1.85859	-10.45827	8.86580	-8.10443
1230.46875	-13.14146	-3.60917	-0.40223	-18.03604
1234.37500	-3.06906	0.82243	-6.44679	-20.00551
1238.28125	2.57121	-3.20747	0.80538	-15.28911
1242.18750	-8.30864	-8.04331	-1.20980	-10.17500
1246.09375	-4.68309	-8.44692	-1.21034	-10.53296
1250.00000	-3.07218	-0.38907	-0.40508	-7.41696
1253.90625	-4.68469	4.84832	-4.03202	-7.80457
1257.81250	-5.49124	2.43005	2.41421	-11.72349
1261.71875	-7.50657	0.41480	4.83114	-7.90541
1265.62500	-3.47801	-1.19750	2.81584	-5.73076
1269.53125	-6.29927	-0.79527	3.62105	-1.64420
1273.43750	-7.91182	-0.39295	3.21745	0.38157
1277.34375	-10.33022	3.63573	2.00792	-3.30217
1281.25000	-20.40428	4.84393	1.20128	-2.01064
1285.15625	-12.34652	1.61990	1.20053	-2.96528
1289.06250	2.15811	2.82812	-2.42654	-0.72103
1292.96875	-0.26028	1.21582	-10.08295	0.11781
1296.87500	1.75363	-2.00815	-10.88949	-4.93227
1300.78125	8.19981	-3.62038	-0.41398	-2.56001
1304.68750	3.76678	-4.02388	4.82341	6.22695
1308.59375	-1.87504	0.81072	-6.05643	5.02087
1312.50000	2.15364	1.21300	-1.62480	-3.36017
1316.40625	5.77946	2.01832	4.41853	-11.37470
1320.31250	5.77889	5.64411	5.22381	-10.35548
1324.21875	-1.87727	2.42011	11.67003	-3.93892
1328.12500	-9.13038	3.22533	9.65479	-6.17723
1332.03125	5.77764	4.43349	3.20736	-4.41291
1335.93750	9.80647	2.01534	1.99801	7.59156
1339.84375	-1.07303	6.04406	4.01212	5.22963
1343.75000	-1.07345	10.07281	-0.01773	3.60897
1347.65625	-5.90904	6.44588	-4.85349	14.03383
1351.56250	-4.70062	1.61021	-0.01890	11.86365
1355.46875	-4.70102	1.60966	4.81562	4.41914
1359.37500	-3.49266	6.84713	1.18860	-4.96033
1363.28125	0.13320	6.04063	-3.24424	-15.04711
1367.18750	-8.32872	-0.80979	-0.82732	-11.71048
1371.09375	-4.70287	1.20437	0.78384	-3.69186
1375.00000	-3.49466	2.81564	1.58913	-1.95588
1378.90625	-6.31572	-4.84055	3.60320	-2.24203
1382.81250	-5.51042	-4.84107	-1.23257	-1.48031
1386.71875	-6.71968	2.81411	-2.84497	-5.24312
1390.62500	-6.72010	8.05168	-3.65148	-7.56694
1394.53125	0.12920	10.46866	-9.69610	-7.10308
1398.43750	-0.27430	6.43879	-3.65278	-7.56582
1402.34375	-2.28962	4.42357	-2.84760	-8.06870
1406.25000	-2.29026	7.64640	-4.05704	-12.90136
1410.15625	-4.30554	7.24281	4.00087	-10.24089
1414.06250	-1.48565	3.21294	10.44710	-11.02424
1417.96875	-6.32149	-1.21978	7.22300	-15.28862
1421.87500	-4.71055	1.19716	0.37250	-5.79785
1425.78125	-1.89075	7.64344	-0.03104	2.78764
1429.68750	-2.69730	6.43403	5.20637	10.84781
1433.59375	-0.28044	5.22465	6.01160	6.42535
1437.50000	5.35981	4.01535	1.57877	-1.63549
1441.40625	7.37375	-2.83512	-0.03358	-3.93165
1445.31250	-3.10313	0.79065	1.17436	-10.95904
1449.21875	-10.75945	5.62519	-2.04981	-4.74346
1453.12500	2.13359	4.01289	-11.31794	-0.69121
1457.03125	7.77386	4.41517	-8.49800	-4.07831
1460.93750	4.95261	5.62339	-0.03719	-3.27306
1464.84375	5.75778	6.02583	6.81179	-5.78910
1468.75000	2.53364	4.81648	11.24328	-4.63638
1472.65625	-5.92864	-2.43690	12.85431	-2.55981
1476.56250	-17.61436	-2.43757	12.85374	-2.87243
1480.46875	-10.76520	3.20272	8.01801	-0.59488
1484.37500	-2.30429	4.00796	1.16751	2.58516
1488.28125	0.11263	2.39564	-0.44488	2.70570
1492.18750	-0.29092	1.58930	3.18078	-0.79493
1496.09375	-5.93263	-2.44055	10.02981	8.42917
1500.00000	-13.58888	2.79696	6.80561	9.34424
1503.90625	-8.35139	10.85492	-2.05960	-1.14541
1507.81250	9.77979	12.86892	-2.06040	-6.08901
1511.71875	8.97323	12.46539	-5.28466	-5.47306
1515.62500	5.74911	12.06199	-16.97038	-12.48118
1519.53125	4.13678	11.65856	-13.34469	-17.77483
1523.43750	1.71867	7.62876	1.16012	-4.89048
1527.34375	-6.34051	1.58430	3.17415	1.61561
1531.25000	-12.78803	-1.23672	5.99400	-0.48001
1535.15625	-4.73008	-0.43148	2.36692	-1.53843
1539.06250	6.14837	-5.26732	-0.45429	-1.76645
1542.96875	3.72998	-7.28269	3.97726	0.21683
1546.87500	11.38489	5.61053	4.37944	-2.79005
1550.78125	9.77257	12.05689	2.76699	-7.17531
1554.68750	1.31037	5.20654	3.16919	-2.26094
1558.59375	8.96532	4.40024	0.75077	-1.05337
1562.50000	10.97923	6.41435	-3.27931	-4.75849
1566.40625	5.33749	1.98158	-2.87708	3.66093
1570.31250	1.30753	-2.45130	-2.47481	2.24067
1574.21875	3.32141	-2.45198	-6.10197	2.67588
1578.12500	-3.12631	3.59132	-7.71440	8.13966
1582.03125	-9.17104	2.38192	2.76107	1.13924
1585.93750	-10.78352	-1.24502	5.98380	-4.41639
1589.84375	-12.39600	-0.03683	3.56552	-7.69349
1593.75000	3.31755	1.57441	1.55018	-8.89137
1597.65625	6.94325	6.00611	3.96708	-3.59975
1601.56250	-7.96589	8.42307	7.99560	0.18422
1605.46875	-1.51973	8.82549	-1.27254	0.78091
1609.37500	6.13527	2.37801	-5.30251	-1.92545
1613.28125	-2.32707	-2.05487	3.56121	2.52234
1617.18750	2.91028	1.57092	3.15752	10.46975
1621.09375	1.70076	-2.05613	-3.29008	0.43854
1625.00000	-5.95569	-4.87724	-6.11126	-2.90730
1628.90625	3.71393	4.38965	-12.15588	5.03649
1632.81250	3.71318	5.59793	-4.09793	9.91774
1636.71875	0.08606	-0.44656	3.95992	7.23556
1640.62500	0.48834	-1.25294	1.94453	-1.31778
1644.53125	-0.72120	0.76118	8.39062	-4.60023
1648.43750	-0.72197	-0.04530	10.80743	-6.55312
1652.34375	-0.31974	-1.25467	1.94220	-7.25715
1656.25000	-2.73805	-2.06121	5.56781	-4.43724
1660.15625	0.48464	-3.27054	2.74660	-5.48428
1664.06250	3.30436	-3.67407	-6.11865	-6.31075
1667.96875	10.55632	-2.46585	-1.68714	-0.02990
1671.87500	16.19657	5.99510	-4.10539	1.76316
1675.78125	9.34597	6.80037	-2.09141	3.25267
1679.68750	2.89845	-1.66172	7.17533	0.02953
1683.59375	-0.72862	-3.27396	-1.28684	-2.79893
1687.50000	-0.72934	-0.85702	-6.52560	0.02560
1691.40625	2.09039	-0.85760	4.35267	1.11477
1695.31250	10.55125	-3.67865	6.36647	2.90590
1699.21875	5.71544	-0.85871	5.96284	9.18291
1703.12500	-3.55261	1.55837	9.18558	3.92361
1707.03125	-1.53858	-2.87438	2.33500	-8.40193
1710.93750	-7.18032	-1.26317	-1.29206	3.68831
1714.84375	-2.74877	5.58601	-4.91922	7.41492
1718.75000	4.50333	9.21180	-10.15812	-5.01810
1722.65625	-2.34715	8.00241	-8.14424	1.36873
1726.56250	-3.95958	4.77839	-7.33909	9.33885
1730.46875	-2.75147	1.55438	4.34503	7.86885
1734.37500	-1.94632	-0.46087	14.01454	5.49641
1738.28125	1.27637	-4.49076	13.61074	-0.26331
1742.18750	0.06678	-4.89423	7.16303	-5.62540
1746.09375	-1.54561	0.74632	1.52111	-2.35702
1750.00000	-3.96392	3.56629	6.35544	7.60871
1753.90625	-2.35288	1.55112	7.96640	5.60928
1757.81250	4.09322	-0.46406	5.54794	-1.13023
1761.71875	2.48078	1.55008	10.78518	1.07617
1765.62500	15.77686	1.95249	6.35212	4.05677
1769.53125	27.46120	4.36939	-0.90139	10.15812
1773.43750	0.86704	7.59218	-0.09628	-1.11273
1777.34375	-14.04221	6.38284	-2.51478	-19.70485
1781.25000	-11.62538	2.75603	-14.60358	-22.03962
1785.15625	-23.71408	-0.06509	-16.61914	-35.88791
1789.06250	-35.80275	-1.27445	-6.54679	-50.16384
1792.96875	-48.69735	-14.57179	-3.72713	-54.16009
1796.87500	-54.33913	-18.60163	-0.10156	-55.18087
1800.78125	-50.31067	-4.09670	-0.90841	-54.82327
1804.68750	-62.39940	-1.27672	-10.17672	-64.97401
1808.59375	-65.62363	1.94618	-11.38635	-67.38882
1812.50000	-48.70139	7.18363	-8.56664	-58.04098
1816.40625	-30.57031	4.36254	-4.13527	-44.70037
1820.31250	-32.58579	2.34738	1.10189	-40.45783
1824.21875	-32.98955	-6.51756	4.32444	-37.26492
1828.12500	-27.34933	-12.96502	0.29419	-37.48893
1832.03125	-28.55890	-6.51872	-10.98877	-36.53081
1835.93750	-29.36542	-2.89296	-11.79550	-32.18237
1839.84375	-28.15737	-6.51986	-4.14075	-30.91825
1843.75000	-24.12887	-5.31164	-1.72424	-31.33056
1847.65625	-24.12967	-1.28291	-2.93406	-38.63517
1851.56250	-17.68373	3.95467	-4.94964	-38.38816
1855.46875	-14.46114	5.96880	-5.75634	-29.71586
1859.37500	-22.52050	4.35649	-2.53372	-24.59021
1863.28125	-25.74476	6.77351	0.68888	-21.38062
1867.18750	-26.95438	8.38462	1.89685	-24.08834
1871.09375	-24.13461	5.96647	2.70183	-20.09939
1875.00000	-14.46503	1.53362	-5.76060	-16.34894
1878.90625	-1.97492	-1.69041	-14.22302	-18.64997
1882.81250	-9.22842	-1.28802	-0.92725	-13.05332
1886.71875	-24.94342	2.74074	9.95094	-13.99582
1890.62500	-20.51185	1.53139	2.69729	-15.91695
1894.53125	-14.46861	-0.48379	-5.76512	-7.79757
1898.43750	-10.84296	-2.09608	-4.15421	-7.05175
1902.34375	-14.47011	1.12684	2.29175	-16.41922
1906.25000	-15.27669	7.17027	4.30549	-16.81983
1910.15625	-4.39829	5.96100	3.49872	-13.75650
1914.06250	-5.20502	3.54285	3.09493	-10.91364
1917.96875	-13.66730	5.15395	-6.17341	-9.13420
1921.87500	-10.44465	7.57097	-11.81530	-3.67283
1925.78125	-2.78967	5.15285	-3.75765	4.50961
1929.68750	2.85067	7.97288	5.10595	-6.36821
1933.59375	-4.40287	5.15182	9.53734	-13.61135
1937.50000	-8.03009	-0.08677	14.37173	-5.95811
1941.40625	5.66875	7.56839	11.55028	-3.82215
1945.31250	7.27956	12.00008	4.69964	-1.98516
1949.21875	-4.40627	5.55256	0.66957	-4.63409
1953.12500	-5.61588	0.31378	2.28051	-6.22284
1957.03125	1.23316	4.34243	8.72663	-3.16311
1960.93750	-9.64669	3.53598	3.48768	-3.96958
1964.84375	-14.48269	-3.31447	-0.54251	-2.05346
1968.75000	0.82792	-3.71802	-6.58730	-2.51243
1972.65625	4.05056	-2.91267	-10.61742	2.78743
1976.56250	-1.18827	1.11614	0.66377	-6.38986
1980.46875	-9.65062	7.96544	6.30389	-15.39440
1984.37500	-14.48655	6.35308	1.46794	-6.97634
1988.28125	-6.42865	5.14366	1.06422	-5.64718
1992.18750	-0.78848	3.93432	1.86934	-4.31283
1996.09375	-2.80393	2.32196	3.07734	-1.93857
2000.00000	0.82176	1.11260	7.10574	5.02039
2003.90625	2.02980	-2.91723	7.50774	4.20098
2007.81250	-2.40315	-6.54413	3.47762	-5.17509
2011.71875	6.05764	0.30509	-4.58172	1.08180
2015.62500	6.05685	4.33383	-5.38828	-2.29993
2019.53125	6.05607	-4.12826	2.66955	-2.35559
2023.43750	5.24942	-4.12879	5.89222	-1.96209
2027.34375	1.21947	7.15274	-0.15250	-3.11188
2031.25000	-1.19872	1.51120	5.89058	6.47736
2035.15625	-3.21416	-6.14504	9.51604	5.01603
2039.06250	2.02322	4.73364	2.26249	5.59384
2042.96875	-2.40964	9.56830	3.06765	12.41226
2046.87500	-7.24552	3.52379	3.87272	11.41997
2050.78125	2.82703	-0.10323	1.05140	5.82593
2054.68750	3.22909	-4.53602	5.88584	3.48742
2058.59375	-4.42734	-5.34240	1.85579	2.27742
2062.50000	3.63050	-1.31365	-10.23290	11.06309
2066.40625	11.68830	-8.56694	-7.01020	15.05015
2070.31250	0.80834	-9.77623	5.07699	-1.68153
2074.21875	-19.74206	-0.10644	8.70258	-14.14015
2078.12500	-17.72823	3.92242	9.50768	-7.46761
2082.03125	-10.07324	1.10130	5.47757	-3.58903
2085.93750	-10.47693	-0.91394	0.23866	-3.90661
2089.84375	-10.07477	-2.12330	2.25256	-4.76617
2093.75000	-20.55170	-3.73552	4.66944	-14.02257
2097.65625	-22.56704	-2.52725	3.05703	-13.96905
2101.56250	-10.88273	-2.93075	6.68265	-15.02027
2105.46875	-5.24246	-4.14005	7.08485	-18.85581
2109.37500	-7.25787	-6.15515	3.05478	-7.86256
2113.28125	-4.03513	-5.34961	-7.01922	6.25560
2117.18750	-2.02116	-2.93250	-4.60233	7.75624
2121.09375	-2.82770	-4.14190	6.27604	4.57493
2125.00000	-4.44004	1.09558	4.26072	2.43808
2128.90625	-8.87295	2.70674	2.24538	-0.09424
2132.81250	-2.82972	-1.32311	3.45347	4.78697
2136.71875	-0.81583	-2.93534	3.04979	6.93999
2140.62500	-9.68105	-3.33870	-2.59210	-1.21047
2144.53125	-10.08469	-1.72749	-4.60761	-3.68708
2148.43750	-2.83261	-2.13091	1.03259	2.82146
2152.34375	-5.25091	-3.74314	5.46410	-0.30032
2156.25000	-3.63985	-3.74366	8.68679	-6.34501
2160.15625	-2.02886	-2.93824	6.67140	-11.82423
2164.06250	-9.28232	-0.11820	7.47648	-11.84494
2167.96875	-1.22436	0.28422	3.44646	-9.59338
2171.87500	3.20718	-0.11926	-4.20980	-5.38269
2175.78125	5.22118	4.31246	-2.59878	-0.26679
2179.68750	7.23515	4.71493	1.83275	0.94226
2183.59375	5.21979	3.10271	4.65253	5.36646
2187.50000	3.20438	-0.12123	5.86061	5.37040
2191.40625	3.20362	-5.76274	-2.60169	3.23606
2195.31250	5.62046	-1.73397	-13.88451	4.62417
2199.21875	1.59043	1.48896	-5.82665	4.85708
2203.12500	5.61904	1.08548	5.05178	5.64155
2207.03125	12.87103	2.69677	0.61878	-2.65474
2210.93750	8.03505	4.71103	2.22977	-7.89064
2214.84375	-6.06836	6.32226	6.66135	3.08864
2218.75000	-2.84565	7.12755	2.63135	3.95217
2222.65625	4.00345	0.27721	-0.18982	-0.94322
2226.56250	4.40567	-6.57314	-1.80224	11.86187
2230.46875	0.37563	-6.57370	0.61462	18.04732
2234.37500	-6.47487	-6.97715	6.65783	14.86887
2238.28125	7.22397	-1.33658	2.62787	3.06506
2242.18750	17.29649	5.10977	2.22433	-2.29720
2246.09375	15.28107	7.12395	3.02969	2.58277
2250.00000	7.62465	5.10888	-2.61196	6.90745
2253.90625	-3.65805	1.88504	2.62553	14.98120
2257.81250	-0.83824	0.67576	9.07184	9.45032
2261.71875	7.21964	1.07818	3.43021	-2.44600
2265.62500	3.59261	5.91290	-0.19669	-2.68898
2269.53125	6.00944	9.13580	0.20564	-1.42297
2273.43750	3.18810	6.31469	3.02561	6.24381
2277.34375	-2.85652	1.47903	1.01035	7.39522
2281.25000	7.21607	1.47856	-6.64585	-1.78945
2285.15625	11.64760	6.31319	-0.19956	1.68815
2289.06250	3.18530	7.52146	7.05258	8.76755
2292.96875	3.18454	7.11804	-1.40951	5.57711
2296.87500	1.16920	5.90889	-1.81297	4.95923
2300.78125	-2.45784	5.10260	1.40996	7.73438
2304.68750	2.77953	2.28168	1.00646	4.43342
2308.59375	-4.07105	-1.34512	7.45280	2.01854
2312.50000	-8.90694	1.87783	6.24345	2.09889
2316.40625	3.58318	5.90660	3.42249	1.73974
2320.31250	2.37368	4.69733	9.06310	2.35562
2324.21875	-14.95308	3.48802	5.83916	-2.91332
2328.12500	-13.34219	-3.36235	1.80936	0.48876
2332.03125	-3.67272	-10.61561	10.27042	2.25237
2335.93750	1.56444	-7.39268	11.88168	-5.08457
2339.84375	-5.28634	-2.15505	8.25480	-2.61203
2343.75000	-5.69013	-4.17019	8.65708	2.61644
2347.65625	1.56180	1.47041	6.64172	-1.46494
2351.56250	-7.30354	10.33439	3.01485	-5.24756
2355.46875	-7.30442	6.70759	6.23777	0.20100
2359.37500	6.39430	-6.58950	5.43142	7.34102
2363.28125	13.24327	-0.94895	-1.01599	13.37078
2367.18750	-2.87478	13.55606	-1.82235	-0.21637
2371.09375	-6.50196	11.54093	1.80356	-6.30113
2375.00000	11.62902	10.73462	-1.42040	9.93966
2378.90625	19.28386	14.36053	-14.31481	15.69677
2382.81250	6.38925	7.91330	-12.30071	8.80228
2386.71875	-1.67016	3.07769	-2.63086	2.62134
2390.62500	0.34369	3.48019	-0.61682	4.32619
2394.53125	3.56636	6.70315	2.60599	1.96895
2398.43750	16.45926	10.73193	2.60542	1.50559
2402.34375	7.19105	11.13437	3.41075	7.44913
2406.25000	-4.49472	3.07527	8.64840	3.42179
2410.15625	-0.06346	-2.16319	7.84212	2.05244
2414.06250	5.57676	1.46275	5.82708	7.31245
2417.96875	5.57614	1.05927	2.20023	-0.17586
2421.87500	3.15795	-0.14998	-4.24729	1.25597
2425.78125	7.58952	7.90829	-5.45671	4.60322
2429.68750	-0.06686	9.92257	-8.27788	-0.23066
2433.59375	-4.09683	-0.55399	-3.04040	6.22577
2437.50000	3.96109	-4.18076	7.03239	8.64086
2441.40625	3.55760	-2.56930	11.06112	8.35920
2445.31250	3.95986	6.69781	6.22534	7.77856
2449.21875	7.18260	6.69750	2.19545	3.92075
2453.12500	7.98784	6.69715	-1.43146	-0.48864
2457.03125	12.82235	10.32307	-3.44664	0.15350
2460.93750	7.98661	5.48749	0.98499	10.62912
2464.84375	7.98611	4.27829	1.79030	12.54528
2468.75000	7.58260	-1.36311	5.41605	4.43061
2472.65625	-4.90884	-3.78109	4.20665	-0.74553
2476.56250	-5.31230	5.08304	-5.86725	3.37411
2480.46875	-1.28340	7.09738	-5.86789	2.83117
2484.37500	-4.50733	3.87364	5.81648	0.77313
2488.28125	-8.53710	-0.55896	10.65103	3.71426
2492.18750	-4.50832	-1.76814	6.62123	4.64597
2496.09375	0.32627	0.24598	4.60605	4.60288
2500.00000	1.93741	3.46884	7.02300	1.89170
2503.90625	5.16034	3.06540	6.61934	5.10169
2507.81250	3.14510	-4.99368	1.38059	8.61954
2511.71875	-3.70524	-2.97950	-1.44047	7.22090
2515.62500	-9.74974	2.66119	5.81157	7.46561
2519.53125	-10.15331	3.46667	9.03430	5.39541
2523.43750	-0.08059	5.48092	3.79567	1.35675
2527.34375	-0.88704	3.06297	0.57168	-0.19593
2531.25000	-7.33456	4.27144	-5.06995	-1.08285
2535.15625	-6.93217	11.12089	-5.07056	-0.12654
2539.06250	-13.78253	4.27064	-0.23599	-0.75751
2542.96875	-12.17141	-7.41473	2.18095	9.68737
2546.87500	-10.56029	-3.78871	-1.04311	16.75385
2550.78125	-16.20183	8.70178	-7.49057	2.69831
2554.68750	-10.15845	14.34243	-0.64144	-6.08701
2558.59375	-7.74148	5.47767	10.23700	-0.04413
2562.50000	-5.32462	4.67146	9.02753	1.48880
2566.40625	-0.89300	9.50618	4.99755	-5.00028
2570.31250	5.55331	12.32624	1.77337	-3.19710
2574.21875	5.14975	6.68481	0.96676	2.47612
2578.12500	-11.37089	-5.40360	1.36913	-0.92459
2582.03125	-19.02696	-5.40416	1.77157	2.14828
2585.93750	-14.19234	3.86284	-5.07886	1.42790
2589.84375	-4.92553	9.10063	-5.88537	5.80649
2593.75000	1.11782	5.47389	6.20188	18.71123
2597.65625	-2.10619	1.44419	5.79837	20.77929
2601.56250	6.75766	5.87604	2.17139	31.01019
2605.46875	12.80091	12.32249	2.17080	25.15996
2609.37500	5.14455	9.50152	2.17018	14.79785
2613.28125	15.21723	2.24832	2.97553	24.88663
2617.18750	28.11027	1.84502	4.18373	26.79013
2621.09375	22.06567	0.63586	9.01834	33.68193
2625.00000	28.91488	2.65015	7.80893	43.63275
2628.90625	47.04624	5.87312	5.79369	46.74129
2632.81250	43.82228	3.05204	11.43405	52.42830
2636.71875	47.85104	5.06624	8.61290	51.35770
2640.62500	42.20947	3.85709	9.82106	61.33909
2644.53125	28.50923	2.24491	13.84980	66.11519
2648.43750	44.62585	8.28843	9.01410	60.93876
2652.34375	53.08681	8.69098	10.22225	68.69605
2656.25000	36.16311	4.25830	12.23631	68.29247
2660.15625	27.29805	1.84032	8.60935	56.76926
2664.06250	37.37059	-5.00996	0.55015	59.16614
2667.96875	43.41390	-9.03969	-5.89727	66.65570
2671.87500	38.57813	-9.44307	4.57841	57.56955
2675.78125	39.78633	-5.81716	14.65111	48.98569
2679.68750	37.77106	-3.40008	15.85940	47.77707
2683.59375	23.26481	-2.59469	14.24717	46.96305
2687.50000	18.02602	4.25469	7.39678	44.54941
2691.40625	22.05472	6.26888	-1.06534	41.60923
2695.31250	12.38380	4.25374	1.35166	40.57969
2699.21875	4.32455	-0.17906	7.39511	36.78332
2703.12500	17.62055	0.22333	5.78293	31.52406
2707.03125	24.46974	3.44628	3.76777	21.61621
2710.93750	19.63387	-0.58347	1.75260	15.97739
2714.84375	13.18635	-0.98686	0.14035	26.95663
2718.75000	7.54462	2.23611	-5.90408	26.61131
2722.65625	6.33522	1.42979	-7.51629	24.13340
2726.56250	15.19909	7.47326	2.95935	27.26822
2730.46875	14.39259	9.89042	9.40557	21.76882
2734.37500	9.95982	5.86068	8.19616	16.97864
2738.28125	9.15320	2.23381	5.37514	17.26277
2742.18750	10.36132	2.23338	2.95710	20.76509
2746.09375	7.94320	2.63589	2.95668	27.65969
2750.00000	3.10738	-0.58802	0.94153	23.92565
2753.90625	2.70388	-3.00606	-1.47650	21.12011
2757.81250	0.68863	-0.18596	0.13473	22.03606
2761.71875	8.74658	5.05172	6.58114	22.22754
2765.62500	11.56645	6.26012	10.60994	28.02839
2769.53125	11.16290	3.84225	4.56547	25.66799
2773.43750	11.16227	0.21544	1.74443	19.63506
2777.34375	7.53532	-1.79969	6.17617	18.36887
2781.25000	6.72892	-0.99431	11.01090	18.85441
2785.15625	6.32536	1.42280	5.77223	12.25866
2789.06250	3.90717	5.45153	-1.48109	6.44421
2792.96875	-6.56953	-1.80170	3.75651	17.35624
2796.87500	-8.18188	-15.50174	8.99417	19.15589
2800.78125	-3.75023	-12.68164	7.38196	13.06654
2804.68750	-4.15376	5.04691	3.75513	11.78018
2808.59375	2.29265	15.11979	0.93408	14.20047
2812.50000	0.68043	9.47829	2.54534	11.46017
2816.40625	1.48562	6.25436	0.53022	14.32436
2820.31250	8.33475	5.85096	2.54438	19.37228
2824.21875	9.54300	5.44755	-3.50007	6.44765
2828.12500	12.36295	0.20901	-11.55925	1.38828
2832.03125	11.15353	-12.68519	-1.08358	3.95796
2835.93750	3.90019	-14.29730	4.55703	3.87400
2839.84375	0.67630	-1.80692	7.37709	-2.51777
2843.75000	1.07866	3.02775	6.97371	3.51682
2847.65625	-0.13071	1.41553	3.74976	10.31465
2851.56250	-3.35476	1.81796	6.56977	6.93517
2855.46875	0.27105	2.22038	6.56931	1.50469
2859.37500	-0.93831	-0.19770	4.15119	-1.83142
2863.28125	-0.53594	-1.80982	6.16535	7.01892
2867.18750	-0.93946	-3.42191	5.76200	1.89352
2871.09375	1.07463	-4.22823	1.32932	1.85291
2875.00000	3.89456	-0.19933	2.94058	8.42352
2878.90625	4.29696	3.42670	-4.71563	5.71933
2882.81250	6.31108	0.20284	-14.78936	6.88357
2886.71875	-2.15104	-5.43862	-7.13427	6.74668
2890.62500	-2.55448	0.20192	0.92379	-0.00995
2894.53125	-0.94332	1.00733	9.78784	2.06518
2898.43750	7.92066	1.81279	7.77272	-1.62148
2902.34375	1.47333	-0.20234	6.56342	-8.16851
2906.25000	-9.00337	-9.47016	4.54827	-10.98680
2910.15625	-6.58640	-7.05304	-3.10791	-4.70022
2914.06250	-8.19871	-2.21840	-0.69071	3.78358
2917.96875	-4.57278	-0.60713	4.94996	6.36879
2921.87500	-5.37921	3.42174	4.54659	8.20366
2925.78125	0.66426	9.86826	-2.70660	11.14794
2929.68750	4.69302	9.86787	-6.33345	9.53749
2933.59375	2.27490	2.21170	2.53062	11.96461
2937.50000	-15.45449	1.40534	5.75361	13.97689
2941.40625	-4.97873	5.03114	-2.70842	6.84549
2945.31250	10.33215	4.62771	-6.33527	4.25028
2949.21875	-5.38260	3.82139	-2.30636	4.82487
2953.12500	-0.95083	6.23853	1.31949	-2.40505
2957.03125	5.89849	4.62636	3.33361	-4.58340
2960.93750	11.13601	-2.22397	4.54191	7.50379
2964.84375	2.67397	-8.26835	-2.30834	8.61401
2968.75000	-4.98234	-1.01601	-4.32349	2.51395
2972.65625	7.91080	7.04214	1.71992	1.36694
2976.56250	6.29839	4.22119	3.33110	2.66597
2980.46875	-8.20768	0.99729	-0.69861	4.54062
2984.37500	-11.83455	0.19098	-3.11666	-3.15864
2988.28125	2.67043	0.19051	-4.72888	-5.05297
2992.18750	0.65527	-2.63046	-7.54987	4.74288
2996.09375	-1.76281	-3.43681	-10.77382	5.10238
