 	TP9	AF7	AF8	TP10	
-1000.00000	-4.18554	6.71185	-0.20113	4.64090
-996.09375	-7.40959	9.12925	1.00660	3.83467
-992.18750	-7.81323	2.27921	1.81149	5.84899
-988.28125	-7.00806	-4.97377	0.60171	6.65447
-984.37500	-5.39696	-4.97398	1.80960	5.04239
-980.46875	-3.78589	-3.36251	1.80870	7.45958
-976.56250	-4.59234	-7.39205	-5.04206	6.25044
-972.65625	-2.57832	-8.60106	-7.05765	4.23541
-968.75000	2.25616	-3.36317	-13.10250	7.05556
-964.84375	1.44964	-6.58686	-16.32682	8.26396
-960.93750	1.44894	-16.66030	-7.46322	9.06941
-957.03125	-0.96937	-11.01952	-5.44956	10.68071
-953.12500	-1.77585	3.48576	-2.63011	3.42763
-949.21875	1.44700	3.08269	1.80114	0.60682
-945.31250	2.65519	0.26201	1.39725	4.23279
-941.40625	-7.82160	-3.76756	1.39631	5.44119
-937.50000	-13.46322	-8.19998	0.18653	7.45544
-933.59375	-7.01695	3.88768	0.58851	6.64921
-929.68750	-4.19708	6.70801	0.99042	13.09573
-925.78125	5.06983	-2.15657	-5.05447	10.67776
-921.87500	7.48675	-7.79779	-5.45825	7.85690
-917.96875	1.44214	-3.76868	-2.23569	12.69166
-914.06250	-4.19954	-0.54542	-2.23662	12.69125
-910.15625	1.03793	-1.35148	-1.43174	10.67620
-906.25000	7.08134	3.08056	1.38784	9.06413
-902.34375	3.45437	4.28913	4.61040	11.07842
-898.43750	5.46839	-0.54633	3.80360	12.28685
-894.53125	9.49702	-4.57586	-4.25606	9.86884
-890.62500	4.25831	-7.39659	-7.48044	6.64503
-886.71875	5.06358	-1.75573	-8.69021	9.86814
-882.81250	9.09226	4.28807	-6.67649	9.06191
-878.90625	0.63017	3.48204	0.57535	6.64393
-875.00000	1.83832	1.87016	4.20066	12.68747
-871.09375	5.86688	3.48166	-0.63552	10.26947
-867.18750	9.08962	6.70495	-4.26295	14.70121
-863.28125	7.88016	1.46669	3.39173	25.17699
-859.37500	0.62672	-5.78620	5.00246	27.59417
-855.46875	1.02888	-0.54827	2.18085	27.19073
-851.56250	-4.20992	1.86912	-0.23775	17.51996
-847.65625	-7.43400	-4.17508	-3.86518	15.50485
-843.75000	-3.00254	-6.99578	-3.46328	23.96584
-839.84375	2.63779	-2.16077	1.77373	31.21813
-835.93750	4.65177	2.27133	-6.28600	33.63530
-832.03125	-0.18406	1.86821	-17.97198	32.82899
-828.12500	2.63578	1.86802	-10.72026	38.06668
-824.21875	1.42635	-2.56443	-6.28913	32.82817
-820.31250	-2.60359	-4.57927	-8.70772	30.00723
-816.40625	0.61921	2.27039	-9.51467	33.63311
-812.50000	-0.18733	3.88189	-3.87472	30.81213
-808.59375	0.21485	-2.16218	-1.86116	30.40866
-804.68750	-0.59172	-9.01205	-11.53251	27.58768
-800.78125	-3.81598	-11.02687	-11.13054	28.39299
-796.87500	-4.62261	-4.58015	-9.11690	31.61591
-792.96875	-5.42919	-1.75973	-11.93841	30.40660
-789.06250	-4.22118	-2.56579	-2.67199	28.39149
-785.15625	-5.83359	-4.17767	6.19151	27.98817
-781.25000	-7.04313	-5.78960	4.17587	32.01702
-777.34375	-5.83504	-1.35750	-0.66031	29.19604
-773.43750	-8.25333	-2.56646	-5.49644	27.58391
-769.53125	-5.43350	-7.40177	-9.92967	30.00108
-765.62500	-0.59908	-10.62536	-9.52777	25.97129
-761.71875	-2.61442	-13.04311	-2.67889	21.53869
-757.81250	-0.19745	-8.61102	0.94649	23.95581
-753.90625	-1.40686	-2.97011	2.55732	25.97004
-750.00000	-9.86907	0.25321	-2.27874	20.32866
-746.09375	-11.07852	-2.56743	-9.93542	24.76050
-742.18750	-11.07920	-2.56752	-5.90715	30.40107
-738.28125	-5.03596	-2.16470	-0.67009	25.56550
-734.37500	-5.43955	-8.61174	-2.68578	19.11814
-730.46875	-10.67831	-13.84997	-7.11903	18.31184
-726.56250	-6.64966	-10.22370	-5.91120	17.50557
-722.65625	-5.03861	-6.19451	-11.15026	13.07286
-718.75000	-3.42753	-5.38877	-17.59812	16.29583
-714.84375	2.21277	-0.95664	-8.33171	19.11585
-710.93750	1.40622	0.25202	-1.07995	17.90661
-707.03125	1.80844	1.86357	-3.90137	13.87686
-703.12500	7.04575	4.28104	-6.72279	15.48811
-699.21875	3.41851	0.65449	-6.72371	13.87586
-695.31250	0.19425	1.05730	-9.94805	11.45780
-691.40625	3.01394	5.21169	-8.74020	19.11303
-687.50000	4.22201	6.78512	-1.89137	19.51549
-683.59375	3.41550	4.07374	-2.29521	10.24761
-679.68750	1.40013	-1.99008	-6.32551	11.05296
-675.78125	3.01111	-5.59906	-9.95279	15.48475
-671.87500	-0.61593	-3.55306	-3.90978	15.48429
-667.96875	0.99504	1.54856	2.53615	13.87205
-664.06250	4.21777	-0.45823	0.11756	15.08037
-660.15625	-0.21508	-1.25387	-6.73328	13.46810
-656.25000	3.00764	3.31718	-9.95775	5.81192
-652.34375	-1.42522	2.59452	-1.90006	2.18500
-648.43750	-8.67868	-2.06065	1.72549	2.58744
-644.53125	-2.63544	-2.16275	-3.51348	6.61620
-640.62500	-3.03906	-0.12561	-6.33496	6.61563
-636.71875	-4.24859	0.53450	-14.39452	7.42096
-632.81250	-1.42877	-0.12083	-13.99255	8.22640
-628.90625	-5.05591	2.80661	-5.12908	9.83761
-625.00000	-11.90650	2.58793	-6.74178	6.21067
-621.09375	-9.08674	0.18729	-11.57807	10.23945
-617.18750	-7.47565	2.57192	-9.56441	20.31217
-613.28125	-7.07347	0.78940	-9.16232	15.87940
-609.37500	-3.85073	0.43562	-13.19253	2.58216
-605.46875	-2.64259	3.31985	-7.95540	1.77575
-601.56250	-2.64318	-2.73040	1.71397	9.02796
-597.65625	-5.46426	-3.86727	0.90706	9.02747
-593.75000	-6.67374	-1.12345	-4.73494	11.84743
-589.84375	-4.25684	-2.32450	-7.95934	10.63806
-585.93750	-9.89848	-8.82968	-8.76611	7.41408
-582.03125	-16.74898	-12.90611	-9.57303	4.99602
-578.12500	-10.30270	-1.45759	-8.76815	4.59256
-574.21875	-5.06525	2.19637	-9.97792	8.62133
-570.31250	-6.27468	2.17982	-8.36713	6.60620
-566.40625	-9.09575	6.43320	-6.35339	11.84383
-562.50000	-3.05249	5.12027	-8.77184	11.84327
-558.59375	-1.44150	6.17483	-6.75814	3.38117
-554.68750	-15.14181	-1.74368	-2.32686	-1.85743
-550.78125	-15.14245	-7.40763	-0.31315	-1.05209
-546.87500	-8.69620	-3.67409	0.08884	2.57384
-542.96875	-11.51740	-2.23889	-3.53846	6.60264
-539.06250	-11.92091	0.09246	-1.12190	13.04903
-535.15625	-10.30982	-2.06681	-4.74926	13.85441
-531.25000	-9.10161	-5.70457	-12.80884	9.01877
-527.34375	-7.08754	-0.46968	-3.13945	11.43581
-523.43750	-1.44708	2.89429	-2.73735	16.27051
-519.53125	3.38742	-1.97457	-7.57337	17.07582
-515.62500	-2.65717	-7.23600	-7.17143	9.82253
-511.71875	1.37151	-9.23281	-7.57533	5.38975
-507.81250	4.99727	-6.51723	-3.54703	9.82149
-503.90625	2.17606	1.98719	-3.54800	6.59754
-500.00000	-0.24210	7.22741	-5.16073	6.19410
-496.09375	-5.07800	5.71428	-6.77346	8.20833
-492.18750	-6.28740	6.58418	-7.17748	2.56680
-488.28125	-8.30261	-3.28174	0.88013	0.95459
-484.37500	-4.27393	-15.83712	1.68514	0.14817
-480.46875	-3.06571	-8.96684	-0.73334	-0.65819
-476.56250	-5.08097	4.54811	0.07160	-1.86754
-472.65625	-8.70796	4.27165	-2.34686	-1.06221
-468.75000	-16.76729	-5.26897	-8.39182	1.75784
-464.84375	-12.73862	-7.86573	-7.98984	4.98075
-460.93750	-6.69530	-0.59203	-1.54396	8.20367
-457.03125	-8.30765	2.15880	-1.14211	9.41190
-453.12500	-7.50232	-0.86109	-1.54599	11.82901
-449.21875	-5.48829	-1.60030	-4.36746	13.44018
-445.31250	-2.66845	-2.70492	-14.03865	13.84256
-441.40625	2.97185	-6.73078	-6.38392	9.00686
-437.50000	2.97116	-7.49859	4.09133	-1.06690
-433.59375	-4.68518	-1.96689	-1.95356	2.96204
-429.68750	-3.07420	-0.73846	-5.17793	6.18493
-425.78125	0.14862	-5.18830	-1.55242	-5.09760
-421.87500	-2.67248	-4.81695	-1.95630	-2.27753
-417.96875	-3.88194	3.37785	-5.18072	1.75123
-414.06250	-6.70299	9.01071	-1.55522	-0.66684
-410.15625	-6.70353	6.17975	0.05563	-0.66733
-406.25000	-2.67488	0.80264	-7.19797	-2.68248
-402.34375	1.35370	-4.51878	-7.60172	-0.66838
-398.43750	7.79989	-10.33997	-0.75283	1.74865
-394.53125	4.57576	-8.62632	1.66379	2.95692
-390.62500	-3.88640	-4.61983	-1.56062	4.56813
-386.71875	2.96279	-2.86259	-1.56154	4.16468
-382.81250	1.75335	-0.99876	0.85505	5.37295
-378.90625	-6.30600	3.72918	-1.16058	8.99882
-375.00000	2.96073	5.96234	-0.75860	13.02761
-371.09375	6.58641	4.33338	6.89611	13.02706
-367.18750	-0.26410	-1.67786	6.49220	4.96785
-363.28125	-1.47358	-5.53661	-4.79074	5.77311
-359.37500	-2.68309	-1.15364	-0.76230	9.80186
-355.46875	-5.90728	-1.21744	7.29543	6.17494
-351.56250	-5.90800	-2.01707	5.68282	4.56275
-347.65625	0.13530	1.94011	3.26426	6.17392
-343.75000	7.79034	-1.60962	4.87510	6.97930
-339.84375	4.56617	-9.67596	1.24782	7.78461
-335.93750	0.93906	-5.58856	-3.58826	3.35179
-332.03125	2.95301	0.90521	-6.40975	2.14241
-328.12500	0.93766	1.14153	-10.43993	2.54479
-324.21875	-0.27175	-0.09503	-10.03784	-0.67918
-320.31250	-1.07833	-2.89921	-7.21822	6.17012
-316.40625	-0.67608	-4.73504	-0.77224	8.58721
-312.50000	0.93497	-5.03387	5.67375	0.12515
-308.59375	1.33731	-4.47685	6.88168	-1.08420
-304.68750	-0.27507	-4.21419	0.43396	-0.27890
-300.78125	-2.69340	-3.38552	-6.01374	-1.08541
-296.87500	-1.88828	-4.29866	-4.40291	-1.48889
-292.96875	-1.88900	-4.92820	-9.23899	-1.89239
-289.06250	-0.68085	-2.42458	-10.04579	2.53937
-285.15625	0.52734	-5.10066	-1.98809	-1.49044
-281.25000	-0.27920	-6.70104	-9.64467	-10.75840
-277.34375	-4.71216	-0.25102	-16.49533	-9.95307
-273.43750	-5.92160	4.44353	-5.61708	-10.75941
-269.53125	-2.29583	6.49172	0.02301	-11.96869
-265.62500	-1.89361	6.51490	1.63392	-9.55159
-261.71875	-3.90892	4.88522	0.42427	-5.92579
-257.81250	-3.90954	2.57242	-3.20301	-3.50869
-253.90625	0.92497	-2.70856	-1.18923	-9.15027
-250.00000	-3.91087	-5.53131	2.43630	-8.74788
-246.09375	-9.14967	-3.21247	-1.19102	-0.28685
-242.18750	-2.70339	-2.87376	-4.01246	2.53320
-238.28125	0.92232	-4.69301	-1.99872	-6.73466
-234.37500	-3.10763	-0.19639	-2.80540	-7.94396
-230.46875	-1.49651	5.02115	1.22306	0.51709
-226.56250	5.35263	6.81746	3.63973	3.74002
-222.65625	11.39585	7.49681	1.62414	8.57465
-218.75000	3.73945	0.92015	3.63787	4.54486
-214.84375	-1.90230	-2.12419	7.26334	-8.34946
-210.93750	3.33513	-3.35397	10.48590	-4.32058
-207.03125	6.96086	-0.46387	6.85864	6.96098
-203.12500	7.76607	5.37647	3.23138	2.12528
-199.21875	4.54201	4.50371	-1.60453	-1.90447
-195.31250	0.51208	1.98167	-12.08152	0.51267
-191.40625	-0.69734	1.57521	-12.08242	0.10927
-187.50000	2.92841	-0.47749	2.01919	2.52641
-183.59375	4.53952	-3.99458	6.85345	2.92887
-179.68750	2.12124	-3.61123	2.82317	1.31663
-175.78125	-1.10284	1.64445	4.03108	-1.10145
-171.87500	-2.71514	5.70529	6.85075	-5.93709
-167.96875	-3.52158	3.95727	5.64105	-4.32580
-164.06250	6.95396	-1.67566	6.04306	-4.72919
-160.15625	12.99723	-2.06828	7.25100	-6.34129
-156.25000	11.78780	4.11459	4.42967	-3.11827
-152.34375	5.74329	3.39197	-1.21221	3.32827
-148.43750	-0.70419	2.76614	-8.86869	0.50741
-144.53125	4.93625	1.45537	-2.01971	-2.71637
-140.62500	4.53274	-6.58049	7.24683	1.31260
-136.71875	-1.51179	-6.32315	4.82841	0.50646
-132.81250	1.30800	1.08026	5.23043	3.32664
-128.90625	9.36591	4.00787	1.20018	4.53510
-125.00000	8.55943	0.96886	-4.03885	4.13184
-121.09375	7.34997	-2.23741	1.60131	6.54913
-117.18750	7.34932	-0.65844	5.22678	3.32532
-113.28125	3.72233	4.40907	6.43476	-0.70436
-109.37500	4.12459	6.47297	1.59875	5.74216
-105.46875	0.90045	1.70160	-8.47548	2.51834
-101.56250	8.15242	-3.54281	0.38813	1.30915
-97.65625	13.38973	-2.26198	5.62535	10.17323
-93.75000	9.35972	-7.57681	0.38636	10.17281
-89.84375	10.56783	-9.98662	1.19130	7.35184
-85.93750	2.91145	-1.98615	3.20501	6.54556
-82.03125	-2.32726	4.01091	1.99531	3.72464
-78.12500	-4.34264	1.75995	2.80025	2.91839
-74.21875	-9.17847	-3.04746	2.79932	0.90331
-70.31250	-4.34398	-5.07849	-8.08061	-6.75283
-66.40625	-0.31527	-6.06310	-12.91658	-9.97673
-62.50000	-3.94235	-4.55542	0.37923	-9.17132
-58.59375	0.48920	-6.32126	6.42228	-7.15712
-54.68750	3.30901	-4.16642	10.85359	-0.71064
-50.78125	-1.92976	3.46643	12.46433	-2.72569
-46.87500	0.08419	6.79715	4.40479	-2.32313
-42.96875	6.12751	5.41197	4.00092	6.13801
-39.06250	0.88886	6.13181	1.98541	3.31715
-35.15625	-2.33518	4.77856	-4.86529	-3.53313
-31.25000	1.29050	3.55852	-1.64276	0.89864
-27.34375	-4.35118	1.54082	2.78854	-3.13119
-23.43750	-1.12841	-4.36247	6.01112	-7.16100
-19.53125	6.12369	-5.20181	4.80150	2.10588
-15.62500	0.88494	-3.61312	-4.46691	6.53759
-11.71875	-1.13046	-4.40100	0.36736	0.89603
-7.81250	2.49521	-4.10284	2.78397	-0.71623
-3.90625	0.88280	-3.25406	-0.84336	2.50677
0.00000	-1.53536	0.37451	5.19960	2.50632
3.90625	-3.14774	2.48784	4.39279	2.10285
7.81250	-2.74541	-1.88009	-0.84628	-2.32982
11.71875	-5.56654	-3.68715	-1.25017	2.10189
15.62500	-5.16430	-2.94569	-4.47450	2.50431
19.53125	-0.32977	-7.76024	-0.84895	-1.92844
23.43750	0.47543	-7.13895	-1.65565	6.12973
27.34375	1.28066	-1.37130	1.56693	2.50300
31.25000	-4.36102	-4.06196	13.25101	-6.36188
35.15625	-7.18214	-5.85276	12.44426	-1.12432
39.06250	-7.18277	-2.20539	5.99643	4.11328
42.96875	-6.37756	3.76903	2.36912	2.09815
46.87500	-1.14006	4.77852	2.36813	-1.93163
50.78125	0.47106	-0.79570	-0.45330	0.08251
54.68750	0.06751	2.53209	-4.88643	0.88793
58.59375	-1.54476	2.93860	-3.27560	-3.94775
62.50000	-11.21571	-11.93160	-2.06768	-1.12775
66.40625	-10.81331	-13.65250	-2.87441	1.28935
70.31250	-3.15825	-1.94773	-6.50171	-2.74045
74.21875	-3.15884	-0.35340	-13.35244	-0.32335
78.12500	2.88448	-1.99657	-9.72702	3.30245
82.03125	4.49557	-3.47190	2.36006	6.12241
85.93750	0.46570	-6.30043	7.19432	5.71904
89.84375	-3.96712	-2.68429	6.38758	2.89805
93.75000	-7.99700	2.01199	1.14859	3.30044
97.65625	-1.55068	0.72000	-6.91091	-2.34106
101.56250	5.29847	-2.68347	-3.28552	0.07593
105.46875	6.50661	-5.40199	3.56344	3.29886
109.37500	0.46200	-6.23052	5.98016	-8.38669
113.28125	-5.58262	-3.26434	0.33829	-7.58135
117.18750	-0.74810	1.42022	-11.34761	-1.94088
121.09375	5.69819	-0.70142	-7.72209	-1.53843
125.00000	2.87705	-1.28861	1.14143	3.29623
128.90625	-1.15279	-2.11154	-2.88877	3.29580
132.81250	-2.36208	-2.88456	-8.53063	-0.73390
136.71875	-4.78020	1.31547	-7.72552	-3.15194
140.62500	-10.01886	0.46051	-4.90593	-11.21102
144.53125	-6.79600	-0.00616	-2.89214	-32.56668
148.43750	-3.17028	-2.82040	-2.89293	-49.89302
152.34375	-2.36507	-2.48940	-5.71431	-54.32551
156.25000	-1.96288	-6.03906	-6.52118	-50.69941
160.15625	0.45402	-10.07601	-1.68695	-57.95241
164.06250	8.10895	-0.75038	1.53556	-71.24935
167.96875	5.28771	1.71425	3.95218	-75.27885
171.87500	-1.15993	-1.67567	5.96596	-74.07021
175.78125	0.04813	-2.50922	2.74168	-72.45866
179.68750	0.04741	-1.28391	0.32331	-73.66762
183.59375	2.06141	-5.53722	-0.08055	-69.63851
187.50000	11.73116	-5.83597	-3.30498	-63.59474
191.40625	3.67198	3.98866	-11.36446	-74.47409
195.31250	0.04500	5.86324	-18.21506	-78.90656
199.21875	5.68544	1.05101	-12.57492	-79.30970
203.12500	0.84960	-0.26489	0.31804	-86.56266
207.03125	0.84893	-0.49136	7.16700	-87.36874
210.93750	-2.37512	-5.64325	2.33097	-80.51919
214.84375	-10.03148	-5.49864	-0.08752	-81.32530
218.75000	-12.44975	-0.65204	0.31458	-81.32555
222.65625	-5.19761	-1.05167	-0.89508	-75.28184
226.56250	-0.76598	0.82243	0.71578	-75.28211
230.46875	-5.60175	0.85606	-3.31437	-74.07362
234.37500	-3.18479	-1.94114	-4.92692	-66.41825
238.28125	-1.97651	0.05576	-1.30139	-61.98624
242.18750	-3.99166	0.96662	-5.33149	-57.95725
246.09375	-4.39511	-3.10547	-8.95866	-53.92828
250.00000	1.24539	-7.94272	-6.13899	-50.70514
253.90625	4.06525	-10.86173	1.91884	-49.89969
257.81250	1.24410	-4.88189	10.78255	-48.69133
261.71875	3.25821	2.56639	5.14067	-43.85651
265.62500	2.04893	-1.39829	-3.32169	-45.06566
269.53125	2.45132	3.41645	-5.74005	-44.26024
273.43750	4.06248	8.03342	-7.75551	-40.63426
277.34375	-1.57898	2.66894	-7.75630	-37.81403
281.25000	-4.80285	0.52464	-9.77181	-34.99379
285.15625	-0.37108	1.91268	-7.35502	-38.21759
289.06250	3.25468	5.11530	-1.71478	-44.26186
292.96875	2.04531	0.75270	-3.73024	-39.42705
296.87500	2.04479	-4.68888	-4.53696	-34.59222
300.78125	2.44718	-5.56131	-3.73186	-34.99558
304.68750	-1.17978	-4.85952	-2.12098	-27.34029
308.59375	-3.19499	-0.02767	-0.91299	-22.50555
312.50000	-2.38961	2.35191	1.90668	-19.28256
316.40625	-4.40485	1.65547	-2.12346	-12.43324
320.31250	-1.58485	0.83008	-8.97407	-13.23953
324.21875	6.07026	-3.18166	-7.36319	-10.41950
328.12500	4.05507	-6.37342	-9.78160	-13.64343
332.03125	-5.21289	-7.31548	-10.58823	-17.67324
335.93750	-7.63102	-10.12778	-6.55971	-15.65909
339.84375	-8.84041	-7.69971	-4.14291	-18.07709
343.75000	-6.82632	-3.53135	1.90025	-14.85410
347.65625	-5.21518	-4.25375	4.31706	-12.03409
351.56250	-7.23040	-4.87934	-1.72767	-18.07856
355.46875	-4.00752	-0.95183	-8.57833	-17.67618
359.37500	-4.41106	5.92099	-7.77326	-15.25913
363.28125	-3.20283	7.79023	-1.32726	-12.43922
367.18750	-2.80044	5.12056	-4.95440	-9.61921
371.09375	0.42242	-0.41318	-9.79043	-3.57580
375.00000	5.25700	-1.84036	-4.95614	-0.75589
378.90625	-1.59336	-1.82303	-4.15119	-5.99457
382.81250	-3.20565	-4.27320	-4.55494	-6.80093
386.71875	-1.59444	-3.63790	-4.55570	-10.02495
390.62500	-1.59502	-1.97681	-3.75059	-3.57867
394.53125	-6.02783	-1.50989	-3.75141	4.47931
398.43750	-6.43139	-3.93355	-2.54345	3.26987
402.34375	-4.41742	-1.44376	5.51429	1.25459
406.25000	-10.05908	3.31494	3.90169	4.47739
410.15625	-8.44797	3.32287	-2.94897	6.49139
414.06250	-0.38989	4.07076	-7.38206	4.87908
417.96875	1.62414	6.03867	-12.21801	10.92240
421.87500	-4.82340	4.19071	-6.57780	10.92175
425.78125	-2.80942	-0.61652	-0.53453	6.48888
429.68750	-0.79545	0.17302	3.09102	8.50288
433.59375	-8.45176	-0.81155	8.32827	9.71101
437.50000	-7.64641	-4.13888	6.71572	6.48694
441.40625	-7.24411	-7.51627	3.08847	3.66580
445.31250	-11.67694	-6.56997	-2.15048	4.47102
449.21875	-15.30379	-0.14576	-2.95719	4.87342
453.12500	-8.45453	-0.84417	-2.55510	12.12558
457.03125	-2.41110	2.20316	-8.59993	18.97477
460.93750	-4.82922	5.74369	-5.78017	11.72141
464.84375	-6.84433	-0.44452	-0.94583	3.25934
468.75000	-2.41253	-1.66440	-2.96126	7.69113
472.65625	-2.01015	-0.05561	-4.17083	8.49646
476.56250	-6.84575	-2.73532	0.26056	8.09307
480.46875	-6.04028	-1.15689	3.88603	10.10731
484.37500	-10.06998	4.05819	2.27352	7.68930
488.28125	-11.27921	4.07635	-0.54782	9.70350
492.18750	-7.25029	-0.46045	0.25715	13.73233
496.09375	-8.86236	-4.84957	-6.19059	10.10544
500.00000	-1.20711	-7.26470	-13.04120	8.89607
503.90625	8.46287	-4.34532	-5.38632	18.16295
507.81250	8.46250	-5.48971	9.92431	24.60934
511.71875	2.41814	-3.67030	13.54995	22.19125
515.62500	-4.43214	7.14457	-0.15052	6.87940
519.53125	-1.20910	9.58291	-11.83634	0.83490
523.43750	4.02859	5.77222	-5.79315	10.10176
527.34375	6.44572	2.67559	1.86165	14.93635
531.25000	11.68332	-1.22364	2.26373	20.97971
535.15625	12.48869	-3.82012	3.87460	25.00841
539.06250	8.86188	-2.18724	5.88849	25.00779
542.96875	10.47316	-6.28593	3.06729	18.96325
546.87500	11.68151	-10.51436	-2.17153	10.09819
550.78125	11.68104	-2.79168	-0.15761	14.52976
554.68750	11.68057	-1.88136	-2.17296	20.17022
558.59375	14.50058	-4.69815	-13.45579	15.73734
562.50000	8.05321	1.78708	-7.81558	15.73671
566.40625	0.80001	5.30451	5.07736	16.54196
570.31250	2.00832	1.29520	4.67370	15.33264
574.21875	1.20196	0.47206	-0.96814	14.12323
578.12500	3.61909	-0.36511	-1.77474	14.92844
582.03125	9.66255	-1.84021	1.85090	20.56882
585.93750	6.03564	1.77835	0.64134	19.35945
589.84375	-0.41169	0.96243	-4.59753	16.94117
593.75000	-1.62098	-6.83188	-0.56893	20.16397
597.65625	-2.83027	-4.09435	5.47423	18.95454
601.56250	-4.84542	2.17274	6.27925	19.75978
605.46875	-4.44301	3.48379	3.05500	13.71527
609.37500	0.39173	3.46131	-0.57212	11.29711
613.28125	5.22638	-1.22798	2.65051	10.49065
617.18750	6.43463	-2.58721	9.09670	12.50466
621.09375	5.22524	-2.29109	12.31941	16.13042
625.00000	9.25396	-1.26639	8.69226	12.50332
628.90625	3.20946	1.53721	5.87094	11.69681
632.81250	-2.02920	2.37609	7.07902	11.29318
636.71875	-2.83561	-4.70574	7.07827	15.72471
640.62500	-6.46261	-8.38101	7.88332	16.52988
644.53125	-4.44852	-1.19176	1.03272	12.49991
648.43750	-4.44900	5.26163	-2.99739	10.08174
652.34375	-6.06119	7.20446	-5.41584	7.26053
656.25000	-4.04709	7.28143	-2.19323	13.70673
660.15625	-2.83880	5.66217	7.47630	21.76461
664.06250	2.39879	3.30297	3.84907	25.39032
667.96875	8.84511	-1.88787	1.02782	25.38958
671.87500	4.41228	-4.06890	4.25060	22.97123
675.78125	5.21755	-0.87297	5.45871	21.35882
679.68750	2.79938	-3.67677	7.87550	21.76101
683.59375	-1.63334	-3.90063	11.90402	21.35742
687.50000	-0.42504	-3.39337	10.69435	20.14792
691.40625	0.38034	-0.82137	3.84369	21.75896
695.31250	1.18573	6.69435	0.21661	26.99642
699.21875	2.79695	7.12036	0.61876	30.21920
703.12500	-2.03870	4.19283	0.61798	38.27711
707.03125	-2.03929	3.56365	-0.18868	42.30577
710.93750	8.43631	3.24711	5.85447	41.09623
714.84375	10.04743	4.60070	2.22737	40.69254
718.75000	10.44981	4.61231	1.01785	31.82740
722.65625	16.09031	4.61576	9.47869	29.81204
726.56250	17.29849	2.86372	11.08963	33.43768
730.46875	10.44817	0.47998	7.05954	37.06340
734.37500	9.23883	3.32384	4.23827	41.89787
738.28125	0.77672	0.08267	1.01401	43.10600
742.18750	-4.05893	-1.42394	1.81906	44.31413
746.09375	-0.83598	-1.86940	5.84759	44.71636
750.00000	-0.83653	-6.30360	5.44397	41.89518
753.90625	3.99805	-4.79020	2.21984	45.52079
757.81250	7.62390	-6.86872	3.42790	51.56408
761.71875	-1.64405	-7.88178	8.26229	43.10182
765.62500	-12.52370	-1.77304	5.84399	35.84841
769.53125	-3.25675	-0.18157	7.05211	45.51802
773.43750	12.05416	-2.01133	12.69241	59.21695
777.34375	19.30644	-4.95800	15.91508	68.08073
781.25000	18.90305	-3.87873	11.88499	65.25945
785.15625	22.93185	-2.49048	10.27248	67.27340
789.06250	20.11085	-4.12297	13.89810	71.70495
792.96875	16.08102	-2.44125	13.49437	69.68958
796.87500	32.19766	-2.64450	11.88194	64.85363
800.78125	41.86744	-5.12852	10.67243	56.39125
804.68750	39.04644	-2.00905	9.46291	58.00227
808.59375	41.46353	-4.42973	8.65632	63.23970
812.50000	43.88050	-10.51148	11.87906	59.20961
816.40625	37.43290	-7.98432	11.47542	55.58240
820.31250	32.19411	-7.60076	10.26590	55.17853
824.21875	26.95526	-8.38883	5.02703	51.14827
828.12500	29.77492	-2.71606	-8.27044	52.35603
832.03125	30.17697	4.80364	-1.01848	52.35492
835.93750	27.75847	3.20026	10.26274	43.48930
839.84375	29.36932	-2.02718	11.87372	43.48820
843.75000	23.72733	1.33549	17.11100	43.88997
847.65625	20.10010	3.43366	12.27505	39.85946
851.56250	17.27868	3.61405	13.48302	40.66414
855.46875	14.86023	1.49770	18.72031	37.84248
859.37500	13.65058	-4.12034	17.51067	37.84132
863.28125	13.64977	-3.86272	12.67472	33.40794
867.18750	14.45478	-0.48824	8.24172	28.57165
871.09375	18.88622	-2.79833	12.67329	29.77933
875.00000	19.69133	-2.61363	11.86678	26.95767
878.90625	18.48178	2.23895	9.04550	29.77715
882.81250	16.86937	2.60938	13.87998	26.55268
886.71875	7.60130	0.82729	13.87927	26.95460
890.62500	9.61527	0.07100	14.68441	23.73018
894.53125	16.86739	1.34393	13.87787	20.10286
898.43750	10.41990	0.53220	9.84780	25.34002
902.34375	8.40467	3.02220	0.98258	22.11564
906.25000	13.64219	4.15470	-6.27098	22.11475
910.15625	17.26796	-1.07524	0.57801	22.11385
914.06250	18.07331	-4.35643	9.84457	22.91877
917.96875	13.64042	-3.99999	12.66428	24.93249
921.87500	10.41631	-0.60961	8.23129	22.11107
925.78125	10.81869	-0.17863	6.21596	18.88673
929.68750	14.04158	0.61117	9.43869	22.10934
933.59375	7.59409	-0.77609	11.45258	26.13778
937.50000	7.59349	-1.68557	9.84001	24.52521
941.40625	7.99585	-3.04815	9.03332	18.48034
945.31250	5.57786	-1.29573	9.03244	12.83850
949.21875	7.18904	2.71107	-3.05627	10.42003
953.12500	7.99435	0.40115	-7.89214	13.23964
957.03125	4.77049	-0.98359	5.80675	11.62701
960.93750	-0.06525	-2.68099	10.23828	9.20849
964.84375	0.33713	-0.81044	10.64047	7.59598
968.75000	1.94829	2.80507	11.84847	7.19230
972.65625	-0.46978	2.39944	10.23594	9.20625
976.56250	-1.27624	3.74929	5.40010	6.78797
980.46875	4.36428	5.32786	2.57891	7.59309
984.37500	3.55792	2.08162	2.98115	10.00992
988.28125	1.54273	4.11463	-1.04893	10.41199
992.18750	-0.87545	4.41313	0.56196	12.02297
996.09375	-4.09948	-2.79633	4.99344	14.03681
1000.00000	-5.30889	-3.59949	2.97810	13.63301
1003.90625	-2.89194	-4.30627	5.39501	12.82633
1007.81250	-1.28093	-3.03285	1.76790	12.82547
1011.71875	-0.47570	-3.22786	0.96136	12.42165
1015.62500	0.73242	-9.73874	9.42220	9.60033
1019.53125	1.13478	-7.70309	10.22729	7.58479
1023.43750	-0.07455	-0.23154	7.00300	10.00153
1027.34375	-4.10437	3.92475	4.18170	10.40357
1031.25000	-8.53717	-3.60065	0.55460	10.80568
1035.15625	-12.56699	-8.61452	-5.89293	8.79026
1039.06250	-9.74699	-6.17560	-2.67019	7.98363
1042.96875	-2.89777	-5.84190	1.76127	11.20617
1046.87500	-2.49538	-8.05546	4.17813	13.62296
1050.78125	1.53336	-5.97366	7.40085	13.21919
1054.68750	2.74157	-1.43671	1.35619	12.41252
1058.59375	-2.89996	-1.83572	-1.46507	11.60587
1062.50000	1.93462	-3.40883	1.75765	11.60514
1066.40625	-0.48349	-4.32348	-0.66069	14.82785
1070.31250	-4.91627	-1.88575	0.14434	18.05052
1074.21875	-4.91678	-1.90285	4.17292	14.82627
1078.12500	-6.52900	-1.93389	-0.26003	12.81088
1082.03125	-0.88842	-2.60294	0.14220	14.01895
1085.93750	0.31985	2.62757	0.14147	12.40639
1089.84375	-0.08365	9.06453	0.54364	18.85251
1093.75000	6.76567	9.32891	8.19869	18.44879
1097.65625	3.54160	7.63442	11.82449	12.40405
1101.56250	-4.51766	3.02254	8.19747	11.19445
1105.46875	1.52576	1.91607	6.98801	6.76145
1109.37500	5.95738	3.90847	7.79317	3.13418
1113.28125	3.94220	1.23396	5.37487	0.71577
1117.18750	7.16508	-0.12509	-0.26697	1.52081
1121.09375	-0.89411	0.97705	-2.68520	1.11709
1125.00000	-4.52108	-4.84791	2.14929	1.11630
1128.90625	-6.93914	-9.29678	6.98372	3.53313
1132.81250	-9.35734	-5.63722	11.01225	-0.09405
1136.71875	-3.31393	-1.83976	4.96759	-6.54171
1140.62500	-4.52318	0.12603	0.13177	-6.13959
1144.53125	-4.52365	0.86854	-4.30119	-4.52859
1148.43750	-5.32997	-5.57175	-3.89895	-0.50005
1152.34375	-8.15094	-6.04628	2.14431	-1.30672
1156.25000	-10.56906	2.89538	4.56125	-5.73969
1160.15625	-9.36074	5.70865	0.93423	-3.32288
1164.06250	-4.12309	5.36432	-5.11027	-9.77041
1167.96875	-2.51178	3.80002	0.53013	-13.39755
1171.87500	1.11405	4.84274	6.17053	-5.74264
1175.78125	0.71044	5.62129	7.37857	-6.54932
1179.68750	2.32157	-0.40571	3.34847	-3.72965
1183.59375	5.14160	-6.27032	0.12429	3.52232
1187.50000	-0.90281	-5.76292	2.13824	-0.50774
1191.40625	0.30552	1.64449	-1.08588	-12.19357
1195.31250	2.31969	5.13111	-1.08650	-8.16513
1199.21875	-4.12769	3.94556	6.56858	-4.13663
1203.12500	0.30410	-4.21979	8.58259	-11.39015
1207.03125	3.93002	-8.07222	0.92628	-8.16743
1210.93750	2.31789	-3.55343	-2.29782	-2.12418
1214.84375	-0.90601	1.02371	1.73080	-0.51314
1218.75000	-4.93578	5.06475	0.52127	-2.93147
1222.65625	-5.74205	1.84494	1.32645	-8.17035
1226.56250	-1.31030	-0.30988	6.16094	-4.14178
1230.46875	-0.50486	2.14181	8.98081	-0.11315
1234.37500	0.30052	2.97134	4.14503	-0.11387
1238.28125	6.74694	1.74507	-1.49665	-1.72629
1242.18750	5.13469	3.46206	-3.51194	0.28761
1246.09375	6.34303	2.21088	-1.90079	-0.11607
1250.00000	5.93959	-1.41721	1.32206	-6.96658
1253.90625	-0.91077	-1.11248	1.72430	-4.54970
1257.81250	-12.19340	-2.78795	2.52943	-3.74459
1261.71875	-12.99981	-0.98037	1.31992	-7.37172
1265.62500	-5.34471	1.50215	-5.93355	-2.94020
1269.53125	-4.13644	-1.33838	-5.12832	-0.92631
1273.43750	1.50408	-0.75035	4.54144	-0.52411
1277.34375	-3.33164	-4.09983	4.13789	-0.52489
1281.25000	-6.15269	-10.27317	0.91386	1.08599
1285.15625	1.09954	-8.48177	0.91330	3.90568
1289.06250	-0.51262	-7.69642	2.52441	0.27858
1292.96875	0.69567	-3.19407	4.53843	0.68082
1296.87500	1.50116	0.63217	8.56701	3.90344
1300.78125	-2.12560	1.37174	10.17796	3.49977
1304.68750	-1.72301	4.49136	6.95382	1.08144
1308.59375	-0.91759	2.87662	7.75905	-6.57495
1312.50000	-3.73850	0.42146	6.14675	-2.94939
1316.40625	-3.73892	4.56056	-3.52419	-0.12966
1320.31250	-0.11307	7.76479	-3.92767	-4.56266
1324.21875	-0.91943	5.76810	0.90690	0.27166
1328.12500	-0.11407	5.39715	4.12982	3.89718
1332.03125	6.73527	2.03778	6.14393	5.50809
1335.93750	7.54064	-4.80348	8.56085	10.74542
1339.84375	6.73437	-6.40432	6.14248	5.50657
1343.75000	-2.13055	-3.04147	0.90365	0.67060
1347.65625	-5.35446	4.29512	1.30596	-0.94196
1351.56250	-0.92264	3.26687	4.93168	-5.77787
1355.46875	0.68866	-8.11667	3.72228	1.07114
1359.37500	1.09120	-12.92857	0.09536	7.11428
1363.28125	2.70245	-6.62675	5.73577	3.08422
1367.18750	-0.11847	-0.43161	7.74984	1.47176
1371.09375	-4.14820	0.48192	2.51117	2.27681
1375.00000	1.08943	1.47270	1.30192	6.30524
1378.90625	5.52121	4.31090	9.76288	5.49851
1382.81250	3.10319	6.29334	15.80627	6.30355
1386.71875	4.31160	2.49682	16.61146	5.49692
1390.62500	-2.94155	-3.49738	12.98441	3.88437
1394.53125	-9.79177	-1.41840	7.34281	2.27188
1398.43750	-4.55413	4.21689	0.49232	-3.37001
1402.34375	-3.34572	5.49822	-4.74644	-1.75910
1406.25000	-1.73434	4.61624	1.69989	-0.14822
1410.15625	1.89165	3.01273	6.93749	-0.55189
1414.06250	8.74113	-0.67121	7.74285	3.07368
1417.96875	7.12894	-2.32932	6.13061	1.46119
1421.87500	2.69623	1.06130	8.95045	-0.55427
1425.78125	-1.33347	4.71595	14.18789	2.26546
1429.68750	-0.93093	4.29709	13.38142	6.29399
1433.59375	7.53021	0.08948	11.36615	5.48730
1437.50000	5.51515	-2.83451	12.57438	-4.18391
1441.40625	0.67951	-4.59986	14.58847	-10.22871
1445.31250	10.75244	-5.26499	2.49994	-10.63250
1449.21875	15.58721	3.98012	-12.40906	-26.34758
1453.12500	-4.55971	11.74353	-7.97736	-63.41805
1457.03125	-23.09489	4.31488	5.72166	-90.81813
1460.93750	-28.73632	-1.00874	10.55616	-96.86297
1464.84375	-37.19832	1.26485	6.52619	-105.72822
1468.75000	-46.86912	-1.16344	0.88453	-122.65215
1472.65625	-55.33109	3.66912	-4.75710	-144.81415
1476.56250	-61.77833	7.03368	-1.93708	-143.60622
1480.46875	-55.33191	4.18011	0.88291	-130.31035
1484.37500	-56.54103	2.54580	-1.93816	-136.35512
1488.28125	-66.61469	-0.65914	-3.95340	-144.81749
1492.18750	-71.85315	-5.59846	-11.60968	-146.83298
1496.09375	-64.19781	-1.92862	-16.44542	-139.98399
1500.00000	-49.69270	3.71514	-9.59626	-122.65880
1503.90625	-42.84334	-3.03556	0.47630	-104.12483
1507.81250	-46.06729	-12.23821	1.28156	-102.11093
1511.71875	-44.85905	-9.20971	-3.95714	-102.11178
1515.62500	-32.77166	2.00848	-4.76367	-92.44244
1519.53125	-27.53406	8.07357	-3.95836	-86.80233
1523.43750	-16.65547	7.08367	-2.75007	-80.35630
1527.34375	-14.64139	3.98729	0.47278	-71.89568
1531.25000	-16.25366	0.49129	0.47218	-67.06138
1535.15625	-13.03081	0.71563	-6.37824	-60.21258
1539.06250	-17.06082	0.73713	-14.84040	-58.19900
1542.96875	-16.25556	-0.54082	-12.02052	-59.00591
1546.87500	-14.64459	0.06622	2.88727	-55.78361
1550.78125	-13.43659	-6.71629	9.33354	-52.96428
1554.68750	-10.21387	-12.65542	7.72120	-51.35364
1558.59375	-6.58827	-2.57812	4.90006	-44.10205
1562.50000	0.66376	9.54843	1.27305	-37.25340
1566.40625	3.08070	11.45438	-3.15982	-38.46333
1570.31250	3.07999	6.23658	-6.38390	-34.43517
1574.21875	1.87044	4.60800	-2.75810	-29.19819
1578.12500	-9.81525	7.80057	-0.34110	-23.55830
1582.03125	-13.44238	5.92287	-0.34165	-16.70967
1585.93750	-12.63729	1.48319	7.71633	-13.08440
1589.84375	-15.86147	0.26465	10.13329	-17.11481
1593.75000	-13.84746	0.12633	6.50630	-24.77162
1597.65625	-10.22169	-6.00027	10.13199	-23.96686
1601.56250	-2.96959	-4.56805	13.35475	-21.14744
1605.46875	2.26789	0.77262	8.51894	-19.53673
1609.37500	-2.16498	3.16800	-1.55498	-13.49381
1613.28125	-7.00072	3.71714	-12.03178	-12.28604
1617.18750	-8.61306	3.16408	-5.98830	-11.88406
1621.09375	-7.80774	2.25167	2.87559	-13.49677
1625.00000	-0.55555	-1.55850	1.66619	-16.31823
1628.90625	4.27907	1.24537	-2.76656	-12.28986
1632.81250	-2.97424	5.30803	3.67968	-11.48491
1636.71875	-11.43629	-2.57938	16.57284	-13.50046
1640.62500	-9.01916	-8.26906	15.36343	-16.72484
1644.53125	-3.78162	-4.70598	9.72179	-12.29354
1648.43750	-0.96166	0.94190	5.69186	-6.25058
1652.34375	4.27599	8.12322	-4.38200	-4.23689
1656.25000	0.64914	6.58879	-5.18841	-6.65541
1660.15625	-5.79824	5.37280	3.27257	-13.10330
1664.06250	-3.78416	9.05793	3.67485	-7.86613
1667.96875	-6.20229	9.10544	3.67418	-3.83775
1671.87500	-11.44089	4.50722	3.27074	-9.07679
1675.78125	-7.00913	2.06246	1.65852	-11.49533
1679.68750	-0.15975	3.69110	7.70191	-6.66101
1683.59375	3.86911	-0.56177	5.68669	-3.84141
1687.50000	3.86859	-1.26301	-2.37247	3.81334
1691.40625	3.46520	1.30924	0.85040	6.23003
1695.31250	-2.57924	-1.24802	8.90844	2.19977
1699.21875	-6.20611	-1.62753	9.71375	1.79583
1703.12500	-6.60951	-0.12248	9.31028	-5.86077
1707.03125	-6.60996	1.66615	8.10092	-7.47345
1710.93750	-0.56643	7.79674	-2.77870	-0.22157
1714.84375	6.68582	11.56812	-5.59981	3.40400
1718.75000	10.71462	11.17704	8.09931	3.80609
1722.65625	8.29657	5.94274	7.29291	7.43183
1726.56250	3.05805	0.16166	-4.39263	5.81952
1730.46875	-0.56874	-1.01305	-0.36382	1.38682
1734.37500	1.84836	2.63714	1.24742	2.19222
1738.28125	-1.77845	4.63445	-1.17075	7.02699
1742.18750	1.44453	1.11343	2.05207	15.08534
1746.09375	7.08510	-8.59921	7.69247	15.89092
1750.00000	9.50227	-6.98922	4.87146	9.84668
1753.90625	5.47254	-0.64044	-0.77002	4.60823
1757.81250	0.23401	-8.76268	4.06460	11.05470
1761.71875	2.65113	-10.98431	8.89917	15.48657
1765.62500	-1.78152	-4.87531	3.25759	19.91845
1769.53125	-1.37910	0.34283	1.24240	25.15618
1773.43750	1.44104	4.96031	5.27120	18.70885
1777.34375	-0.57399	6.04311	6.88237	13.47028
1781.25000	-1.78317	5.51094	8.09061	17.49914
1785.15625	-6.21580	-1.15906	-0.37154	21.93094
1789.06250	-0.97813	-1.98521	-4.80438	29.18323
1792.96875	6.27413	4.12897	4.05955	33.21202
1796.87500	-2.59076	-0.10327	6.87954	33.61440
1800.78125	-6.62055	1.84526	3.25275	32.80792
1804.68750	-5.81510	6.97967	-10.44739	35.62798
1808.59375	-0.57744	1.33568	-15.28305	46.10366
1812.50000	5.46603	-7.56627	0.83367	43.68549
1816.40625	4.65962	-12.69453	12.11523	36.83508
1820.31250	2.24147	-8.28134	12.92049	37.23737
1824.21875	3.44977	2.61592	7.27891	37.23674
1828.12500	5.06098	8.69201	5.26373	27.56578
1832.03125	2.64289	5.33289	6.06907	27.56507
1835.93750	4.65707	0.50647	5.26278	30.78776
1839.84375	7.87999	-0.28836	2.44177	29.98123
1843.75000	5.46205	0.65702	3.65003	33.60693
1847.65625	1.83527	0.74087	4.05242	31.99450
1851.56250	4.25244	0.92155	-5.21547	28.77032
1855.46875	6.26663	1.62608	-1.99253	29.97830
1859.37500	1.83407	4.06694	2.84212	33.20100
1863.28125	3.84851	1.90729	3.64748	32.39456
1867.18750	8.68354	0.84980	5.25868	30.78223
1871.09375	3.04230	6.19568	6.06399	25.14064
1875.00000	-1.39012	2.35147	6.06352	23.52829
1878.90625	-0.58432	-1.65998	4.45132	25.54238
1882.81250	1.83309	-3.30380	4.45084	25.54184
1886.71875	4.25063	-5.48846	4.45045	25.94433
1890.62500	9.89161	1.41134	0.01779	25.94392
1894.53125	9.89158	7.11689	-11.26470	24.73463
1898.43750	2.63882	5.09664	-15.29444	24.33126
1902.34375	-0.98759	-6.91853	-1.59529	26.74835
1906.25000	-3.40532	-8.60617	2.43358	18.68925
1910.15625	2.23559	-3.35964	0.82143	15.46519
1914.06250	3.84715	-2.20831	11.29713	20.29967
1917.96875	-4.21159	4.59528	11.29664	19.09028
1921.87500	-4.21174	8.38895	9.68438	22.71596
1925.78125	-2.19726	8.41733	6.46048	25.93871
1929.68750	-1.79449	7.59575	-0.38989	25.93800
1933.59375	-0.58586	5.80593	-6.03142	20.69918
1937.50000	3.04033	5.29958	-4.42023	22.71311
1941.40625	5.05480	4.34016	0.41442	24.32411
1945.31250	2.63693	1.66060	6.86087	22.30868
1949.21875	3.03959	-3.59966	11.69569	27.94890
1953.12500	5.05402	-3.49169	8.87473	23.91880
1957.03125	0.62153	-0.84690	3.23327	14.65060
1960.93750	-0.58752	-0.52942	0.00937	13.84395
1964.84375	1.82974	4.56481	-4.82628	15.45480
1968.75000	5.05293	7.77764	-6.84142	17.46858
1972.65625	0.21752	1.73127	0.41083	17.87068
1976.56250	-5.02090	-4.97724	-2.00723	13.43756
1980.46875	3.44031	-4.60715	-7.24584	14.64548
1984.37500	-1.79811	-3.01786	-4.42583	14.64457
1988.28125	-7.43958	-2.59624	-4.02335	10.61428
1992.18750	-6.63417	-1.08860	1.21426	12.22497
1996.09375	1.82703	0.56672	7.66061	13.43279
2000.00000	8.67649	4.19599	7.66012	12.62595
2003.90625	4.64675	0.66896	9.27142	16.25130
2007.81250	3.03455	-4.10132	8.46509	12.22102
2011.71875	1.01948	-1.07267	5.24113	4.56441
2015.62500	-5.83073	-2.34524	3.22600	6.57806
2019.53125	-1.80183	-2.32402	-6.04186	7.78585
2023.43750	2.22708	3.53601	-6.04239	4.56140
2027.34375	-0.19095	6.88674	-0.40190	5.76915
2031.25000	0.21156	2.98801	-2.01399	8.58871
2035.15625	0.21117	1.60082	-2.01439	9.39353
2039.06250	5.44890	2.02535	1.20858	14.63062
2042.96875	8.26904	-0.46119	2.01395	12.61493
2046.87500	1.82181	-3.48034	1.20761	3.74936
2050.78125	-3.81957	-6.63626	-0.00171	4.95715
2054.68750	-4.22300	-6.93425	0.80367	7.77667
2058.59375	-1.40298	-3.70658	2.01196	15.02839
2062.50000	3.83469	0.36152	-10.88242	19.86256
2066.40625	4.23726	2.26759	-12.09171	6.56486
2070.31250	3.02805	-4.15897	3.21929	2.13157
2074.21875	2.62461	-6.59334	2.81591	9.38330
2078.12500	-0.59925	1.83736	-0.00501	0.11488
2082.03125	-2.61429	1.16862	-2.42301	-4.31842
2085.93750	-4.22639	-2.46512	-15.31718	-1.09600
2089.84375	-3.01791	4.37504	-15.31761	-4.72336
2093.75000	3.42870	8.66912	-0.00663	0.11071
2097.65625	5.44299	7.37779	8.45452	8.57117
2101.56250	11.88954	5.18374	8.05112	7.76424
2105.46875	14.70963	2.06290	1.20088	8.97189
2109.37500	15.51502	0.42919	-1.21716	8.56786
2113.28125	12.29119	0.57553	2.40873	5.34318
2117.18750	3.02339	4.45497	4.42297	4.13315
2121.09375	5.03764	8.37798	4.82540	9.77301
2125.00000	5.44025	3.76209	3.21323	8.96593
2128.90625	2.61936	1.32805	0.39222	3.72668
2132.81250	6.64831	7.40550	-1.62279	9.76953
2136.71875	5.84195	6.77098	-5.24948	12.99172
2140.62500	2.61803	5.11072	-8.87630	10.97578
2144.53125	5.84107	7.06221	-10.89137	10.57164
2148.43750	4.22899	5.45742	-15.32404	10.57047
2152.34375	4.63151	-3.07548	-6.05713	13.38983
2156.25000	7.04865	-9.44498	6.03038	14.59752
2160.15625	3.82489	-3.00519	7.23884	11.37299
2164.06250	1.00406	3.09767	10.86488	8.95423
2167.96875	1.80950	-0.88399	10.86456	10.56474
2171.87500	4.22670	-3.87038	8.44669	8.14591
2175.78125	2.61453	-0.27101	5.62581	7.74184
2179.68750	3.82294	1.35788	-0.01555	11.76997
2183.59375	6.24016	-1.68599	-8.47751	7.33651
2187.50000	5.83686	-2.78994	-14.52195	5.72359
2191.40625	0.19551	-0.21742	-8.47856	9.34887
2195.31250	-5.84882	2.06072	3.60884	8.94479
2199.21875	1.40355	2.48727	8.44363	4.91435
2203.12500	7.04414	-2.45443	10.45795	5.31616
2207.03125	6.23797	-4.69490	7.63707	7.32970
2210.93750	7.44652	-2.19050	3.60746	3.29934
2214.84375	7.84917	-4.05997	3.20423	2.89534
2218.75000	5.83426	-8.48013	-0.82544	6.92359
2222.65625	-3.03052	-8.47629	-4.04923	3.29621
2226.56250	-1.82207	-0.15464	-5.66130	2.08635
2230.46875	1.40106	3.10311	-9.28800	6.11458
2234.37500	-1.41982	-2.11103	-2.03568	3.29303
2238.28125	-0.21138	-1.32237	10.45476	1.27733
2242.18750	4.62344	3.21534	14.08075	2.88795
2246.09375	2.20548	3.17309	9.64817	4.49861
2250.00000	-3.83883	-2.46944	7.23027	-2.75522
2253.90625	-4.24216	-2.16440	7.22991	1.27298
2257.81250	-2.22788	0.18973	5.21494	2.88356
2261.71875	-1.82525	-1.62870	5.21455	-8.80254
2265.62500	-0.61677	2.06285	4.40828	-6.78892
2269.53125	0.99458	3.25182	7.22837	-2.76073
2273.43750	4.21771	5.04898	-4.45701	-1.95598
2277.34375	15.90240	4.92312	-10.09842	8.11616
2281.25000	9.85809	-4.07040	9.24197	5.69747
2285.15625	-6.25938	-5.50228	16.89730	0.86128
2289.06250	-5.85670	-3.50789	15.68821	2.87485
2292.96875	0.58982	-4.24340	14.07609	2.06791
2296.87500	5.02173	-2.43160	12.06112	0.85801
2300.78125	2.60379	-2.49759	10.44909	-2.76947
2304.68750	0.18589	-2.60106	10.04574	-1.96474
2308.59375	0.18557	-0.58915	10.44824	-10.83029
2312.50000	0.18528	-2.64115	8.43319	-10.83135
2316.40625	2.60243	-4.94871	9.64160	-0.75922
2320.31250	-1.42727	-6.17643	3.19439	-3.17801
2324.21875	-5.85983	-8.17278	-10.10273	-0.76149
2328.12500	2.60130	-1.29073	-3.65617	4.07259
2332.03125	6.63036	7.43814	7.22260	6.08612
2335.93750	4.21254	9.05869	13.66912	2.05574
2339.84375	4.61527	5.84632	12.86289	0.84588
2343.75000	4.61503	3.56840	11.65388	2.45652
2347.65625	6.62946	-0.77973	13.66823	0.44078
2351.56250	11.46436	-5.83695	15.27952	1.64846
2355.46875	15.09044	-1.50595	13.66738	6.88552
2359.37500	12.26966	2.94974	2.38494	6.48161
2363.28125	5.82244	2.80487	-3.65930	0.83951
2367.18750	2.59867	2.55345	0.77259	4.06192
2371.09375	5.82180	1.85548	1.57811	-1.17721
2375.00000	9.85075	2.84647	1.98079	-9.23684
2378.90625	11.05921	3.67021	2.38340	3.25300
2382.81250	3.00032	0.41474	5.60653	12.51941
2386.71875	1.79124	-2.57563	12.45603	8.08610
2390.62500	5.01444	-4.54036	15.67910	3.24989
2394.53125	-4.25323	-8.50513	13.66408	2.84592
2398.43750	3.40217	-10.12235	1.17290	8.88885
2402.34375	7.02820	-5.21436	-7.69190	11.70835
2406.25000	2.19272	1.96251	-3.66291	12.51310
2410.15625	4.20706	3.58289	5.20129	12.10909
2414.06250	2.99793	-0.90667	9.63321	1.63189
2417.96875	3.80349	-0.14696	7.21540	-1.99541
2421.87500	9.84718	4.45260	8.42390	0.82412
2425.78125	13.47321	8.51036	7.61771	-0.38572
2429.68750	9.44351	10.50929	5.19988	-0.38675
2433.59375	0.57862	10.33125	4.79660	9.68553
2437.50000	-3.45107	6.60168	-0.44183	12.10204
2441.40625	-7.88362	1.21022	3.18426	11.69810
2445.31250	-7.07816	-2.67814	12.85424	14.11457
2449.21875	-2.24334	-5.11783	13.25688	10.08419
2453.12500	0.97985	-4.20407	10.43612	8.06851
2457.03125	7.42647	2.87303	6.40657	7.66457
2460.93750	2.59095	5.60825	-4.87586	4.03713
2464.84375	0.97895	-0.57937	-8.09964	-1.20199
2468.75000	-0.23015	-1.39573	-4.47364	-2.81472
2472.65625	-8.28908	5.45176	-4.47398	0.40767
2476.56250	-0.63375	5.59327	-2.45966	1.61534
2480.46875	3.39522	1.53124	0.76351	1.21138
2484.37500	-2.64900	2.71768	5.19546	-1.61021
2488.28125	-3.45523	6.76566	6.00098	0.40346
2492.18750	-6.67902	3.43822	5.19484	-0.40348
2496.09375	-15.54377	-0.95029	6.80630	-23.37153
2500.00000	-13.52947	5.49968	7.61186	-48.35419
2503.90625	-11.51515	6.40514	1.56756	-64.47250
2507.81250	-14.73883	1.63500	-2.86498	-70.11461
2511.71875	-9.50097	2.24626	1.96982	-75.35372
2515.62500	-10.71004	1.77973	6.40175	-78.57826
2519.53125	-15.54547	-0.21349	0.76032	-74.55004
2523.43750	-10.71064	-1.60605	1.16288	-74.14825
2527.34375	-5.06984	2.55066	5.99772	-75.76100
2531.25000	-7.89057	5.09888	6.80331	-72.94151
2535.15625	-7.89087	-1.92925	7.20599	-70.12207
2539.06250	-11.11464	0.51009	4.38526	-70.52607
2542.96875	-11.92082	7.29110	2.37033	-61.66274
2546.87500	-7.08588	3.06325	2.77301	-55.61987
2550.78125	-4.66862	1.51913	1.56390	-57.23264
2554.68750	-5.47473	4.84771	-0.04815	-56.83076
2558.59375	-9.90721	3.64329	-4.48076	-49.98204
2562.50000	-12.72807	2.47346	-5.68992	-50.38608
2566.40625	-9.50489	-1.66421	6.80059	-51.19294
2570.31250	-7.89333	-3.25541	12.44140	-45.55285
2574.21875	-4.26725	-0.45164	5.99430	-41.92751
2578.12500	-0.64118	1.93522	5.99405	-33.06408
2582.03125	-2.65605	5.29590	7.60539	-25.81242
2585.93750	-8.29729	1.66233	6.39632	-24.60467
2589.84375	-13.13265	-4.39113	3.17260	-24.20288
2593.75000	-9.10360	-0.49992	-4.08045	-25.41282
2597.65625	-2.65698	5.86460	-6.09541	-24.20516
2601.56250	-4.67197	5.28248	1.55986	-23.40046
2605.46875	-9.50742	3.77359	8.81222	-27.43089
2609.37500	-1.85201	5.76634	10.02071	-26.62614
2613.28125	1.37115	5.10692	9.21462	-20.98628
2617.18750	-2.65848	2.53950	6.79678	-18.56980
2621.09375	0.96756	0.01569	3.17018	-16.95918
2625.00000	-4.67377	-2.18246	0.34932	-18.97483
2628.90625	-6.28572	-0.18407	3.16958	-13.73781
2632.81250	-6.28601	-1.35915	2.76635	-4.47159
2636.71875	-5.48047	4.05047	-1.66620	-4.47276
2640.62500	-0.24265	12.06070	-2.47232	-4.07099
2644.53125	1.77172	6.75967	-5.29310	-1.65461
2648.43750	5.39783	0.72284	1.95927	-1.25279
2652.34375	9.02385	-4.18350	8.00285	-0.85096
2656.25000	8.62063	-2.49423	4.77910	-1.25503
2660.15625	2.57633	6.76628	5.18175	-5.28545
2664.06250	8.21710	4.40772	10.01659	-4.07774
2667.96875	13.45496	0.42631	8.40459	-2.87002
2671.87500	11.44008	2.27527	7.19550	-1.25943
2675.78125	11.84281	4.26315	6.38937	4.78339
2679.68750	13.85719	3.07169	-4.89300	-2.47049
2683.59375	7.41002	0.43085	-5.29616	-8.51554
2687.50000	3.38051	2.14749	3.16508	-1.26386
2691.40625	2.57437	5.52595	3.16474	-1.26492
2695.31250	-9.91667	4.58070	1.55270	-3.28065
2699.21875	-17.16974	0.97803	3.56707	-1.67009
2703.12500	-11.12598	4.90088	4.37270	-1.67127
2707.03125	-6.69405	6.28692	-1.26861	1.95396
2710.93750	-3.06793	-0.07295	-4.49234	-0.46482
2714.84375	-1.45652	-0.73340	1.14841	-2.07770
2718.75000	-2.66557	4.11399	-0.06064	0.33872
2722.65625	-2.26298	6.13276	-5.70194	0.33752
2726.56250	1.76609	3.57544	1.95353	1.14221
2730.46875	-4.68106	-4.04587	6.78844	-2.08234
2734.37500	-8.30770	-6.03649	5.17641	-0.06881
2738.28125	-5.48747	-6.85944	5.57900	5.16820
2742.18750	-12.33756	-11.18601	5.98169	15.24036
2746.09375	1.76470	-8.00459	-0.86833	25.71544
2750.00000	12.24069	0.85855	-6.50959	16.04396
2753.90625	0.55549	5.99894	-4.09223	5.96959
2757.81250	-3.47405	5.53274	-0.46614	12.41538
2761.71875	2.97259	6.13202	-2.48104	12.81715
2765.62500	8.21046	9.42075	-4.89893	12.01014
2769.53125	7.40436	8.99810	-12.55489	17.24704
2773.43750	2.97185	7.97474	-14.56982	21.67816
2777.34375	-5.08700	3.41683	-4.09387	20.87121
2781.25000	-1.46092	1.27327	1.14398	22.48172
2785.15625	3.77690	4.67669	3.56125	27.31573
2789.06250	5.79127	1.83610	0.74047	26.91155
2792.96875	6.99982	-0.51099	3.15778	32.55131
2796.87500	6.59673	3.71846	3.56041	36.57946
2800.78125	9.01411	2.44382	-0.06617	33.75772
2804.68750	10.62567	-2.89760	2.75411	30.53312
2808.59375	8.61079	-2.49726	-3.29011	35.36716
2812.50000	4.17833	0.28598	-12.55777	34.96302
2816.40625	4.17813	5.23130	-9.73747	26.90327
2820.31250	11.02769	6.42132	-4.49962	27.70795
2824.21875	6.99818	3.21628	-0.06765	26.49801
2828.12500	3.37163	0.42816	1.54377	21.66173
2832.03125	6.99775	0.29269	-2.48583	22.46642
2835.93750	6.99755	-0.10122	-3.69491	25.68875
2839.84375	7.80323	0.31294	1.94589	32.53743
2843.75000	7.40012	-1.56183	6.78075	33.34219
2847.65625	4.57939	-2.28343	-0.06934	29.31172
2851.56250	4.98206	-0.49068	-0.87539	26.89287
2855.46875	3.77308	2.63168	-1.27854	21.65357
2859.37500	4.57880	2.25233	-7.32275	22.86120
2863.28125	4.98150	-0.71283	-2.08494	22.85999
2867.18750	-0.65966	-3.38176	1.13823	20.44118
2871.09375	-0.65986	-3.67662	0.33202	24.46923
2875.00000	6.99552	0.94090	-2.89159	26.48269
2878.90625	11.83043	4.18230	-2.89177	23.66101
2882.81250	6.99500	4.55331	-1.28030	26.48035
2886.71875	3.77136	3.57771	-0.47464	25.67335
2890.62500	5.78578	0.00150	2.34564	25.67219
2894.53125	5.38264	-1.94839	0.73361	24.46227
2898.43750	11.42636	-3.96839	-9.33994	20.83490
2902.34375	10.62029	-9.13347	-15.78700	22.84856
2906.25000	3.77021	-3.97115	-1.68458	21.23583
2910.15625	0.94949	4.90195	10.40320	19.22022
2914.06250	-5.09465	7.66516	9.59707	16.80173
2917.96875	-8.31833	8.42500	3.95582	12.77144
2921.87500	-7.51276	5.77199	-1.28252	12.77048
2925.78125	-1.06612	4.59185	-2.89444	17.20175
2929.68750	0.54532	6.59093	-3.29767	16.79788
2933.59375	5.78312	3.99547	-2.49210	14.37933
2937.50000	9.81212	0.26594	-9.34207	11.96074
2941.40625	2.55911	-0.69314	-16.99793	8.73626
2945.31250	3.36479	4.28316	-8.93952	11.15281
2949.21875	6.58798	8.29068	5.16290	14.77815
2953.12500	8.60234	7.59306	7.58021	13.16535
2957.03125	4.57278	5.40301	-0.47865	9.94088
2960.93750	2.15490	2.49737	-8.13454	6.31353
2964.84375	0.14004	3.15973	-6.92604	11.55064
2968.75000	-1.47189	0.73170	-1.68818	9.13206
2972.65625	4.16895	-0.88231	-0.07668	6.31060
2976.56250	-0.26350	3.28854	-7.32968	9.93597
2980.46875	-3.48715	4.46469	-10.55340	9.53211
2984.37500	-3.08439	2.83078	-3.70383	9.93403
2988.28125	-5.90511	1.64089	0.32536	10.73888
2992.18750	-6.71129	1.94006	3.14581	-0.54417
2996.09375	-10.74081	4.80444	0.32506	-3.36567
