 	TP9	AF7	AF8	TP10	
-1000.00000	-12.47409	-6.02007	-2.40599	-29.34674
-996.09375	-14.93563	0.02432	-2.40409	-26.97004
-992.18750	-14.60659	0.42763	-2.80510	-22.17566
-988.28125	-9.75638	-3.60127	0.01738	-31.48393
-984.37500	-17.16709	-5.61552	-2.39820	-37.56880
-980.46875	-19.70252	-11.65910	-6.82852	-28.74529
-976.56250	-20.98634	-11.25581	-6.82657	-31.20380
-972.65625	-20.25825	-1.58516	-2.79530	-28.02125
-968.75000	-11.62177	2.84749	-1.18160	-28.86798
-964.84375	-9.65367	-1.98730	-4.80593	-40.19097
-960.93750	-11.59954	-1.58406	-6.41563	-37.00853
-957.03125	-15.68961	0.02804	-5.20486	-39.87004
-953.12500	-18.63355	0.83423	-2.78523	-41.52284
-949.21875	-9.91074	1.23752	2.45491	-33.50527
-945.31250	-10.65932	-1.98563	-0.76649	-33.14333
-941.40625	-13.55897	-5.61176	-4.79372	-27.94632
-937.50000	-12.74594	-6.82026	-4.38868	-29.19620
-933.59375	-13.75306	-3.99939	-6.80421	-34.47538
-929.68750	-18.71897	-5.61081	-5.19042	-34.91948
-925.78125	-19.38242	-8.83390	0.04975	-33.34895
-921.87500	-12.29388	-7.62478	1.66359	-30.97257
-917.96875	-16.59017	-8.83329	-0.75189	-36.25191
-914.06250	-18.90603	-10.84763	-1.55565	-35.48747
-910.15625	-15.07243	-13.26494	-3.56824	-28.27621
-906.25000	-15.27738	-8.02657	-1.55153	-29.12363
-902.34375	-13.05359	-2.78820	0.06223	-34.80636
-898.43750	-13.93099	-9.63768	-2.35322	-35.65400
-894.53125	-23.61013	-12.05497	-5.57459	-39.72512
-890.62500	-23.13908	-11.24875	-6.37835	-40.16995
-886.71875	-18.89518	-9.63675	-1.13824	-34.97385
-882.81250	-18.66749	-8.02476	0.07265	-33.40407
-878.90625	-15.24857	-8.02443	-1.93992	-33.84900
-875.00000	-14.96495	-8.82993	0.88273	-29.45879
-871.09375	-17.52449	-8.82959	0.48184	-23.05407
-867.18750	-20.56473	-10.03803	-2.73957	-27.52849
-863.28125	-20.68256	-8.82886	1.69475	-31.19712
-859.37500	-18.93670	-8.02264	4.11438	-28.41883
-855.46875	-20.36360	-16.08085	-6.35967	-27.25229
-851.56250	-26.82615	-18.09512	-11.59567	-37.36773
-847.65625	-26.32743	-12.45369	-4.74379	-40.23042
-843.75000	-25.15013	-10.43865	-2.32412	-36.64630
-839.84375	-26.21060	-10.03534	-3.93380	-37.49432
-835.93750	-27.31108	-11.24366	-2.31994	-40.35692
-832.03125	-29.67870	-14.06377	-6.75008	-41.20491
-828.12500	-25.30133	-13.25749	-10.77730	-40.44136
-824.21875	-19.58751	-10.43655	-4.32831	-36.85733
-820.31250	-22.16996	-8.01861	-1.50570	-26.82618
-816.40625	-23.71742	-1.16833	-4.72700	-24.45074
-812.50000	-24.05803	1.65264	-5.12777	-30.93968
-808.59375	-21.91436	-0.76449	-5.12555	-34.60804
-804.68750	-17.70044	-3.18153	-7.54083	-35.05303
-800.78125	-20.11984	-8.01620	-6.73271	-39.52717
-796.87500	-23.68361	-8.82159	-2.29819	-41.18092
-792.96875	-18.01305	-6.80649	2.94219	-37.19372
-789.06250	-14.95229	-5.19424	-0.68193	-31.99770
-785.15625	-17.48046	-6.80550	-2.69428	-32.03967
-781.25000	-11.60837	-7.61087	0.12852	-31.27574
-777.34375	-8.67583	-1.56640	0.93678	-22.85604
-773.43750	-12.74354	-6.40101	1.34204	-22.09197
-769.53125	-13.67577	-13.25033	-1.07322	-28.98373
-765.62500	-15.30541	-7.60872	-4.69720	-39.90472
-761.71875	-15.58248	-5.59351	-5.90360	-45.99063
-757.81250	-12.13914	-7.60762	-4.69243	-42.80909
-753.90625	-8.64462	-6.39828	-7.10767	-42.04506
-750.00000	-10.01919	-2.77141	-7.50818	-37.65477
-746.09375	-12.38776	-1.96497	-5.49115	-30.44401
-742.18750	-12.30884	-1.15857	-8.30936	-26.45674
-738.28125	-9.49839	0.45369	-5.48646	-22.46945
-734.37500	-4.50022	-1.96330	-4.67823	-16.87049
-730.46875	-14.04760	-9.61844	-13.13737	-26.17987
-726.56250	-17.59393	-5.18564	-10.31448	-31.05704
-722.65625	-9.45251	-1.96164	-7.08864	-28.68152
-718.75000	-10.42834	-4.37869	-5.47448	-34.76741
-714.84375	-9.97392	-6.79577	-3.86039	-32.39173
-710.93750	-12.45534	-12.43624	-6.27552	-36.86599
-707.03125	-15.61312	-9.21225	-6.27306	-38.51979
-703.12500	-11.05252	-1.15312	-5.06189	-28.48867
-699.21875	-14.53231	2.07086	-5.86529	-31.35123
-695.31250	-15.79345	0.86260	-7.07163	-35.01964
-691.40625	-17.32109	1.66897	-8.27798	-39.89678
-687.50000	-18.53209	0.46068	-9.48428	-41.55050
-683.59375	-11.07314	-1.55344	-7.46718	-34.74263
-679.68750	-8.11700	0.86472	-3.83837	-34.78464
-675.78125	-12.28388	-0.34352	-3.43292	-40.46759
-671.87500	-9.69711	-1.55173	-5.04215	-39.70358
-667.96875	-7.00771	-0.74527	-1.81623	-39.74549
-664.06250	-8.71664	-3.96808	-4.63429	-36.16109
-660.15625	-9.32229	-1.95281	-7.45231	-27.33861
-656.25000	-7.50108	4.49467	-3.82346	-22.94824
-652.34375	-3.67639	5.70409	-3.01509	-20.57249
-648.43750	-6.82382	-1.54803	-5.02721	-18.59971
-644.53125	-11.24271	-10.41183	-7.44225	-24.28269
-640.62500	-14.93302	-6.78489	-7.43972	-27.14512
-636.71875	-13.53175	-2.35207	-7.84011	-22.75480
-632.81250	-10.53190	-4.36613	-5.82292	-22.79682
-628.90625	-13.54373	-2.35087	-6.62625	-26.46528
-625.00000	-4.95873	-0.33562	-10.25016	-24.49261
-621.09375	15.73697	2.48542	-9.44175	-6.40260
-617.18750	19.99024	3.69481	-5.40988	4.03177
-613.28125	-0.83991	1.68077	-3.79555	-18.17127
-609.37500	-16.68395	-4.36258	-2.58410	-37.55378
-605.46875	-24.51998	-11.61471	-2.58140	-44.44543
-601.56250	-30.54377	-11.21120	-7.81678	-55.76919
-597.65625	-31.84389	-11.21069	-4.18763	-55.00503
-593.75000	-34.62835	-8.79266	2.26195	-55.85250
-589.84375	-37.59273	-2.34530	1.45884	-63.14684
-585.93750	-40.91983	-8.79177	-2.56767	-56.33857
-582.03125	-46.20319	-18.05872	-6.19120	-56.38012
-578.12500	-33.65282	-13.22314	-3.77083	-54.81001
-574.21875	-29.28877	-8.38751	-0.14161	-52.03114
-570.31250	-32.34260	-11.61052	-2.95932	-55.29616
-566.40625	-20.71707	-9.99843	-6.58279	-58.56095
-562.50000	-17.55104	-7.98343	-4.56525	-56.58774
-558.59375	-17.27230	-8.78887	-1.74182	-47.76482
-554.68750	-7.37896	-7.17671	-0.53006	-39.34478
-550.78125	-4.55191	-5.96756	-2.13882	-39.38634
-546.87500	-7.02739	-12.81707	-4.95646	-42.65137
-542.96875	-1.41116	-13.21963	-3.74473	-44.30462
-539.06250	-4.87005	-1.93711	-2.93598	-39.91404
-535.15625	-10.79861	-1.53382	-5.35061	-41.16453
-531.25000	-9.01021	-0.72754	-8.57114	-43.22085
-527.34375	-9.52017	2.89933	-13.00048	-39.63612
-523.43750	-6.25343	3.30276	-12.59462	-39.67784
-519.53125	-5.31639	7.33254	-6.95074	-40.12253
-515.62500	-9.32289	2.09490	-3.72442	-39.76131
-511.71875	-5.81748	-4.75453	-6.94499	-38.59426
-507.81250	8.07002	0.48403	-3.71865	-26.14528
-503.90625	15.45968	4.91681	0.71648	-20.54616
-500.00000	9.58641	6.12612	-6.93636	-29.04958
-496.09375	10.75099	12.17053	-7.33641	-27.47976
-492.18750	13.90031	14.18569	-4.51307	-19.86611
-488.28125	10.69166	11.36575	-8.94245	-23.93741
-484.37500	12.14508	8.94867	-8.93958	-27.20287
-480.46875	11.22110	3.30817	-7.32496	-26.43894
-476.56250	5.90766	-0.72072	-7.32210	-26.88393
-472.65625	5.02380	-2.33191	-8.52805	-22.49368
-468.75000	11.24237	4.51839	-8.92813	-15.28291
-464.84375	12.00142	4.51887	-8.92526	-12.10160
-460.93750	11.26400	2.10179	-7.71359	-8.11446
-457.03125	10.39707	7.34034	-5.29309	-8.96243
-453.12500	4.22933	8.14663	-5.69317	-17.06323
-449.21875	8.11669	12.17641	-6.49615	-19.52290
-445.31250	13.41175	15.40038	-6.09029	-14.72984
-441.40625	6.88550	12.98328	-7.69915	-14.36898
-437.50000	4.87771	11.37212	-6.08451	-22.06685
-433.59375	14.74943	14.59611	-4.46993	-17.27389
-429.68750	16.23014	16.20832	-6.07876	-12.48085
-425.78125	5.49315	6.13561	-10.91110	-14.94062
-421.87500	7.34336	1.70389	-12.51993	-16.19160
-417.96875	16.74660	12.58356	-10.50242	-13.41328
-414.06250	18.86309	20.23974	-5.66438	-5.79974
-410.15625	14.23535	16.61395	-6.06435	-11.08006
-406.25000	10.40425	12.18220	-11.29953	-13.53998
-402.34375	11.01646	12.98851	-10.89372	-8.74705
-398.43750	18.19796	14.60082	-12.90546	-9.19225
-394.53125	19.80099	14.19847	-15.72305	-7.62276
-390.62500	16.24311	13.79611	-9.67618	-8.06800
-386.71875	19.27866	11.78203	-8.86738	-10.52787
-382.81250	21.52134	12.58851	-9.67028	-9.36130
-378.90625	21.71725	11.78318	-5.63803	-10.20939
-375.00000	22.00129	11.78374	-7.24676	-10.65461
-371.09375	19.44208	15.00775	-9.25846	-9.48814
-367.18750	19.62574	20.64933	-4.42037	-9.93339
-363.28125	23.53760	20.64987	-1.19399	-4.73761
-359.37500	21.65735	14.20352	-2.80282	-4.77999
-355.46875	21.03667	17.42753	-5.21742	-10.06049
-351.56250	21.02126	20.24854	-7.63208	-11.31171
-347.65625	19.10267	21.86079	-9.64377	-5.31022
-343.75000	19.87724	26.69651	-9.23785	-0.92041
-339.84375	24.86100	19.84729	-10.44369	-2.97755
-335.93750	27.38700	14.20680	-8.82903	-4.22888
-332.03125	27.43713	17.83377	-6.00551	-4.67441
-328.12500	33.02339	18.64018	-4.79380	-2.70237
-324.21875	32.29056	18.23777	-5.59668	-1.53619
-320.31250	26.88764	16.62660	-6.39957	0.43592
-316.40625	28.56371	20.25348	-7.20244	-0.81540
-312.50000	29.02903	21.05989	-8.40824	-3.67839
-308.59375	31.17277	16.22528	-8.40526	0.71138
-304.68750	27.32812	16.62872	-8.80525	0.66881
-300.78125	29.34089	20.25552	-5.57885	-1.79139
-296.87500	31.01514	18.24137	-3.96413	0.18064
-292.96875	30.64178	17.03312	-4.76708	-0.26492
-289.06250	36.52294	23.88348	-1.54068	0.09539
-285.15625	37.62092	29.12209	-1.53775	2.47035
-281.25000	35.03137	26.70502	-5.16114	0.41309
-277.34375	27.48732	17.03521	-8.78462	-6.47947
-273.43750	30.26899	17.03575	-10.39342	-2.49300
-269.53125	36.18624	17.03628	-7.97297	0.68760
-265.62500	32.54157	9.78407	-8.37297	-3.38458
-261.71875	29.84657	10.18756	-8.77301	1.81067
-257.81250	34.09537	17.03787	-5.54663	11.84104
-253.90625	36.38065	18.24720	-2.32027	13.40991
-250.00000	32.18524	17.03896	-2.72029	12.96413
-246.09375	28.20462	14.21901	-4.32904	17.35356
-242.18750	37.14775	10.59318	-3.92316	28.18989
-238.28125	32.70514	18.24932	-4.32318	26.53533
-234.37500	15.13885	19.45862	-7.54368	9.97240
-230.46875	25.73759	17.44449	-5.92898	11.94425
-226.56250	31.86129	15.83333	-3.91136	20.36300
-222.65625	23.48216	15.02796	-3.90838	16.29096
-218.75000	23.71486	12.61092	-3.90540	14.63649
-214.84375	31.42167	14.22313	-5.11122	19.02601
-210.93750	32.16331	21.87937	-5.51119	20.59509
-207.03125	27.39352	21.47697	-6.31407	18.53765
-203.12500	25.90982	20.67166	-9.13160	13.65975
-199.21875	27.66782	20.67222	-7.51693	12.81115
-195.31250	27.21213	15.43469	-6.70811	13.57420
-191.40625	22.46056	12.61478	-7.10803	14.33729
-187.50000	18.83157	16.64468	-5.09041	14.69752
-183.59375	27.09599	23.09218	-4.68452	18.28116
-179.68750	26.82833	20.27221	-4.68151	18.64146
-175.78125	18.63180	13.42304	-6.69318	16.18121
-171.87500	22.42684	15.03533	-6.69022	16.13846
-167.96875	25.11570	17.45352	-9.10480	12.06638
-164.06250	23.00350	15.03651	-13.93701	12.02361
-160.15625	24.00914	14.23127	-12.32225	16.41309
-156.25000	28.24742	15.84367	-10.70754	15.56449
-152.34375	33.68329	21.48528	-9.49574	19.95399
-148.43750	33.35579	23.09765	-9.89573	19.10532
-144.53125	35.38319	19.47187	-11.10147	17.85371
-140.62500	35.72177	21.89008	-11.09847	21.43726
-136.71875	35.10785	23.90532	-11.09546	20.58854
-132.81250	36.09268	21.89124	-9.88370	20.54567
-128.90625	35.49796	20.68307	-7.46305	22.11452
-125.00000	38.44144	16.25147	-10.28047	19.25126
-121.09375	39.79594	17.86386	-15.91843	15.58208
-117.18750	33.57243	24.71427	-18.33286	14.73343
-113.28125	22.54850	22.70026	-17.52394	10.66131
-109.37500	24.91596	22.70091	-13.08860	10.61853
-105.46875	29.62555	23.10450	-11.47382	12.59041
-101.56250	25.44143	17.86704	-13.88834	16.97992
-97.65625	29.34580	19.88232	-13.07933	20.16065
-93.75000	33.56247	26.73271	-10.25571	15.68562
-89.84375	34.21902	30.76261	-11.05845	16.85157
-85.93750	32.88186	30.76321	-15.08470	16.00290
-82.03125	31.88695	28.74916	-17.09625	7.49855
-78.12500	34.43079	28.74975	-15.48143	4.23227
-74.21875	36.16177	25.92984	-13.86669	1.77186
-70.31250	28.59412	21.09521	-13.05774	-3.50900
-66.40625	26.81063	19.48410	-11.44300	-3.14880
-62.50000	30.25281	21.09643	-12.24577	0.43472
-58.59375	29.48853	25.93229	-14.25731	2.40660
-54.68750	23.90477	25.12708	-13.04541	3.97566
-50.78125	26.18179	25.12766	-9.41602	7.15641
-46.87500	30.35009	28.35164	-11.42762	6.30785
-42.96875	27.38049	27.54628	-13.84213	3.04170
-39.06250	27.80930	25.12931	-13.83904	0.58145
-35.15625	28.62677	21.50348	-14.64182	2.55344
-31.25000	32.63182	17.47476	-11.01233	2.51076
-27.34375	35.84697	16.66949	-11.81517	-0.35243
-23.43750	36.55962	22.31111	-11.40913	2.02243
-19.53125	37.84770	22.31174	-6.97378	8.82959
-15.62500	40.66008	23.11829	-6.97070	9.59276
-11.71875	37.88006	28.35705	-8.57935	7.53548
-7.81250	38.06639	29.96937	-6.56160	15.55140
-3.90625	31.99571	23.12012	-7.76729	11.88238
0.00000	23.33215	15.86792	-11.39053	7.81042
3.90625	28.98028	19.89781	-10.17861	12.60287
7.81250	27.42911	21.91311	-9.36959	10.54554
11.71875	16.46312	20.30201	-7.75476	6.07061
15.62500	18.92109	20.70560	-6.13990	5.62499
19.53125	22.53245	14.25935	-10.16609	4.77634
23.43750	16.55445	11.03655	-13.78937	1.51018
27.34375	22.64296	15.46941	-11.36867	5.49680
31.25000	27.45297	19.90224	-9.35093	10.69213
35.15625	22.31297	23.12633	-7.73615	13.46993
39.06250	18.92012	15.06830	-7.73304	15.44193
42.96875	16.67832	9.02497	-8.93864	14.59341
46.87500	19.09746	13.45788	-8.93551	10.92434
50.78125	17.85624	14.26438	-10.14120	10.88172
54.68750	17.58951	13.45916	-13.76449	16.07716
58.59375	23.36556	11.44513	-14.16428	18.45205
62.50000	24.11132	13.46044	-12.95238	15.58883
66.40625	22.84353	15.87869	-12.14343	9.90513
70.31250	23.13753	16.28221	-8.51399	9.45942
74.21875	16.43284	12.25360	-9.31675	6.59621
78.12500	21.35405	11.04545	-9.31365	6.95652
82.03125	34.01428	19.10468	-5.68413	16.58418
85.93750	22.60523	19.10538	-7.29275	14.92985
89.84375	19.53190	13.46506	-10.91601	8.84320
93.75000	24.48314	11.04811	-10.91297	8.39754
97.65625	19.32390	10.64589	-8.08940	6.74314
101.56250	18.17711	13.46703	-9.69807	6.29752
105.46875	15.97030	13.87055	-12.11251	1.01680
109.37500	20.34460	14.67713	-8.88593	-2.65218
113.28125	19.17696	13.06609	-7.27112	0.93153
117.18750	16.05846	13.46976	-6.86506	-0.31983
121.09375	18.49915	18.30557	-8.87660	0.04057
125.00000	27.11927	19.51507	-7.66474	4.02728
128.90625	31.62875	16.29232	-4.03520	-1.65637
132.81250	22.27422	13.87536	-5.24090	-11.77217
136.71875	17.99684	15.48773	-8.05828	-7.78546
140.62500	18.85632	11.05609	-8.45809	-4.20166
144.53125	14.15027	5.41570	-7.64912	-9.07949
148.43750	13.09978	6.62502	-6.43721	-9.92794
152.34375	12.42223	6.62562	-6.43412	-9.16466
156.25000	13.85001	9.44683	-8.84854	-8.80420
160.15625	19.64374	13.87973	-10.86003	-9.65254
164.06250	18.96962	13.88043	-8.43936	-9.69506
167.96875	11.10338	9.44889	-12.06263	-14.97567
171.87500	15.00981	9.85242	-12.05956	-13.40646
175.78125	18.52030	11.46479	-8.83306	-10.62841
179.68750	14.00348	5.42143	-11.24759	-13.89442
183.59375	12.56691	5.82489	-10.43861	-14.74286
187.50000	7.11340	10.66066	-9.62961	-18.00872
191.40625	4.65768	7.03483	-10.02933	-24.90095
195.31250	2.18623	5.02077	-10.02617	-25.34620
199.21875	0.71848	7.84184	-9.21714	-24.17986
203.12500	-2.23763	4.61897	-8.00511	-26.63980
207.03125	-4.09980	3.41084	-4.37554	-25.87635
210.93750	-2.10745	5.42611	-3.96938	-24.70986
214.84375	-0.50376	7.03840	-4.77205	-21.93170
218.75000	4.76205	8.65074	-2.75426	-18.34772
222.65625	4.37082	5.42792	-5.57161	-15.97261
226.56250	3.66160	-1.42129	-9.59780	-18.02966
230.46875	8.82379	-0.21185	-9.99754	-15.25155
234.37500	20.52029	6.23570	-6.77095	-3.60897
238.28125	26.12422	7.04217	-3.94731	6.82486
242.18750	24.32946	8.25157	-7.97344	6.78251
246.09375	19.92728	12.28147	-10.79076	0.29326
250.00000	13.68571	8.25282	-9.57881	-3.37543
253.90625	13.68190	6.23882	-10.38146	-6.23830
257.81250	22.48905	7.85115	-10.78118	2.58388
261.71875	17.74396	11.07521	-8.36048	3.34735
265.62500	6.02165	11.07578	-8.76023	-11.20056
269.53125	14.09835	9.06172	-11.17471	-10.84005
273.43750	18.87062	8.65947	-10.76860	-10.07664
277.34375	20.44095	9.46595	-9.15374	-5.28396
281.25000	18.05148	8.66068	-9.95642	-3.31180
285.15625	19.16530	8.66126	-6.32692	-2.95133
289.06250	24.97891	11.07941	-5.51785	1.03552
292.96875	26.82089	7.45366	-11.15573	0.99310
296.87500	34.47810	5.84252	-9.94379	3.77119
300.78125	30.88728	3.02265	-6.31431	-1.10639
304.68750	29.14239	6.24674	-4.29651	1.67165
308.59375	39.48655	13.09713	-1.06991	6.86733
312.50000	31.08816	7.45668	1.75380	-2.03952
316.40625	19.86820	1.81617	1.35401	-4.09653
320.31250	20.78591	0.60795	1.76014	-0.51250
324.21875	13.79385	-0.19728	2.97204	2.66862
328.12500	9.68138	-3.01716	2.57231	5.84970
332.03125	14.75305	-2.21068	2.17251	2.18100
335.93750	17.70342	4.63970	2.98151	0.52690
339.84375	13.92961	3.02855	3.79055	3.30497
343.75000	11.39860	0.61151	2.58489	-0.76681
347.65625	18.97814	7.86483	2.99095	-2.82389
351.56250	22.94821	10.68593	5.81470	-3.67214
355.46875	16.29327	5.04542	6.22080	-8.95263
359.37500	14.33922	-0.59507	7.02984	-12.21849
363.28125	13.89796	-3.81789	10.25645	-9.44044
367.18750	5.33428	-4.62321	11.46840	-4.64765
371.09375	9.74623	-1.80204	9.45692	-2.67538
375.00000	12.81395	-5.02491	7.04254	-6.74707
378.90625	6.29255	-7.84487	5.03114	-9.20710
382.81250	4.36769	-3.41202	7.45196	-4.41438
386.71875	3.00663	-5.82900	6.64932	-4.85970
390.62500	3.35862	-8.64900	7.05540	-10.94602
394.53125	3.23226	-4.21619	12.29670	-8.97369
398.43750	-0.54980	-8.24493	9.07651	-7.80727
402.34375	-3.49591	-13.88541	4.64746	-13.89353
406.25000	-11.77072	-13.07899	2.63603	-24.00908
410.15625	-13.12950	-10.25787	3.84804	-26.46897
414.06250	-3.18517	-4.61628	5.05998	-16.84085
417.96875	-4.98653	-6.22735	3.45150	-18.89769
421.87500	-6.06974	-8.64439	4.26057	-26.99846
425.78125	1.70449	-5.82329	4.66674	-21.80250
429.68750	2.19468	-6.62864	2.65532	-23.85925
433.59375	-1.20124	-9.85154	3.46439	-27.52770
437.50000	4.25500	-7.43336	7.49689	-17.49649
441.40625	3.89295	-6.62691	7.09717	-20.35905
445.31250	-2.90022	-8.64095	1.45939	-32.08612
449.21875	0.58497	-8.23738	0.65676	-30.51638
453.12500	-0.08254	-6.22211	1.86881	-26.52908
457.03125	-3.05284	-3.40101	-2.96317	-29.39153
460.93750	-5.84826	-4.60920	-6.18339	-33.46277
464.84375	-12.28423	-9.44376	-4.97135	-35.51939
468.75000	-15.12964	-14.68128	-4.96812	-41.20239
472.65625	-13.92978	-11.45720	-4.56196	-37.61794
476.56250	-8.38259	-9.44191	-1.33528	-21.94551
480.46875	-4.27463	-7.82961	-0.12330	-22.39028
484.37500	-15.16265	-1.38212	-2.94058	-43.38457
488.28125	-17.54053	-1.38152	-5.35491	-47.45577
492.18750	-6.87858	-2.58974	-5.35169	-32.58924
496.09375	-3.27955	-3.39500	-3.73676	-30.21346
500.00000	-7.91432	-4.20019	-1.71888	-32.67284
503.90625	-11.13119	-3.79659	-4.13325	-33.11755
507.81250	-6.63902	-0.97550	-4.13003	-34.77114
511.71875	-6.72649	-1.37785	-2.11217	-38.03638
515.62500	-7.89538	-3.79475	-4.52647	-36.06342
519.53125	-6.29923	0.23522	-3.31444	-30.86711
523.43750	-2.60750	3.45930	1.12100	-23.25313
527.34375	-5.78701	-1.77816	-0.89038	-26.11535
531.25000	-8.23021	-7.01560	-3.30465	-30.58936
535.15625	-10.14740	-10.23841	-2.49555	-27.00470
539.06250	-16.76434	-11.84955	-3.70111	-26.24060
542.96875	-10.54519	-6.20787	-0.07154	-17.01496
546.87500	-4.50031	-2.58089	2.34931	-15.04203
550.78125	-4.93627	-4.59490	-1.67673	-15.08374
554.68750	-8.82996	-3.38545	-0.86762	-19.96049
558.59375	-7.08368	-3.78768	0.74741	-23.62847
562.50000	-4.32375	-2.98116	-1.66692	-21.25251
566.40625	-3.17461	-4.59227	-2.06661	-24.11474
570.31250	-3.68701	-4.59167	-0.04870	-27.37978
574.21875	-7.57173	0.64701	1.56630	-28.63020
578.12500	-12.32131	1.45358	1.97251	-24.23960
582.03125	-13.76425	-2.17213	1.16985	-21.05775
585.93750	-9.45955	0.24613	-1.24442	-25.93446
589.84375	-5.28056	-0.15617	0.37057	-22.75254
593.75000	-7.17956	-4.99064	3.59735	-19.97351
597.65625	-10.72749	-4.98995	7.62999	-19.20910
601.56250	-9.86009	-4.98930	9.24506	-18.04177
605.46875	-7.63519	-4.58575	7.63663	-19.69493
609.37500	-5.67888	-2.97333	4.81948	-18.52757
613.28125	-8.45882	-5.39025	4.82277	-21.79240
617.18750	-14.39842	-7.80716	5.22893	-26.66900
621.09375	-13.16698	-11.83586	2.81467	-23.08402
625.00000	-8.97961	-13.04405	2.81793	-24.33420
628.90625	-6.88822	-5.79056	4.02999	-24.37550
632.81250	-8.18465	-0.55181	9.67425	-15.14942
636.71875	-8.03015	0.65771	12.09512	-18.81703
640.62500	-11.60332	-2.96794	6.05443	-29.73738
644.53125	-13.89219	-9.01117	2.83423	-26.95802
648.43750	-13.33137	-7.80171	2.43451	-23.37273
652.34375	-11.59161	-6.59220	2.43775	-22.60795
656.25000	-14.59633	-11.02365	-0.37948	-25.06652
660.15625	-14.44379	-12.63470	-3.59961	-28.73371
664.06250	-10.28282	-10.21640	0.43300	-21.52169
667.96875	-13.31385	-8.20106	3.25678	-17.13011
671.87500	-14.24252	-4.57401	2.05133	-18.37951
675.78125	-9.12022	-2.55864	4.47221	-17.61419
679.68750	-11.62226	-6.99014	3.66971	-22.48980
683.59375	-14.67032	-8.19826	1.65843	-25.75360
687.50000	-11.25916	-5.77996	4.48229	-26.19684
691.40625	-11.29712	-4.57052	4.48568	-27.04285
695.31250	-14.57421	-8.59914	0.86275	-33.52987
699.21875	-17.25044	-13.83657	-3.56610	-37.59932
703.12500	-16.58003	-11.82123	-1.95100	-33.61018
707.03125	-17.23325	-6.98532	2.08178	-33.65033
710.93750	-15.64381	-9.40224	2.48808	-32.88463
714.84375	-12.42849	-13.83382	3.29733	-31.71598
718.75000	-11.19219	-11.01259	3.30074	-28.12978
722.65625	-6.34547	-9.80319	1.69244	-30.18480
726.56250	-4.23440	-6.57909	2.50163	-34.25454
730.46875	-7.13109	-2.54914	5.32546	-27.44521
734.37500	-11.95506	-2.95139	5.73173	-26.27696
738.28125	-18.03645	-5.77121	-0.30891	-38.00255
742.18750	-13.78774	-8.18811	-1.51441	-42.07249
746.09375	-11.74362	-11.81384	0.10057	-42.51622
750.00000	-20.80623	-14.63367	0.10383	-38.52772
753.90625	-20.81068	-13.02125	0.91297	-28.89826
757.81250	-14.42169	-12.61754	2.93085	-25.71566
761.71875	-11.10864	-12.21383	4.94872	-26.15949
765.62500	-12.35517	-5.36330	5.35485	-26.20037
769.53125	-16.76981	-6.57137	3.74639	-29.86760
773.43750	-14.41565	-13.01751	-2.29432	-37.96710
777.34375	-10.83130	-13.01672	-5.11159	-36.79922
781.25000	-14.43009	-10.19541	-5.51130	-33.61673
785.15625	-15.73437	-14.22396	-4.70219	-32.44887
789.06250	-13.14476	-16.64080	-3.49010	-35.71329
792.96875	-11.30337	-12.20781	-4.29266	-35.75422
796.87500	-12.10821	-9.78956	-3.08059	-32.57163
800.78125	-12.87911	-5.75950	-2.67442	-35.02998
804.68750	-12.20695	-4.95295	-3.07404	-35.47372
808.59375	-13.54834	-7.77279	-3.47375	-34.70865
812.50000	-17.11222	-8.17495	-3.87345	-41.59918
816.40625	-20.67710	-8.17424	-1.85551	-45.66921
820.31250	-21.77452	-9.38234	0.56540	-40.47184
824.21875	-13.85857	-7.36696	2.18046	-34.87154
828.12500	-15.15089	-4.94860	1.37783	-36.52388
832.03125	-17.33229	-6.15664	-2.24519	-35.75865
835.93750	-13.97933	-13.00579	-4.65945	-37.41098
839.84375	-16.54470	-17.03444	-3.44731	-48.73372
843.75000	-9.80855	-10.58687	-2.23517	-46.75965
847.65625	-9.07907	-9.37741	-4.24647	-44.78545
851.56250	-15.58546	-15.42073	-3.43727	-50.86990
855.46875	-19.01713	-17.83769	-2.62808	-55.34252
859.37500	-18.15093	-14.61355	-2.62474	-59.00940
863.28125	-17.38365	-10.58356	-1.81556	-57.84112
867.18750	-18.69477	-10.17991	-1.81224	-51.03175
871.09375	-15.89492	-6.95576	-1.80889	-48.65448
875.00000	-16.05097	-8.56685	-3.41724	-50.70939
878.90625	-14.51396	-11.38666	-4.62272	-53.57011
882.81250	-12.40958	-11.38594	-3.00764	-58.04253
886.71875	-10.54736	-10.17644	-2.19844	-49.62114
890.62500	-7.37508	-8.16111	0.22246	-37.17046
894.53125	-11.12808	-11.78685	1.43461	-36.80771
898.43750	-23.37178	-11.78619	2.24387	-42.08598
902.34375	-27.52692	-8.56206	4.26190	-47.76709
906.25000	-21.69938	-10.57602	7.08577	-47.80717
910.15625	-17.82029	-11.38120	7.49200	-48.65308
914.06250	-14.72604	-9.76888	9.51006	-45.06676
917.96875	-13.70705	-9.36528	10.72220	-38.25683
921.87500	-12.37270	-8.96164	9.91974	-41.52011
925.78125	-13.46292	-6.14048	8.31143	-44.38048
929.68750	-18.61370	-6.54278	2.67380	-47.24083
933.59375	-16.77158	-7.75090	3.08016	-45.66888
937.50000	-10.50950	-12.18244	7.91870	-37.65001
941.40625	-6.84228	-14.59943	9.53384	-37.68969
945.31250	-10.00913	-14.59879	8.73135	-44.57921
949.21875	-12.97091	-15.80695	9.54068	-40.58953
953.12500	-9.60916	-12.17995	12.76748	-28.94423
957.03125	-7.34136	-10.16468	15.59146	-25.76037
960.93750	-7.31633	-12.58164	15.19194	-28.62045
964.84375	-10.12606	-14.99857	8.74848	-30.27175
968.75000	-15.79198	-11.77443	2.70797	-32.32590
972.65625	-17.00978	-10.16202	3.92022	-30.75363
976.56250	-21.13313	-8.14672	5.13245	-33.21072
980.46875	-27.90434	-10.16068	5.94170	-43.72641
984.37500	-26.30152	-13.38344	8.76562	-48.60102
988.28125	-24.24719	-17.00916	7.56024	-47.02876
992.18750	-27.68787	-23.05241	5.14613	-44.24761
996.09375	-21.26832	-21.84289	7.56710	-40.66062
1000.00000	-24.29149	-20.63333	9.58527	-47.54971
1003.90625	-30.32893	-22.24437	8.37991	-51.21544
1007.81250	-24.22517	-18.21433	7.17456	-41.58449
1011.71875	-17.86592	-13.37851	6.77505	-37.59460
1015.62500	-16.61729	-17.40717	7.58426	-38.43972
1019.53125	-22.27395	-18.21235	5.17007	-41.70233
1023.43750	-21.40273	-14.58529	1.95003	-42.14446
1027.34375	-23.37347	-14.58455	3.56513	-45.00413
1031.25000	-23.80206	-17.40425	4.77732	-44.64034
1035.15625	-22.09294	-19.41817	3.16899	-45.48536
1039.06250	-23.06883	-20.22334	3.57524	-50.35947
1042.96875	-24.10231	-16.19317	3.17573	-49.59255
1046.87500	-18.86338	-10.55138	4.79080	-44.79642
1050.78125	-13.65860	-13.77409	6.80880	-44.43276
1054.68750	-20.37320	-18.60849	2.37994	-47.29253
1058.59375	-21.04488	-17.39894	1.98029	-42.49670
1062.50000	-22.31479	-16.99532	4.80405	-40.11846
1066.40625	-23.58364	-14.17399	5.21024	-39.75485
1070.31250	-20.87311	-10.94972	6.01929	-38.18251
1074.21875	-20.32613	-13.36652	5.21663	-35.80427
1078.12500	-21.04701	-14.17157	4.81686	-35.44075
1082.03125	-30.14611	-16.58836	5.62588	-43.53869
1085.93750	-31.48296	-23.03447	2.00273	-45.99559
1089.84375	-26.90158	-23.83959	2.81177	-43.21439
1093.75000	-21.95136	-16.98908	4.42672	-39.62737
1097.65625	-14.62079	-14.16779	6.44461	-37.65191
1101.56250	-20.20075	-16.58467	5.64194	-43.33205
1105.46875	-26.03487	-16.18102	4.83930	-45.38583
1109.37500	-20.85557	-14.16568	5.24551	-48.64828
1113.28125	-20.00945	-11.74746	2.83120	-53.11937
1117.18750	-15.87600	-11.34381	2.43163	-44.29369
1121.09375	-17.06235	-16.17828	-0.78852	-41.51191
1125.00000	-24.56023	-16.98355	0.82647	-49.60929
1128.90625	-27.70719	-12.55063	4.45617	-52.06552
1132.81250	-26.18339	-11.34112	2.44480	-43.64260
1136.71875	-20.38814	-7.71406	3.65684	-45.29293
1140.62500	-20.73809	-5.29571	2.45142	-49.36082
1144.53125	-18.99792	-6.10085	0.03714	-47.78765
1148.43750	-18.03437	-6.10013	0.44340	-47.02031
1152.34375	-19.11540	-5.29353	-0.35907	-44.23823
1156.25000	-22.92640	-4.08400	2.06190	-43.87366
1160.15625	-22.37128	-5.69496	1.66232	-44.31498
1164.06250	-21.03125	-9.72357	-3.57235	-45.15916
1167.96875	-24.46576	-10.93158	-3.16598	-45.60046
1171.87500	-20.96282	-10.93080	1.26967	-44.42995
1175.78125	-13.82642	-7.30365	5.30237	-39.63308
1179.68750	-13.50856	-6.49704	6.51456	-46.11816
1183.59375	-18.57202	-9.31684	3.29451	-56.22970
1187.50000	-17.98215	-6.89859	3.70079	-48.20934
1191.40625	-13.18574	-7.30085	6.12182	-40.18898
1195.31250	-14.85195	-8.91177	5.72231	-38.61547
1199.21875	-20.34945	-8.91096	4.91990	-42.68290
1203.12500	-24.51493	-10.92480	2.50580	-49.57074
1207.03125	-26.37762	-11.32695	-1.52011	-45.57945
1210.93750	-19.95361	-10.11738	1.30391	-39.17055
1214.84375	-17.54477	-12.93717	5.73959	-39.20864
1218.75000	-18.32369	-13.33932	4.53432	-42.06736
1222.65625	-17.10378	-11.72688	0.50840	-48.14946
1226.56250	-16.60477	-11.32314	0.10900	-51.41103
1230.46875	-18.29297	-5.27839	3.33596	-49.43452
1234.37500	-22.71416	-4.06879	2.53359	-42.62271
1238.28125	-24.76624	-10.51487	1.73116	-44.67528
1242.18750	-24.14386	-12.93159	-2.69754	-51.16011
1246.09375	-19.27912	-8.49847	-3.09701	-54.01860
1250.00000	-5.37471	-3.25954	3.35336	-52.04199
1253.90625	-9.00543	-8.89971	2.55095	-52.88593
1257.81250	-23.97165	-15.74874	2.15145	-58.16198
1261.71875	-31.94057	-17.35964	3.76663	-60.21453
1265.62500	-32.78416	-13.73254	3.36720	-60.25242
1269.53125	-31.55762	-14.13463	3.37067	-55.45510
1273.43750	-40.88829	-17.76019	4.17998	-57.50758
1277.34375	-44.95937	-14.53593	3.37759	-66.00693
1281.25000	-50.16965	-21.38491	1.36644	-76.52092
1285.15625	-47.84743	-23.80170	0.96699	-74.54406
1289.06250	-29.14054	-10.10125	4.99977	-60.88219
1292.96875	-25.68725	-4.86235	7.82375	-61.72575
1296.87500	-31.72992	-13.72610	4.20090	-62.56936
1300.78125	-28.06844	-16.14291	5.81612	-58.17481
1304.68750	-32.23120	-14.12750	9.04309	-54.98904
1308.59375	-44.04858	-18.15598	8.24074	-63.08527
1312.50000	-44.38876	-17.75227	7.43838	-69.56981
1316.40625	-38.68600	-14.93102	7.44183	-70.81624
1320.31250	-46.63309	-15.73612	6.23650	-80.92703
1324.21875	-54.83422	-14.12359	4.62828	-91.44073
1328.12500	-52.50005	-12.51109	5.84048	-98.32797
1332.03125	-56.29307	-14.52494	3.42645	-102.39474
1335.93750	-62.20739	-16.13587	-0.19643	-102.43214
1339.84375	-73.23405	-13.71758	-3.81928	-112.13982
1343.75000	-82.61499	-14.92563	-9.05389	-121.84752
1347.65625	-87.92939	-17.34245	-9.85623	-119.46720
1351.56250	-103.30019	-18.95347	-9.04683	-128.36890
1355.46875	-108.74654	-18.95270	-8.64040	-137.27048
1359.37500	-107.47728	-16.53433	-12.26322	-134.89005
1363.28125	-115.57444	-14.11596	-15.08013	-138.15047
1367.18750	-115.27384	-14.11523	-14.27068	-143.02267
1371.09375	-108.04173	-11.69693	-12.65541	-143.05965
1375.00000	-104.57132	-10.89020	-11.44302	-133.42619
1378.90625	-100.21374	-9.68063	-9.82770	-124.59864
1382.81250	-90.45369	-5.24761	-9.42128	-122.62097
1386.71875	-79.32404	-4.84393	-13.04412	-109.76419
1390.62500	-73.73412	-5.24614	-10.62304	-103.35429
1394.53125	-60.56401	-4.03657	-2.15794	-94.52678
1398.43750	-49.03484	-4.03582	-1.75143	-84.08752
1402.34375	-53.19002	-7.25853	-5.77720	-84.52732
1406.25000	-49.78013	-10.07828	-4.16198	-76.90855
1410.15625	-43.08055	-7.25704	0.67674	-66.46920
1414.06250	-28.30142	0.39942	0.27744	-53.20930
1417.96875	-14.38880	-0.80865	-3.34540	-47.20211
1421.87500	-7.81657	-4.43434	-0.11841	-48.85048
1425.78125	-0.84840	-4.43362	3.51157	-39.61964
1429.68750	4.07377	-4.83582	5.93266	-27.16535
1433.59375	9.54202	-1.61163	5.93622	-25.99310
1437.50000	8.14816	-4.43142	3.52227	-23.61206
1441.40625	13.82981	-9.26583	4.33169	-9.14307
1445.31250	17.91551	-6.04162	4.73822	0.49084
1449.21875	7.70080	-7.24968	4.33883	-8.00706
1453.12500	7.03307	-6.44314	5.14823	-12.87855
1457.03125	20.17976	-6.03949	3.94298	-8.48267
1460.93750	26.24854	-9.26223	2.73781	-7.71318
1464.84375	26.66218	-10.06735	3.54726	-6.94363
1468.75000	19.78730	-8.05194	4.35672	-5.36812
1472.65625	17.36048	-4.02189	4.36030	-9.43366
1476.56250	22.50435	-6.84168	-0.06838	-17.52857
1480.46875	18.55346	-9.66150	-2.88530	-17.96765
1484.37500	14.11221	-6.43728	0.74461	-13.16862
1488.28125	20.59865	-2.81014	3.56874	-7.16077
1492.18750	24.41051	-9.25631	5.98986	-5.18218
1496.09375	21.56241	-13.68784	8.00809	-9.65047
1500.00000	18.53898	-6.43434	8.01169	-8.47782
1503.90625	19.35110	-6.83645	6.80654	-1.26110
1507.81250	17.39612	-10.46211	8.01883	0.31465
1511.71875	16.50250	-7.23792	9.63415	-3.34779
1515.62500	15.73614	-5.22257	5.60843	-1.77204
1519.53125	17.73493	-7.63946	5.20905	-4.22563
1523.43750	14.97952	-7.63874	8.03312	-14.73779
1527.34375	11.39689	-4.41455	8.43966	-18.40001
1531.25000	15.80325	-5.21962	11.26375	-16.01826
1535.15625	14.69170	-10.45695	11.67033	-14.84521
1539.06250	13.71552	-11.26205	11.67395	-13.67215
1542.96875	11.87581	-12.06712	10.46878	-14.51370
1546.87500	5.42959	-16.49861	7.65189	-14.54941
1550.78125	8.61976	-12.87153	10.47598	-10.55581
1554.68750	15.20204	-12.46778	12.09135	-7.77094
1558.59375	11.70996	-13.27286	13.30371	-5.79190
1562.50000	11.24618	-8.03402	14.51615	-5.82752
1566.40625	7.96293	-12.46553	12.90808	-8.28067
1570.31250	4.62978	-14.88235	12.10587	-10.33086
1574.21875	6.78877	-10.44926	14.12416	-13.58977
1578.12500	7.27703	-9.64258	12.11316	-16.44574
1582.03125	3.81922	-12.05932	12.92265	-12.04892
1585.93750	4.49734	-15.68495	17.35852	-12.89018
1589.84375	8.67606	-17.29589	13.33281	-18.16361
1593.75000	6.37379	-18.10099	8.90427	-17.39308
1597.65625	0.81080	-18.50320	9.31075	-20.65185
1601.56250	2.08073	-17.69658	10.12026	-26.32816
1605.46875	1.48488	-15.68116	10.12388	-28.37807
1609.37500	-0.99135	-14.47161	11.73918	-28.81625
1613.28125	0.25778	-16.08254	12.95158	-21.19575
1617.18750	-0.04096	-15.67885	12.14936	-15.18695
1621.09375	4.01083	-13.66342	10.54127	-13.20743
1625.00000	1.75101	-13.66264	12.55954	-14.85434
1628.90625	-3.81360	-16.88535	8.93682	-22.54508
1632.81250	-2.69283	-17.69048	8.53752	-26.60940
1636.71875	-2.13582	-18.09264	7.73533	-23.42098
1640.62500	-3.69464	-16.07721	4.11259	-18.21787
1644.53125	-4.37213	-13.65890	7.33970	-18.65574
1648.43750	0.21778	-12.44934	8.95512	-19.09350
1652.34375	3.16597	-10.43398	9.36169	-16.30770
1656.25000	0.16073	-8.82153	5.33605	-20.77468
1660.15625	0.71569	-10.83547	2.92218	-23.62991
1664.06250	2.05551	-14.05818	8.56686	-22.85882
1667.96875	-0.57330	-16.47500	12.59986	-26.51995
1671.87500	-5.93498	-15.26544	9.38010	-29.37511
1675.78125	-4.03697	-12.84716	8.57790	-26.99216
1679.68750	-2.51057	-14.05515	10.19330	-22.59464
1683.59375	-1.12731	-13.65149	9.39106	-21.01754
1687.50000	1.07405	-12.03895	8.99181	-20.24633
1691.40625	-6.62068	-10.82938	9.39835	-23.10143
1695.31250	-9.49591	-10.42574	9.80492	-25.95653
1699.21875	-4.11465	-8.41036	6.98802	-24.37944
1703.12500	-5.05686	-9.21543	4.97700	-27.23446
1707.03125	-3.69637	-10.82630	9.00992	-29.28358
1710.93750	-0.09315	-8.81085	6.19299	-26.90051
1714.84375	-3.72857	-10.82472	-0.65317	-29.75546
1718.75000	-0.88126	-8.80933	1.36510	-34.62504
1722.65625	1.14439	-7.59982	2.98048	-37.47992
1726.56250	-7.22126	-9.61367	-0.23935	-36.70825
1730.46875	-9.71544	-10.01574	-3.05628	-36.33955
1734.37500	-11.71929	-12.02959	-1.03800	-35.56786
1738.28125	-11.35413	-11.22296	6.62132	-31.16966
1742.18750	-8.31446	-8.40165	7.02791	-29.99487
1746.09375	-11.10562	-7.99785	5.01690	-30.83468
1750.00000	-8.48338	-6.38531	7.84108	-29.65981
1753.90625	-7.68207	-3.96690	5.83012	-28.08206
1757.81250	-12.57519	-7.18952	5.02793	-30.53355
1761.71875	-14.50035	-7.99454	4.62862	-34.19373
1765.62500	-13.32942	-5.17325	2.61762	-32.21288
1769.53125	-11.70013	-5.17247	1.41248	-35.06712
1773.43750	-11.36061	-6.78337	1.01318	-42.75654
1777.34375	-8.98497	-5.57378	2.22564	-40.77555
1781.25000	-6.53960	0.06798	5.04984	-41.61500
1785.15625	-5.02321	-1.14007	4.65051	-44.87206
1789.06250	-4.04523	-1.94519	2.63948	-40.07053
1792.96875	-0.99481	4.50247	7.47826	-32.44833
1796.87500	1.42403	5.30913	11.91416	-24.02025
1800.78125	1.45923	-1.13696	7.48558	-21.63613
1804.68750	-3.10641	-5.97132	3.45999	-30.53393
1808.59375	-6.05920	-5.97053	5.07543	-33.38776
1812.50000	-3.57879	-3.95507	5.88498	-31.40639
1816.40625	-9.96389	-5.96890	4.27693	-37.48355
1820.31250	-9.04640	-9.59452	1.86310	-39.93430
1824.21875	5.71961	-7.17612	-0.95374	-35.93814
1828.12500	8.45675	-4.75769	-0.54710	-36.77711
1832.03125	-2.99191	-5.15980	1.87418	-42.04824
1835.93750	-8.50310	-2.74138	7.51887	-42.88704
1839.84375	-2.60654	-0.72591	12.35776	-40.90532
1843.75000	1.30937	-5.56020	13.57017	-35.70014
1847.65625	1.63619	-8.37990	10.35044	-34.52424
1851.56250	-0.43775	-6.36441	10.75700	-33.75128
1855.46875	-3.86936	-9.18411	13.17828	-34.59000
1859.37500	-6.22648	-13.21264	11.57015	-36.63763
1863.28125	-6.66789	-13.21182	11.17087	-34.65579
1867.18750	-6.77017	-10.79338	10.36871	-35.09156
1871.09375	-8.80545	-10.38972	9.56646	-34.31854
1875.00000	-1.70872	-9.98599	9.57009	-27.50161
1878.90625	3.85753	-3.94123	11.58839	-23.90816
1882.81250	3.54422	-1.52282	10.38334	-25.95555
1886.71875	2.98899	-6.76013	2.73133	-26.79405
1890.62500	5.35535	-11.59454	-0.08549	-28.84140
1894.53125	2.81113	-14.01131	3.94746	-28.06826
1898.43750	2.65519	-11.99592	5.96576	-26.48926
1902.34375	6.15557	-12.80107	1.53714	-24.50729
1906.25000	-0.10501	-12.39736	2.34660	-18.49586
1910.15625	0.55050	-7.96432	5.97664	-18.12543
1914.06250	4.45041	-5.54593	9.20378	-20.57535
1917.96875	2.24564	-8.36568	8.40156	-24.23417
1921.87500	3.17663	-7.96195	6.39058	-26.28124
1925.78125	4.10065	-1.91723	6.79721	-25.50774
1929.68750	5.39628	-3.52812	2.77158	-27.95759
1933.59375	5.62621	-6.75076	3.17821	-32.42216
1937.50000	5.84384	-5.13830	5.59942	-29.23106
1941.40625	4.67541	-5.94340	2.37961	-30.47222
1945.31250	5.53738	-6.74851	1.17443	-35.33967
1949.21875	2.97800	-2.71846	5.20744	-29.32796
1953.12500	-3.33111	0.10285	5.61399	-26.53958
1957.03125	-4.28731	-3.92561	1.58833	-29.79513
1960.93750	-2.24810	-4.32780	-0.01974	-31.03607
1964.84375	0.58274	-0.29777	3.20732	-30.66526
1968.75000	1.36310	2.52356	7.24022	-31.10036
1972.65625	9.00904	2.52431	6.43791	-32.34134
1976.56250	11.33190	-1.90726	4.42685	-32.77640
1980.46875	-1.88689	-8.35347	3.62462	-36.83782
1984.37500	-1.49350	-11.17323	4.03118	-34.04943
1988.28125	4.18656	-6.74025	6.04947	-27.63464
1992.18750	7.99789	-2.71023	6.85895	-29.27851
1996.09375	4.34337	-0.69484	6.45963	-31.32522
2000.00000	-1.50100	-0.29116	4.85160	-34.58066
2003.90625	2.13122	-3.11087	4.04939	-34.61262
2007.81250	5.81684	-2.70720	8.48521	-33.43577
2011.71875	-0.71823	-3.10943	8.48883	-34.67647
2015.62500	-3.49964	-3.51158	4.46317	-37.12580
2019.53125	0.11039	-3.10794	5.27274	-37.15758
2023.43750	-1.43670	-2.70423	6.08225	-35.17473
2027.34375	-2.19935	-2.70344	0.84781	-35.60945
2031.25000	-2.22575	-1.89677	0.85144	-39.26751
2035.15625	1.90034	-1.89599	4.48143	-41.71680
2039.06250	0.52078	0.11937	2.87334	-39.33090
2042.96875	-5.34875	-2.29750	1.26517	-34.93040
2046.87500	-0.91635	-4.71430	-0.74587	-32.94736
2050.78125	5.09380	0.92741	1.67535	-35.39646
2054.68750	-0.41243	2.53985	4.09659	-31.39869
2058.59375	-10.35191	0.92881	4.10021	-31.43021
2062.50000	-15.65141	-4.71138	0.47741	-44.35551
2066.40625	-16.51762	-7.93395	-4.35405	-44.78991
2070.31250	-10.98681	-4.70974	-3.94740	-38.77749
2074.21875	-7.61955	-2.29154	-2.73502	-38.00313
2078.12500	-6.72879	-5.51421	0.89501	-36.82574
2082.03125	-7.76948	-5.11058	2.51034	-41.69221
2085.93750	-5.48020	-0.67762	2.51395	-41.32060
2089.84375	-5.33121	-1.48273	1.30877	-37.32256
2093.75000	-7.23096	0.93554	4.13295	-33.72739
2097.65625	-6.34747	2.95092	5.34537	-32.14690
2101.56250	-10.31606	2.54872	2.52841	-37.81904
2105.46875	-10.50943	0.93766	1.72616	-41.47655
2109.37500	-6.94215	-1.47914	1.32682	-43.11930
2113.28125	-6.09641	-1.07547	2.53925	-47.58256
2117.18750	-9.21617	-0.26886	5.36343	-41.97250
2121.09375	-9.59719	-2.68566	5.36707	-33.13904
2125.00000	-1.78419	-2.28205	7.78827	-31.15532
2128.90625	-5.33466	1.34509	12.62711	-31.18623
2132.81250	-7.84066	1.34583	10.21309	-29.60538
2136.71875	-2.04596	0.54066	7.39617	-33.26265
2140.62500	-1.59058	0.54139	7.39975	-36.51689
2144.53125	-3.88035	-4.69595	4.98575	-36.54763
2148.43750	-5.73793	-8.72453	3.78056	-38.99596
2152.34375	-5.61080	-5.90329	5.79883	-38.62375
2156.25000	-2.16959	-1.87323	6.60827	-35.83395
2160.15625	-4.43561	-2.67834	3.79137	-35.86457
2164.06250	-9.14019	-6.70686	3.79497	-39.52147
2167.96875	-6.12839	-4.69146	7.42497	-38.74614
2171.87500	-3.43186	-1.46730	10.24906	-30.71806
2175.78125	-4.75769	-3.88421	8.23798	-29.13682
2179.68750	-6.05215	-9.52457	4.61516	-34.40537
2183.59375	-0.64006	-8.71797	7.03635	-29.60063
2187.50000	-0.85667	-7.91143	6.63701	-28.01930
2191.40625	-9.35764	-11.53714	4.62599	-29.25847
2195.31250	-15.45673	-9.92470	4.62965	-31.70635
2199.21875	-9.67294	-8.31231	5.43921	-34.55711
2203.12500	-2.55714	-9.11745	7.05448	-30.15516
2207.03125	-13.68794	-7.90796	6.25226	-34.21471
2210.93750	-13.71157	-6.29558	5.04710	-39.88584
2214.84375	-6.87120	-2.66849	2.63310	-40.72179
2218.75000	-9.26251	-3.87662	1.83087	-38.33433
2222.65625	-5.22284	-7.90528	4.25210	-42.79664
2226.56250	-4.72457	-3.06950	6.27038	-47.25897
2230.46875	1.64512	-0.24830	6.27400	-39.63336
2234.37500	-1.16507	-3.87389	5.06886	-39.26039
2238.28125	-17.72348	-6.69362	3.05786	-34.45518
2242.18750	-7.02859	-3.06653	1.85268	-23.60592
2246.09375	17.17617	-2.66286	-1.77007	-27.26216
2250.00000	0.86018	-6.28855	-0.55774	-38.57407
2253.90625	-20.50021	-4.67611	1.86346	-39.00684
2257.81250	-0.41221	-3.46666	-0.55052	-32.99268
2261.71875	0.88558	-9.91296	-0.94978	-40.67807
2265.62500	-11.64360	-9.50943	-0.14029	-41.11063
2269.53125	-4.37371	-6.68820	-0.53959	-35.49924
2273.43750	-11.28743	-7.89636	-0.53592	-39.96097
2277.34375	-0.85370	-5.07522	2.69121	-34.75233
2281.25000	-9.28805	-6.68627	0.68022	-32.36417
2285.15625	-22.27786	-10.71494	2.69851	-35.61697
2289.06250	-17.27118	-10.71429	3.91098	-37.66091
2292.96875	-15.02736	-7.08731	-1.72636	-44.94296
2296.87500	-2.13300	-3.46025	-6.96082	-42.15179
2300.78125	-10.56001	-0.23621	-6.55428	-32.91372
2304.68750	-14.32040	-1.04141	-0.50669	-26.49603
2308.59375	-10.82706	-5.87593	0.30285	-27.33108
2312.50000	-12.77954	-9.90460	-4.12575	-31.38957
2316.40625	-1.43633	-9.50097	-9.36018	-32.62748
2320.31250	-1.32540	-5.47089	-9.75949	-28.62732
2324.21875	-13.15364	-5.87317	-7.33827	-25.03005
2328.12500	-12.43186	-7.48424	-10.55813	-29.08846
2332.03125	-10.18172	-2.24543	-12.97213	-28.31171
2335.93750	-4.81466	1.38166	-12.16262	-18.67044
2339.84375	-8.18629	4.20283	-14.17369	-19.90817
2343.75000	-5.47999	2.99471	-12.15544	-21.95184
2347.65625	-1.12478	-0.63095	-12.15183	-28.02493
2351.56250	-19.31682	-1.83908	-14.16287	-48.60343
2355.46875	-7.84070	1.38504	-14.56221	-45.81174
2359.37500	4.71006	2.99743	-13.34979	-32.94673
2363.28125	-17.49015	0.98349	-12.94327	-30.15486
2367.18750	-10.34022	0.58134	-16.96890	-22.52771
2371.09375	-9.95842	-1.43260	-19.38275	-35.04715
2375.00000	-15.75599	-3.44655	-20.18497	-48.77530
2378.90625	-12.20472	-1.83412	-18.56954	-37.52163
2382.81250	-18.56239	-0.22172	-18.96885	-41.98226
2386.71875	-15.49190	3.80831	-21.78571	-42.81662
2390.62500	-12.32015	5.82365	-22.99085	-27.93656
2394.53125	-18.08833	0.58625	-25.00185	-38.84395
2398.43750	-26.70627	-4.24831	-24.99823	-43.30452
2402.34375	-28.04163	-3.84470	-26.60630	-35.27426
2406.25000	-26.24413	-2.63520	-30.63198	-28.85561
2410.15625	-19.54532	-2.63448	-31.43426	-34.92776
2414.06250	-14.43716	-2.63374	-32.63943	-42.61170
2417.96875	-22.68633	-1.02131	-37.47095	-42.63992
2421.87500	-18.53236	-1.02053	-37.46731	-39.44464
2425.78125	-18.41471	0.18902	-33.83728	-33.02584
2429.68750	-24.37236	0.59270	-31.01317	-41.91839
2433.59375	-18.90480	0.19049	-31.81543	-48.79627
2437.50000	-17.07594	-1.82346	-33.82648	-45.60094
2441.40625	-14.21544	-2.22572	-34.62879	-43.61436
2445.31250	-16.17434	0.99852	-33.01343	-34.37495
2449.21875	-14.30179	-0.20948	-33.00981	-37.62634
2453.12500	-10.13490	-0.61164	-39.45309	-41.68350
2457.03125	-13.91189	1.40373	-38.64359	-42.51718
2460.93750	-7.03776	4.62793	-35.81940	-49.39487
2464.84375	-11.45995	7.04624	-37.83044	-59.89891
2468.75000	-23.57365	3.42061	-39.03567	-51.46527
2472.65625	-19.15139	0.60077	-35.40580	-32.15247
2476.56250	-18.03741	-2.62198	-35.40225	-43.05944
2480.46875	-30.45050	-3.42708	-36.20448	-52.75817
2484.37500	-21.59575	-4.63514	-34.99205	-41.10231
2488.28125	-19.54225	-6.24617	-35.79427	-43.54930
2492.18750	-35.07180	-3.82786	-34.98483	-45.99642
2496.09375	-21.40045	-4.23006	-33.77244	-43.20561
2500.00000	-12.73956	-7.85561	-37.79815	-48.87634
2503.90625	-18.37500	-9.46661	-39.40632	-46.08546
2507.81250	-11.86905	-5.83945	-34.56760	-30.40080
2511.71875	-21.22491	-2.61524	-31.34058	-25.99829
2515.62500	-22.79774	-5.43500	-34.15747	-37.31004
2519.53125	-12.74101	-7.04603	-37.78019	-41.36892
2523.43750	-21.54091	-5.03066	-36.16486	-38.17498
2527.34375	-9.40993	-4.62700	-31.32609	-26.51945
2531.25000	-3.79548	-5.83511	-29.30783	-29.36943
2535.15625	-8.13115	-5.83439	-35.75105	-32.21926
2539.06250	-8.70499	-2.61022	-36.55328	-37.08360
2542.96875	-4.09842	-2.20662	-30.10274	-51.61820
2546.87500	-10.94822	-4.22057	-31.30793	-49.22972
2550.78125	-28.71111	-6.23448	-31.70721	-29.11218
2554.68750	-26.56172	-2.20446	-32.91240	-38.00557
2558.59375	-8.29621	-0.18912	-32.90878	-51.33119
2562.50000	-2.31380	-2.20310	-28.07006	-31.61639
2566.40625	-14.05920	-0.18775	-23.63420	-29.63049
2570.31250	-14.97534	1.82767	-30.07743	-62.69938
2574.21875	-6.37006	-5.02148	-31.28260	-50.23702
2578.12500	-7.89708	-7.43836	-29.26436	-36.56581
2582.03125	-8.53501	-2.19953	-30.87248	-53.51725
2585.93750	-7.05166	-0.99001	-30.46597	-54.35138
2589.84375	-10.12632	-2.19807	-29.25367	-55.58843
2593.75000	-9.20573	-5.01783	-26.83247	-61.66053
2597.65625	-0.66672	-5.01712	-25.62005	-47.98897
2601.56250	-6.24708	-1.39002	-25.21353	-47.21114
2605.46875	-4.82889	-2.19522	-25.61282	-58.11820
2609.37500	8.00563	-5.01503	-23.99751	-58.95201
2613.28125	-2.83381	-0.98503	-22.38216	-65.82965
2617.18750	3.71651	3.04502	-21.57273	-75.93067
2621.09375	8.97634	1.03107	-22.37502	-45.33571
2625.00000	-7.38673	-2.99755	-28.41540	-55.43663
2628.90625	-14.16075	-6.22028	-29.62058	-84.47514
2632.81250	-8.20536	-4.20493	-25.58766	-60.32672
2636.71875	2.02136	-6.21892	-26.79287	-63.57760
2640.62500	-2.76154	-6.21823	-27.99807	-69.24610
2644.53125	5.82762	-2.18828	-26.38271	-59.20022
2648.43750	6.79030	-1.38176	-24.36448	-48.34832
2652.34375	-10.81176	-2.99287	-23.15206	-71.34254
2656.25000	-1.72983	-7.02154	-24.76023	-72.98139
2660.15625	2.45072	-9.03558	-23.95076	-65.35287
2664.06250	-9.90983	-4.60268	-23.54411	-64.17110
2667.96875	4.38375	-1.37858	-21.52583	-47.67789
2671.87500	10.30351	-0.16916	-19.50760	-59.38976
2675.78125	0.91884	-1.78014	-22.72747	-65.86343
2679.68750	5.26510	-0.57063	-20.70924	-61.05505
2683.59375	7.45355	0.63885	-19.89980	-67.12571
2687.50000	-0.01610	-6.61322	-23.11959	-73.19627
2691.40625	-8.11439	-3.38911	-21.90732	-64.76135
2695.31250	-6.15516	2.65544	-19.88914	-65.59379
2699.21875	-8.02733	0.64144	-20.69138	-52.72653
2703.12500	-4.13518	1.85088	-20.68781	-51.54424
2707.03125	5.28317	2.65738	-20.28132	-59.22638
2710.93750	2.43885	1.44933	-21.08358	-56.43219
2714.84375	-7.24108	0.24126	-21.48293	-64.11399
2718.75000	-10.84124	-3.38440	-18.25586	-56.88740
2722.65625	3.27169	-0.96619	-16.23755	-46.84028
2726.56250	9.81382	1.45209	-19.86028	-49.68686
2730.46875	-5.17205	1.04976	-18.24490	-50.92178
2734.37500	-2.74437	-1.36714	-10.98851	-56.99182
2738.28125	-3.58871	-7.81331	-8.16433	-55.80904
2742.18750	-9.01142	-10.23028	-9.36946	-51.80574
2746.09375	-9.38591	-8.21507	-5.73939	-51.83174
2750.00000	-5.55571	-6.19978	-3.31809	-48.63421
2753.90625	10.15328	-3.78149	-4.12028	-31.73696
2757.81250	0.82715	-8.21307	-7.74290	-45.46240
2761.71875	-11.57504	-12.24173	-7.73919	-55.96427
2765.62500	-9.59909	-11.43530	-4.51206	-45.91666
2769.53125	-9.58232	-14.25520	-7.73189	-48.76277
2773.43750	-9.64663	-15.86626	-11.35471	-54.42940
2777.34375	-6.86899	-12.23925	-12.55992	-55.66377
2781.25000	-6.84218	-9.01517	-12.95923	-51.25705
2785.15625	-3.31204	-9.82041	-11.34392	-46.85021
2789.06250	-4.75247	-9.41690	-11.74318	-40.83165
2792.96875	-7.74705	-7.40166	-8.91904	-30.38079
2796.87500	-5.32920	-8.20690	-6.09488	-33.22662
2800.78125	-11.33892	-9.81797	-9.31469	-40.50464
2804.68750	-14.29380	-13.44376	-12.13157	-35.29175
2808.59375	-10.39775	-11.02556	-10.11331	-33.70512
2812.50000	-16.78269	-7.39863	-6.88624	-40.58008
2816.40625	-20.75116	-9.41269	-6.07679	-40.60509
2820.31250	-12.58177	-9.81494	-7.28196	-45.06220
2824.21875	-14.73977	-9.81430	-9.69588	-50.72814
2828.12500	-16.83868	-10.21661	-7.67763	-45.51488
2832.03125	-9.35048	-6.99251	-6.86815	-52.38948
2835.93750	-11.63916	-3.36548	-8.87910	-58.05530
2839.84375	-15.01091	-4.17078	-9.68128	-56.06535
2843.75000	-10.28989	-4.97595	-11.69230	-56.89577
2847.65625	-12.38142	-2.96068	-13.70333	-67.39644
2851.56250	-20.09707	-4.16886	-12.08800	-70.64423
2855.46875	-17.48526	-2.55641	-7.65206	-60.19224
2859.37500	-19.84281	-0.94402	-8.45423	-67.87202
2863.28125	-26.73145	-7.39026	-14.09161	-71.92532
2867.18750	-21.59603	-11.41889	-17.31136	-67.11407
2871.09375	-13.15536	-6.18012	-17.71059	-66.73502
2875.00000	-16.93795	-2.55302	-17.70686	-68.37043
2878.90625	-20.63919	-7.38752	-16.09139	-68.39409
2882.81250	-22.56428	-6.58097	-12.46135	-60.35916
2886.71875	-21.91095	-5.37153	-12.05469	-51.92118
2890.62500	-21.15644	-4.96799	-15.67732	-62.82386
2894.53125	-24.10382	-4.56441	-17.28537	-72.51763
2898.43750	-20.63355	-7.78730	-16.07289	-69.72057
2902.34375	-19.55091	-7.38384	-13.24872	-66.92352
2906.25000	-19.76765	-6.57735	-12.03621	-65.73812
2910.15625	-20.32115	-9.39734	-14.85303	-66.97033
2914.06250	-31.32994	-12.62020	-18.07280	-70.21724
2917.96875	-34.74367	-12.21664	-19.27792	-68.22598
2921.87500	-23.73972	-7.78380	-17.25960	-60.19070
2925.78125	-24.42774	-7.38036	-13.62951	-57.39359
2929.68750	-26.75884	-10.20031	-14.83462	-56.61108
2933.59375	-24.91754	-7.78215	-14.83095	-49.38162
2937.50000	-19.86510	-2.54349	-14.02147	-50.61371
2941.40625	-6.93135	1.88935	-17.64428	-54.66630
2945.31250	-7.68149	3.09871	-17.23775	-52.27196
2949.21875	-12.65887	5.11395	-13.20487	-58.33919
2953.12500	-13.32744	2.29401	-10.38075	-62.39186
2957.03125	-16.70177	-4.95813	-14.80944	-64.42999
2960.93750	-11.03671	-6.56918	-22.05862	-66.06511
2964.84375	-15.86214	-5.35976	-18.02577	-64.87975
2968.75000	-20.32046	-5.76209	-14.79879	-64.50034
2972.65625	-20.33081	-4.14978	-13.18353	-66.94140
2976.56250	-19.62024	-2.13455	-14.38876	-73.81477
2980.46875	-15.11070	-2.53682	-14.78813	-68.60013
2984.37500	-22.37362	-4.14792	-11.96411	-64.59435
2988.28125	-17.09712	-1.72967	-11.15474	-62.20029
2992.18750	-9.25706	2.30026	-12.36003	-62.62672
2996.09375	-9.68879	2.30089	-11.14777	-67.88837
