 	TP9	AF7	AF8	TP10	
-1000.00000	6.31306	2.44113	-13.32893	16.42948
-996.09375	11.29749	6.50053	-14.53633	18.03811
-992.18750	14.02279	9.59416	-14.13197	16.02046
-988.28125	18.52866	7.05843	-11.71295	16.01750
-984.37500	25.52162	4.83057	-10.50282	22.46144
-980.46875	26.46300	7.36212	-10.90429	23.26428
-976.56250	29.08142	13.42407	-10.49993	26.48470
-972.65625	29.49120	12.37582	-11.30430	28.49634
-968.75000	29.17920	7.76169	-13.72038	23.65820
-964.84375	33.93577	6.40930	-15.33072	19.62592
-960.93750	36.19070	7.43978	-14.92638	20.83169
-957.03125	27.14508	8.67146	-14.11913	18.41120
-953.12500	16.31347	7.91882	-15.72947	15.18484
-949.21875	17.61963	8.46556	-16.53391	19.61416
-945.31250	19.38782	10.79487	-17.33833	20.41701
-941.40625	14.54187	9.52230	-17.73982	15.57887
-937.50000	13.95643	6.74652	-16.52954	15.97876
-933.59375	12.37085	3.87927	-15.72222	15.57283
-929.68750	9.63467	1.91935	-13.30317	13.95803
-925.78125	8.46348	4.28845	-12.89878	19.19304
-921.87500	7.44834	8.77284	-12.89734	18.38410
-917.96875	9.66849	8.85582	-15.71645	14.35176
-914.06250	8.40285	5.49554	-18.53552	10.31941
-910.15625	7.64024	7.06296	-17.32529	11.92804
-906.25000	12.83975	7.03790	-14.50332	16.76018
-902.34375	15.30938	4.38435	-14.50184	20.78643
-898.43750	17.51026	6.93891	-11.27696	26.82734
-894.53125	25.36917	10.35004	-4.02277	26.82428
-890.62500	25.33547	14.22829	-4.82713	24.80656
-886.71875	21.22722	16.62729	-9.25790	25.60932
-882.81250	22.40630	15.29366	-12.07692	24.39742
-878.90625	20.96604	14.69313	-16.10473	21.57376
-875.00000	17.34323	11.18932	-17.31205	22.37642
-871.09375	22.02489	10.52306	-14.89298	25.19374
-867.18750	26.76849	15.32907	-11.66807	21.96713
-863.28125	23.09225	17.72689	-8.44313	20.35230
-859.37500	22.85975	12.37262	-7.23287	21.55797
-855.46875	19.38778	8.41562	-8.84301	24.77829
-851.56250	13.42430	8.03699	-9.24442	24.77518
-847.65625	12.93668	5.56283	-10.85461	24.36910
-843.75000	10.51123	3.62520	-14.88243	29.60402
-839.84375	9.49443	7.63094	-15.68685	21.94516
-835.93750	8.94686	12.90695	-14.87943	17.10688
-832.03125	13.23670	11.20370	-13.66912	25.16237
-828.12500	15.98996	9.08892	-14.47355	25.15923
-824.21875	15.27957	9.25249	-14.06912	26.76776
-820.31250	21.16479	12.15128	-12.05298	27.57034
-816.40625	19.87480	10.96271	-13.26027	24.74663
-812.50000	19.04840	8.33980	-12.85579	23.93758
-808.59375	20.20863	8.58367	-14.86894	26.75500
-804.68750	19.25744	11.64174	-17.28505	27.55769
-800.78125	19.99495	12.63476	-14.86593	24.33105
-796.87500	20.34678	7.41597	-12.84972	21.91026
-792.96875	21.99921	5.48949	-12.84815	21.50419
-789.06250	23.17055	9.68969	-13.24957	27.94787
-785.15625	25.25744	13.61401	-13.65092	35.19753
-781.25000	26.13040	15.12354	-13.24647	37.61192
-777.34375	24.06965	15.96493	-12.03612	32.37051
-773.43750	21.28920	11.51825	-13.64627	32.77033
-769.53125	18.02283	5.96282	-14.04768	27.52919
-765.62500	17.55749	11.14102	-12.03148	19.06442
-761.71875	17.40793	11.55744	-13.64167	23.09028
-757.81250	19.36502	6.79075	-14.84896	30.74249
-753.90625	18.13347	4.26519	-13.63865	28.32138
-750.00000	14.43295	5.46366	-11.62251	24.28858
-746.09375	12.26613	7.44736	-13.63564	24.68807
-742.18750	11.14969	6.36751	-20.48401	23.07278
-738.28125	11.47616	5.27607	-20.48254	19.84580
-734.37500	10.12131	3.07088	-17.25759	18.23064
-730.46875	14.01232	4.56783	-16.45023	22.25649
-726.56250	23.07613	8.17536	-15.64286	28.29698
-722.65625	28.30469	10.83455	-18.46181	23.86131
-718.75000	29.01688	14.23905	-20.47491	16.60518
-714.84375	25.86936	13.97888	-21.27921	19.01937
-710.93750	21.19403	8.11236	-19.26308	24.25409
-707.03125	23.79012	4.05929	-14.02353	23.44488
-703.12500	29.38092	5.61707	-16.43965	22.23269
-699.21875	29.28083	7.08416	-21.27328	21.02045
-695.31250	30.33044	8.78330	-17.24246	19.80822
-691.40625	30.33857	10.86089	-14.82330	22.22242
-687.50000	24.47452	10.81538	-18.04520	20.60727
-683.59375	19.61050	8.04075	-17.64078	23.02145
-679.68750	14.28534	5.16466	-16.02751	22.61510
-675.78125	11.82754	4.80932	-20.45827	14.55298
-671.87500	16.46634	8.78564	-19.65092	13.34067
-667.96875	21.89913	10.71648	-16.02299	15.75480
-664.06250	19.93870	12.06127	-17.23025	10.51324
-660.15625	11.43120	10.89594	-17.63167	7.28633
-656.25000	10.66112	6.08486	-19.24184	17.35615
-652.34375	15.03867	2.29071	-17.62858	21.38192
-648.43750	11.62637	3.36172	-14.00060	21.78131
-644.53125	11.01751	2.77025	-13.59608	22.98665
-640.62500	18.30127	4.12923	-13.19161	27.01248
-636.71875	17.57156	5.75864	-15.20470	30.23244
-632.81250	7.52535	4.27090	-17.21780	21.36453
-628.90625	7.35119	5.27349	-16.00743	19.34646
-625.00000	8.15078	4.74708	-13.18534	15.71665
-621.09375	8.70449	4.20368	-13.98961	12.08683
-617.18750	12.01671	2.62023	-17.61447	21.35072
-613.28125	13.67546	1.43031	-17.61294	22.95891
-609.37500	16.32267	5.97781	-17.20845	18.92607
-605.46875	14.55376	10.73972	-17.60985	20.93713
-601.56250	8.42642	9.50572	-14.78775	16.90422
-597.65625	6.89658	9.56138	-10.35400	9.24494
-593.75000	6.09582	8.27466	-12.76999	10.45022
-589.84375	4.69223	1.44747	-14.78313	10.84961
-585.93750	9.66918	1.81159	-16.79624	9.63718
-582.03125	11.01752	2.70800	-19.61527	14.06582
-578.12500	7.45554	-0.01327	-16.79317	9.22705
-574.21875	8.16308	4.25454	-16.38871	3.17949
-570.31250	10.33358	8.20464	-14.37249	8.81687
-566.40625	8.39720	6.16889	-12.35624	10.02200
-562.50000	5.99721	1.94115	-14.77217	11.22707
-558.59375	6.84857	-0.31834	-15.17353	10.01463
-554.68750	3.76734	3.06941	-14.76899	0.74346
-550.78125	1.41502	5.70182	-15.97620	3.96315
-546.87500	7.90991	5.68158	-19.19806	12.01806
-542.96875	15.52183	6.80127	-19.19646	16.84943
-539.06250	18.77967	6.22645	-16.37437	26.51586
-535.15625	14.67497	4.71880	-11.94053	20.06501
-531.25000	10.57539	5.22298	-11.13308	7.57026
-527.34375	13.03570	3.17186	-13.54903	12.40146
-523.43750	17.02178	1.17069	-10.72693	16.82971
-519.53125	17.06165	1.89005	-8.30772	20.85502
-515.62500	12.28545	4.36664	-10.72373	20.44803
-511.71875	9.20809	7.97863	-12.33388	11.98252
-507.81250	12.48555	6.29754	-10.72052	10.36677
-503.90625	14.11654	3.58413	-10.71890	16.80966
-500.00000	13.38128	4.39943	-11.52312	23.65536
-496.09375	22.39432	-1.21161	-11.52150	24.05416
-492.18750	26.73065	-3.75903	-11.51987	22.84128
-488.28125	16.73019	0.15211	-9.90652	23.64306
-484.37500	14.45499	3.96817	-11.11368	24.44488
-480.46875	19.02193	6.90256	-11.51492	29.27599
-476.56250	21.23658	7.72643	-8.28982	30.48079
-472.65625	25.67485	8.69277	-7.88529	34.10312
-468.75000	24.95918	8.10788	-9.09251	34.50202
-464.84375	22.86515	5.94966	-10.29973	32.48330
-460.93750	23.50774	5.36846	-10.29809	31.27052
-457.03125	17.68499	3.77968	-9.89351	24.81966
-453.12500	16.12019	1.41525	-11.90656	23.60682
-449.21875	21.85803	-2.06732	-9.89028	26.42333
-445.31250	21.61100	-2.15557	-8.27685	21.18118
-441.40625	14.34687	-3.42799	-9.48400	14.32727
-437.50000	14.96967	-6.20372	-9.48235	21.57605
-433.59375	21.44227	-1.81823	-8.27190	33.66000
-429.68750	20.72024	3.87749	-7.86736	33.25305
-425.78125	15.11628	4.63499	-10.28329	28.01098
-421.87500	12.89189	0.65792	-11.89329	25.58940
-417.96875	14.30566	0.33798	-11.08577	21.55612
-414.06250	16.66581	1.81288	-9.87529	25.98439
-410.15625	17.91735	-0.64900	-8.26185	28.39798
-406.25000	9.41674	-2.28577	-9.06605	20.33533
-402.34375	7.85643	-0.91002	-11.07898	19.92847
-398.43750	12.87717	1.24158	-11.88308	24.75968
-394.53125	15.09451	-1.39136	-11.07548	21.53241
-390.62500	15.46328	-0.73658	-6.23856	23.94622
-386.71875	11.35460	1.25951	-4.62514	26.76295
-382.81250	14.14495	1.13459	-7.44389	21.92405
-378.90625	17.94245	2.14582	-9.05391	23.93493
-375.00000	15.93093	1.86544	-10.26097	23.12529
-371.09375	10.94178	-0.00968	-8.64749	18.68917
-367.18750	10.84986	-0.84466	-7.43694	20.69993
-363.28125	13.62021	1.15026	-7.43514	24.72538
-359.37500	11.77578	1.03417	-11.46267	21.90101
-355.46875	13.94455	-0.90812	-8.23755	21.09124
-351.56250	14.02478	1.93670	-0.58023	21.89322
-347.65625	9.10477	2.68611	-2.99611	10.20441
-343.75000	6.27626	-0.46015	-7.02366	2.54492
-339.84375	3.64741	-0.88659	-9.43944	3.74969
-335.93750	1.89073	3.18065	-5.81133	8.98394
-332.03125	3.35982	5.10382	-1.78028	16.23300
-328.12500	6.91873	2.18319	-0.16674	19.85569
-324.21875	2.98460	-1.27971	0.64088	18.24022
-320.31250	3.22854	0.81318	0.23973	14.20729
-316.40625	8.78814	2.44502	1.04750	15.41253
-312.50000	7.15571	3.04548	1.45223	18.22945
-308.59375	9.92756	3.28937	3.46868	24.67272
-304.68750	17.84076	1.51232	2.66463	37.96583
-300.78125	18.17533	2.50533	-1.36286	38.76818
-296.87500	0.79813	1.31580	-4.18154	16.20048
-292.96875	-7.62271	3.01563	-5.79144	6.52664
-289.06250	-5.24261	2.78359	-2.96909	5.71720
-285.15625	-3.15573	0.26093	-3.37014	1.68436
-281.25000	0.94085	4.59091	-2.96539	11.75406
-277.34375	-3.13434	6.23810	-3.36640	12.55632
-273.43750	-6.31763	3.40312	-5.37915	5.70294
-269.53125	-7.56941	-0.94363	-5.37728	0.05839
-265.62500	-6.01992	-3.42111	-6.18129	-6.79508
-261.71875	-3.34870	-3.00471	-5.77653	-10.82791
-257.81250	-4.21181	-3.33914	-6.17755	-9.21967
-253.90625	-5.04016	-4.65590	-7.38451	-0.76168
-250.00000	-5.91985	-1.44283	-6.97980	2.45818
-246.09375	-5.66860	0.94375	-7.78382	3.26041
-242.18750	-1.14358	-4.16537	-6.17025	13.32999
-238.28125	2.80970	-5.25684	-4.95968	15.74393
-234.37500	6.69342	-0.20935	-4.15195	20.57546
-230.46875	6.95836	1.69051	-5.35892	19.76602
-226.56250	1.51697	0.05988	-10.99813	13.31552
-222.65625	7.95450	-0.90740	-12.20507	18.14708
-218.75000	12.29324	0.88530	-9.78564	16.53178
-214.84375	5.11653	1.43089	-10.18677	15.31934
-210.93750	0.84427	-0.00349	-8.97614	11.68933
-207.03125	-0.18603	-0.02725	-6.95962	5.64168
-203.12500	-0.63926	1.53045	-7.36063	8.05564
-199.21875	2.88686	2.59447	-8.16458	8.45496
-195.31250	2.32469	-0.13873	-8.56565	2.40741
-191.40625	-1.69662	-1.68759	-7.75795	-4.04314
-187.50000	1.70655	-0.92739	-8.56194	-2.03220
-183.59375	7.31855	1.13302	-10.17183	5.61972
-179.68750	14.88714	4.70378	-8.15525	6.01894
-175.78125	18.87605	5.96008	-3.72121	8.43278
-171.87500	15.45614	3.08650	-2.91352	18.90517
-167.96875	14.44203	-0.62384	-6.94095	30.98924
-164.06250	8.04941	-0.08498	-9.35660	29.77666
-160.15625	3.16842	-0.04149	-8.54886	26.95242
-156.25000	8.44238	1.59443	-3.71183	22.11350
-152.34375	8.38774	2.63537	-2.09820	16.06566
-148.43750	2.55791	-3.54650	-5.72271	14.85309
-144.53125	-1.27435	-8.97317	-5.31787	7.59651
-140.62500	-2.04922	-3.98782	-6.92775	1.95162
-136.71875	-1.16724	-0.74674	-5.71711	3.15656
-132.81250	0.47147	-2.63742	-2.89476	5.16737
-128.90625	1.90891	-0.82910	-5.71335	4.76057
-125.00000	-0.11213	-0.95261	-8.53192	3.14498
-121.09375	1.24749	0.92157	-5.70952	2.33530
-117.18750	-3.09600	-1.87069	-6.91644	-0.08609
-113.28125	-9.09296	-4.26943	-10.13801	-1.29875
-109.37500	-3.22226	-2.13950	-10.94197	-4.92896
-105.46875	3.06747	-1.40689	-6.91077	1.11114
-101.56250	-1.85088	-5.86432	-6.10295	9.56888
-97.65625	-3.78356	-6.61454	-9.72742	10.37093
-93.75000	-2.16676	-6.28962	-8.51670	10.76997
-89.84375	-4.37606	-6.26695	-8.91775	5.12508
-85.93750	-2.21946	-3.88823	-11.33337	5.92711
-82.03125	3.56141	-2.18594	-9.71973	10.75852
-78.12500	-1.20906	-2.48961	-9.71776	7.93427
-74.21875	-6.14236	-0.63939	-10.11878	2.69245
-70.31250	-0.34517	2.50476	-10.11686	1.48004
-66.40625	-3.48986	-4.36616	-9.30900	1.87943
-62.50000	-6.29239	-7.38518	-8.90415	-2.15346
-58.59375	-2.21713	-1.98890	-8.09628	-3.76881
-54.68750	3.56673	0.59305	-0.43865	4.28628
-50.78125	5.64722	-0.80386	-4.06301	7.90912
-46.87500	1.66662	-2.03290	-16.14899	3.07057
-42.96875	0.41467	-0.51026	-16.54991	-4.58848
-39.06250	-0.75909	-0.27924	-12.11576	-6.60656
-35.15625	-0.43092	-1.38402	-7.68154	-3.78953
-31.25000	-2.91821	-6.92377	-4.85905	-3.39004
-27.34375	-2.87466	-10.58675	-5.25993	1.44160
-23.43750	5.14132	-6.14108	-4.04910	9.89959
-19.53125	9.61406	0.62217	-1.62955	19.56630
-15.62500	11.28548	-0.12478	-0.82164	22.78610
-11.71875	8.20885	-8.60084	-3.23723	19.15605
-7.81250	4.63721	-13.90834	-2.42937	22.77875
-3.90625	7.07470	-12.18958	0.79609	23.58083
0.00000	7.14587	-8.55388	0.39513	16.72728
3.90625	6.48915	-5.30045	1.20304	11.88829
7.81250	7.19964	-0.59514	-0.40671	15.10790
11.71875	7.67599	0.09246	-3.22521	14.70117
15.62500	6.61011	-4.55316	-4.02906	5.02697
19.53125	3.52189	-4.43937	-4.42999	4.21725
23.43750	2.11055	-1.60099	-3.21918	10.25728
27.34375	3.32577	0.57404	-2.00836	6.22406
31.25000	-1.41894	1.19792	-4.82691	3.80251
35.15625	-3.51270	-0.55751	-5.63077	6.21606
39.06250	0.75643	-1.54177	-2.40533	9.03244
42.96875	-1.84284	-1.11615	-2.40335	13.46052
46.87500	-11.06330	-0.25729	-4.01305	10.23287
50.78125	-11.77237	-3.73996	-5.21984	6.60225
54.68750	-11.61652	-7.05170	-1.59153	9.41852
58.59375	-14.85153	-5.90673	2.43971	9.81706
62.50000	-18.25834	-7.47382	0.42701	8.20097
66.40625	-15.81536	-8.72946	1.63778	6.58476
70.31250	-10.09089	-7.06313	1.23684	3.75973
74.21875	-11.66584	-5.90285	-1.58174	3.35211
78.12500	-7.84666	-5.85077	-2.78856	-0.68188
82.03125	-4.82152	-6.17072	-6.00999	-4.71582
85.93750	-4.87915	-5.90469	-4.39636	2.53233
89.84375	1.20722	-1.11395	-0.36514	10.18343
93.75000	3.58539	0.47274	-2.37787	6.95530
97.65625	-2.00456	-3.38968	-2.77890	2.51828
101.56250	-5.44571	-5.26743	-2.77695	2.91638
105.46875	-4.43759	-7.09446	-3.98372	-1.11778
109.37500	-3.26353	-8.45450	0.04753	-2.73437
113.28125	-1.73185	-9.68197	3.27292	2.49890
117.18750	-6.19489	-10.61273	2.46898	0.88238
121.09375	-2.39816	-3.55767	-1.96121	2.89222
125.00000	2.84249	-5.44980	-0.34755	10.94604
128.90625	-14.23525	-10.95134	4.89249	0.86797
132.81250	-20.77468	-8.16013	5.29741	-5.18085
136.71875	-11.15525	-4.95659	1.67299	3.67875
140.62500	-11.38880	-1.04356	0.46616	4.07685
144.53125	-12.84720	-0.97131	1.67690	3.66900
148.43750	-9.54422	2.27635	-1.94744	6.08170
152.34375	-4.39184	4.63722	-5.57182	6.07677
156.25000	3.25496	2.69955	-4.36102	7.68349
160.15625	5.05756	3.07882	-3.15021	9.69317
164.06250	6.12072	3.51959	-1.53647	8.47944
167.96875	11.21529	3.83086	-2.74324	10.08627
171.87500	12.75873	4.93939	-6.77053	15.31947
175.78125	9.62975	-3.76171	-5.15675	12.49407
179.68750	4.63492	-11.33921	-0.72247	8.86287
183.59375	2.94101	-6.48402	0.08540	2.00818
187.50000	1.30785	-2.66018	-2.73314	-2.02605
191.40625	-2.77093	-4.83400	-0.71638	2.40135
195.31250	-6.94648	-8.62569	0.09153	-4.05039
199.21875	-9.83638	-9.64746	-0.71226	-7.68158
203.12500	-8.67971	-9.22531	-0.71020	1.98386
207.03125	-9.44576	-7.92843	-1.11111	6.81411
210.93750	-7.06662	-7.75767	-1.91488	7.61503
214.84375	-5.78647	-9.87750	-3.52457	3.17786
218.75000	-9.74953	-10.38282	-3.92539	-3.27384
222.65625	-7.37881	-8.33273	-2.71458	-5.29339
226.56250	-2.90748	-8.75019	0.51094	0.74566
230.46875	2.28662	-9.47054	0.51304	1.54666
234.37500	6.65567	-5.09836	-3.91707	2.34764
238.28125	5.29660	-3.07030	-4.31796	3.14858
242.18750	1.20903	-6.22539	-2.30122	-1.69145
246.09375	0.37978	-5.12476	-1.09033	2.33297
250.00000	1.51375	-5.13529	-0.68528	-0.08950
253.90625	4.58440	-5.97223	-3.10077	-12.58511
257.81250	0.24395	-6.64921	-4.71041	-11.78410
261.71875	-5.07118	-6.53204	-3.90237	-8.56548
265.62500	-2.39724	-5.11103	-0.27390	-8.16743
269.53125	-2.53611	-3.61426	0.53405	-7.76930
273.43750	-4.35207	-2.42449	-2.68728	-9.78876
277.34375	-3.95936	-1.78010	-4.69979	-13.41999
281.25000	-3.24777	-2.00212	-3.08593	-9.79838
285.15625	-1.96377	-0.24787	0.13961	-0.93874
289.06250	-2.20738	-0.47346	-1.06706	-1.34644
292.96875	-4.85006	-4.92959	-5.49715	-3.76884
296.87500	-0.06575	-2.56613	-5.89787	-0.95314
300.78125	-0.16655	2.12425	-2.26936	2.66841
304.68750	-7.98218	-1.01199	2.16504	2.26058
308.59375	-9.18370	-4.97851	2.57006	-1.37059
312.50000	-6.18406	-6.23299	1.76635	-4.59891
316.40625	-4.19906	-7.39608	2.57436	-8.63307
320.31250	-7.10730	-6.24294	1.36779	-9.04083
324.21875	-4.73078	0.25139	3.78746	-6.22517
328.12500	1.51908	3.42173	4.99840	-0.18608
332.03125	3.72773	-0.69158	-0.64045	2.22667
335.93750	5.79591	-2.16746	-1.84712	6.65402
339.84375	0.51124	-3.33287	0.16966	3.82864
343.75000	0.94932	-6.53220	2.58932	1.00320
347.65625	6.13204	-5.49139	2.18857	3.41591
351.56250	0.30144	-3.21173	0.98194	-3.84172
355.46875	-2.72571	-2.99749	2.19292	-3.04072
359.37500	-1.88950	-2.84739	2.59798	-3.44846
363.28125	-4.23161	-3.23279	0.98845	-5.46793
367.18750	-7.83168	-6.33230	1.79645	-5.47275
371.09375	-12.84173	-8.55321	3.41034	-12.32740
375.00000	-14.46047	-7.46800	4.21833	-16.76446
378.90625	-14.31028	-6.39973	3.81756	-15.96339
382.81250	-17.04269	-7.58029	4.22273	-9.52137
386.71875	-18.60794	-6.75559	1.80735	-4.69100
390.62500	-14.75238	-0.59641	2.61539	-7.51640
394.53125	-8.86618	0.13620	7.45277	-13.56521
398.43750	-14.59105	0.51396	3.02269	-14.37591
402.34375	-21.76246	-0.63923	0.20435	-14.38072
406.25000	-16.11695	-0.71722	3.83284	-20.83241
410.15625	-17.11812	-1.09758	2.62621	-20.43424
414.06250	-18.99139	-3.55399	1.82255	-13.58921
417.96875	-15.62880	-2.25467	2.63059	-10.37054
421.87500	-10.32671	-3.36420	5.45337	-1.51082
425.78125	-5.18734	-5.14039	4.64967	1.30489
429.68750	-8.65825	0.42139	-2.19794	-8.37025
433.59375	-10.99787	7.25017	-1.38988	-13.21017
437.50000	-10.57785	7.45459	-1.79059	-14.02081
441.40625	-8.11511	1.97167	-4.60896	-15.63734
445.31250	-10.79368	-3.50505	-4.20380	-25.31246
449.21875	-13.14639	-4.09607	-6.21628	-24.51149
453.12500	-11.88999	-3.71339	-7.42294	-19.68117
457.03125	-14.75472	-2.19085	-5.40611	-20.89481
460.93750	-14.31776	2.47242	-1.37461	-15.66159
464.84375	-12.78185	2.97941	-1.77532	-13.24884
468.75000	-14.86716	3.08063	-0.56436	-12.44784
472.65625	-14.01881	4.25289	1.04951	-10.84091
476.56250	-5.19783	6.68393	0.24587	-3.99592
480.46875	-1.12891	4.98563	-0.15489	-4.00073
484.37500	-2.27891	1.01528	-0.55560	-11.66126
488.28125	1.89618	3.41845	2.66998	0.01887
492.18750	-0.46752	3.75198	1.86633	6.86395
496.09375	-7.29817	-3.39367	-2.56374	-3.21404
500.00000	-2.79541	-6.20479	-1.35277	-6.03927
503.90625	0.57660	-1.33958	3.48459	-6.84989
507.81250	0.48065	2.15697	4.29263	-4.84003
511.71875	-3.07294	-1.99051	2.68309	-6.05364
515.62500	-6.55700	-2.60679	1.47655	-6.46145
519.53125	-3.19896	0.73047	-0.13301	-2.83990
523.43750	-1.38739	-1.26629	-0.53370	-3.24772
527.34375	0.63319	-1.91166	1.08021	-1.64084
531.25000	-0.48557	-3.30236	-1.33518	0.77182
535.15625	-2.98271	-7.47533	-4.95931	1.57283
539.06250	2.09181	-7.25078	-0.92781	1.97079
542.96875	2.31257	-3.60162	2.70072	1.56298
546.87500	-2.07303	-1.53398	3.10585	-0.85950
550.78125	-4.79704	-4.21072	3.51099	-2.07318
554.68750	-5.85023	-5.10493	6.33370	4.77171
558.59375	-3.04131	-2.75114	10.76815	9.19913
562.50000	-1.21001	-4.72114	4.72632	-0.47607
566.40625	-4.81104	-5.57383	-0.91247	-4.91316
570.31250	-5.93634	-3.90745	-0.50734	3.54349
574.21875	-2.27308	-1.94125	2.31532	9.98547
578.12500	-6.51245	-2.69498	3.52624	6.75722
582.03125	-10.74000	-5.83545	3.93125	6.34936
585.93750	-9.18586	-5.56942	4.73925	8.35907
589.84375	-8.74049	-6.82261	1.92091	3.92183
593.75000	-4.75053	-4.43017	1.11725	-2.93299
597.65625	-2.28177	-1.03983	3.93992	-6.16149
601.56250	-1.69354	-2.51466	7.97139	-6.97241
605.46875	4.95560	0.09050	5.95888	-6.57458
609.37500	11.36781	2.75982	-0.08294	-4.56503
613.28125	4.84108	-0.48234	-0.48371	-8.19647
617.18750	-0.83057	-2.21905	5.15941	-12.63376
621.09375	-1.46581	3.22436	7.17621	-11.83285
625.00000	-5.49240	0.12344	5.96958	-9.82311
628.90625	-11.28778	-4.97516	3.15124	-11.43975
632.81250	-11.38012	-2.98972	1.13876	-10.63885
636.71875	-8.61026	-0.18906	0.73796	-9.03203
640.62500	-8.03774	4.12698	1.54598	-4.20185
644.53125	-8.28711	5.81093	0.33931	-1.38637
648.43750	-11.83382	2.61181	1.95316	-0.58552
652.34375	-18.36621	-2.68289	1.95531	-7.84328
656.25000	-19.18067	-4.21756	-0.05719	-11.07168
660.15625	-13.75139	-3.43528	1.15375	-10.27081
664.06250	-10.67336	-2.99445	4.37935	-9.87292
667.96875	-9.20487	-2.28016	7.20201	-9.07204
671.87500	-3.63195	-1.17160	6.39833	-10.28587
675.78125	3.31252	-4.23168	6.40047	-0.62062
679.68750	-0.07046	-4.15343	4.79085	4.61241
683.59375	-9.41992	-3.32751	4.39010	-6.27175
687.50000	-0.97964	-5.95044	8.01863	-2.24749
691.40625	7.02964	-6.51248	10.43842	8.22366
695.31250	10.91284	-5.06611	12.05227	9.42741
699.21875	21.72289	-4.07312	12.45738	15.46636
703.12500	24.89446	-5.66556	12.05660	19.08767
707.03125	23.72565	-6.78626	11.25296	21.09735
710.93750	22.07567	-6.61543	8.83761	20.28646
714.84375	13.68563	-8.33225	8.43687	15.44633
718.75000	11.33441	-9.24038	7.63326	8.99441
722.65625	13.70510	-6.38436	8.03836	4.55710
726.56250	6.08860	-9.21944	8.44352	3.74616
730.46875	5.64178	-11.95448	10.46037	6.96450
734.37500	14.04024	-8.79101	12.47721	9.37699
738.28125	10.26374	-7.16587	8.85308	2.92503
742.18750	1.34111	-6.29162	7.64649	0.09945
746.09375	4.54118	-3.98215	8.45452	0.49725
750.00000	4.06360	-4.79843	8.05377	-2.73127
753.90625	2.29919	-5.63534	8.45896	-5.15390
757.81250	4.40573	-3.49184	6.04356	-7.57668
761.71875	1.50822	-1.36003	4.43405	-10.80529
765.62500	0.15293	-5.17707	6.85384	-7.58694
769.53125	-0.79169	-9.32129	7.66187	-1.95100
773.43750	2.22768	-4.10208	5.24647	7.71416
777.34375	9.47032	2.58632	4.44286	9.72374
781.25000	10.18202	-2.87381	6.86270	2.46594
785.15625	9.04849	-6.76042	8.47663	0.84913
789.06250	8.40199	-1.34500	9.28473	0.03819
792.96875	8.17692	-1.36881	10.09281	-4.80209
796.87500	6.51427	-2.22877	8.88628	-3.59836
800.78125	7.21939	-3.58232	7.67966	-3.60343
804.68750	11.89465	-6.31554	4.05546	-6.83193
808.59375	7.46985	-5.44686	2.44597	-4.82235
812.50000	-0.81246	-4.68662	2.85108	-2.40983
816.40625	-1.24486	-5.04376	2.85329	0.80849
820.31250	-0.52666	-3.89056	4.87015	2.81794
824.21875	2.65585	-2.63424	4.87238	3.21570
828.12500	1.25002	-4.29904	2.05407	1.59874
832.03125	-1.37649	-4.38293	2.86211	-2.03279
835.93750	0.28871	-1.42644	4.47606	-2.84381
839.84375	2.25671	-4.20353	5.68703	-4.46063
843.75000	-1.33456	-3.77643	4.07746	-9.30096
847.65625	-7.43387	-0.31786	2.87085	-8.50033
851.56250	-8.42923	-4.08200	4.88768	-11.32600
855.46875	-10.24747	-5.88230	4.08400	-16.16641
859.37500	-10.21705	-2.91155	3.28034	-9.72474
863.28125	-10.14138	-3.69975	0.05907	-2.47711
867.18750	-11.72658	-2.76992	1.67298	-3.69097
871.09375	-10.28971	-0.96156	5.70445	-9.33712
875.00000	-11.90841	-7.12895	4.49782	-14.98339
878.90625	-8.93777	-7.67234	4.90290	-17.40625
882.81250	-1.19403	-4.01770	6.51683	-8.14417
886.71875	-1.55067	-2.79005	6.11604	1.11793
890.62500	-2.93350	-3.07776	4.50651	1.51543
894.53125	1.34080	-3.15096	6.92628	0.70418
898.43750	2.46555	-2.77315	7.33137	-1.31584
902.34375	0.53203	-1.50874	5.72186	-0.91836
906.25000	0.13334	4.05423	9.75331	-0.92381
910.15625	-0.46502	0.85350	7.74082	-0.52622
914.06250	-4.75608	-4.82631	4.51953	0.67729
917.96875	-5.42290	-4.33277	6.53636	2.68669
921.87500	1.08786	-3.83056	8.15023	-3.36247
925.78125	2.19774	-5.20376	9.76416	-6.59114
929.68750	2.35309	-6.89470	10.16925	-0.14944
933.59375	2.43086	-5.70691	6.94808	-4.58688
937.50000	0.83623	-7.51714	4.93559	-7.00967
941.40625	4.91058	-6.15010	11.38467	2.65549
945.31250	6.26117	-3.97111	12.59567	9.90301
949.21875	10.35532	-2.95047	8.56859	17.15052
953.12500	3.15025	1.86447	10.58546	10.69845
957.03125	-17.04044	-2.25385	9.78182	-11.06496
960.93750	-16.60348	-1.61978	4.54591	-20.33758
964.84375	-15.87338	0.49903	1.72760	-20.74568
968.75000	-14.33232	-1.41437	4.55028	-22.36263
972.65625	-13.08106	-3.86839	0.92608	-24.78543
976.56250	-12.31885	-3.85490	-1.08635	-16.32913
980.46875	-5.83239	1.69962	0.93054	-8.27583
984.37500	-3.75892	-1.86774	1.33571	-9.89280
988.28125	-2.00134	-7.12027	3.35257	-8.68925
992.18750	2.88766	1.27199	7.38407	-5.47103
996.09375	-0.31674	1.78207	4.96867	-7.08798
1000.00000	-4.67853	-7.07294	4.56798	-5.07850
1003.90625	-3.72424	-7.04284	7.39073	-2.66607
1007.81250	-3.01446	-3.54630	4.16958	-0.65660
1011.71875	-2.94179	-2.85862	1.75431	0.94993
1015.62500	-4.00836	-3.07193	2.56237	-2.68171
1019.53125	-4.27665	-1.74921	4.17629	-5.10453
1023.43750	-3.67385	-0.92543	4.17850	-10.34792
1027.34375	-7.29434	-3.98838	3.77781	-16.80005
1031.25000	-9.62196	-4.17027	3.37704	-10.76134
1035.15625	-6.88099	-1.89630	4.58804	-0.29035
1039.06250	-2.20937	-0.05998	6.20194	-1.50437
1042.96875	-4.80915	1.97749	8.21881	-3.92722
1046.87500	-7.98597	1.62770	8.22103	-7.15589
1050.78125	-4.26313	0.56277	1.77641	-11.59325
1054.68750	-1.68988	2.89206	-1.04189	-14.01597
1058.59375	2.73073	4.84289	4.60139	-14.82698
1062.50000	3.35320	2.06703	6.21528	-18.86149
1066.40625	-3.87421	0.00565	1.78529	-21.28426
1070.31250	-6.20834	0.06033	1.38457	-19.67777
1074.21875	-4.15690	2.02657	0.98386	-17.66841
1078.12500	-5.57575	3.28752	0.58321	-10.82382
1082.03125	-9.80333	-1.46465	2.60008	-16.47010
1085.93750	-12.68155	-3.21326	2.60228	-20.50464
1089.84375	-9.41579	-3.66055	4.21620	-13.66000
1093.75000	-6.63463	-6.50621	6.63602	-12.05352
1097.65625	-4.97169	-1.90707	6.23529	-8.83525
1101.56250	-0.35408	-1.36716	4.62581	-3.19944
1105.46875	-0.95750	-6.41759	4.62802	-2.80170
1109.37500	-0.18613	-4.55400	3.82438	-7.23918
1113.28125	-3.89219	-2.55795	3.42366	-11.27371
1117.18750	-9.16083	-5.10039	1.81422	-12.89056
1121.09375	-8.58727	-6.50681	5.44280	-8.46356
1125.00000	-4.95823	-2.75790	9.07144	-9.67761
1128.90625	-5.91848	-3.42430	7.05905	-20.96489
1132.81250	-6.81660	-5.46809	9.47887	-22.17885
1136.71875	-8.88193	-5.48778	11.49575	-22.99001
1140.62500	-2.66839	-5.60401	10.28917	-22.18941
1144.53125	-3.72368	-1.09947	6.26210	-27.83575
1148.43750	-28.22286	-0.67226	2.23504	-42.74955
1152.34375	-39.99347	-5.96687	7.07249	-43.15785
1156.25000	-49.67257	-10.72496	10.29811	-54.84825
1160.15625	-65.19588	-7.92805	5.46519	-72.17963
1164.06250	-83.47327	-5.47257	1.03516	-91.12271
1167.96875	-101.34560	-8.38462	1.44036	-108.45399
1171.87500	-113.50169	-9.29066	-2.58670	-121.75601
1175.78125	-119.85410	-5.50084	-6.61374	-131.02876
1179.68750	-128.07233	-5.42263	-5.40266	-141.91321
1183.59375	-139.43660	-11.84934	-5.40041	-153.20055
1187.50000	-148.32249	-6.81657	-7.41282	-158.44394
1191.40625	-151.99817	-3.75223	-8.21648	-169.32837
1195.31250	-150.12962	-8.34977	-10.22892	-169.73660
1199.21875	-151.00455	-7.35674	-11.43553	-164.10094
1203.12500	-156.29451	-4.51687	-11.03032	-168.94136
1207.03125	-154.23990	1.21229	-13.04271	-170.96129
1210.93750	-149.04007	6.21834	-17.87561	-168.95197
1214.84375	-144.53627	5.30744	-18.67927	-160.89874
1218.75000	-139.23164	4.80218	-13.43894	-149.21910
1222.65625	-136.45786	6.04648	-11.01909	-141.56879
1226.56250	-126.74818	5.62911	-9.00220	-127.47163
1230.46875	-117.52454	4.50595	-6.58236	-119.41837
1234.37500	-107.11134	5.65486	-8.99768	-109.35036
1238.28125	-95.17351	5.66837	-11.81588	-103.31168
1242.18750	-87.57593	-0.30720	-11.00776	-103.31697
1246.09375	-81.15229	-2.42995	-8.99086	-98.48707
1250.00000	-71.95959	3.20069	-10.19740	-96.47765
1253.90625	-60.83019	7.60193	-9.38929	-80.76865
1257.81250	-48.65045	8.53674	-10.19286	-62.23912
1261.71875	-40.26600	5.83354	-6.56418	-48.14185
1265.62500	-33.56272	2.41956	-4.54727	-37.67117
1269.53125	-20.00195	2.70767	-6.55966	-25.58861
1273.43750	-16.57965	3.09171	-3.33395	-16.32656
1277.34375	-16.58984	0.10980	-1.31708	-8.27339
1281.25000	-4.19320	-3.33556	-3.32950	1.39151
1285.15625	1.52309	-4.80455	-2.92435	-2.64318
1289.06250	7.32348	-3.01540	-0.50447	0.17193
1292.96875	10.32189	-1.42740	-1.71100	9.43398
1296.87500	15.50920	-3.09305	1.91767	19.50188
1300.78125	21.85543	-6.46113	2.72581	23.92877
1304.68750	25.32193	-8.79142	-1.70418	23.52043
1308.59375	28.95567	-6.71384	-0.09020	29.55904
1312.50000	29.53782	-4.74480	1.12079	28.34482
1316.40625	37.16396	-3.08721	1.12305	30.35398
1320.31250	40.29966	-1.93395	3.54292	35.18364
1324.21875	43.88511	-2.69226	5.96281	31.14890
1328.12500	50.13494	-5.16290	3.95041	29.53177
1332.03125	52.34369	-4.84387	2.74386	32.34686
1335.93750	51.59136	-2.29034	3.95490	37.17660
1339.84375	49.93304	-4.26154	1.53955	44.82687
1343.75000	48.75935	-3.83445	2.75062	37.16572
1347.65625	46.28629	-2.79346	5.57336	32.32514
1351.56250	48.51426	-6.15475	3.96394	43.19881
1355.46875	53.54578	-5.94039	2.75745	44.40219
1359.37500	47.93505	-2.56674	1.95389	37.54699
1363.28125	43.57827	-0.93734	6.79128	34.72106
1367.18750	40.38110	-1.61927	6.39056	31.49212
1371.09375	39.80322	-1.82553	0.75181	26.65141
1375.00000	46.24314	0.46857	1.15696	28.25766
1378.90625	43.57266	-3.70121	1.15922	30.66970
1382.81250	43.25770	-10.11989	2.37028	39.52874
1386.71875	48.13928	-4.46002	3.58134	43.55262
1390.62500	44.33895	0.89343	2.37481	38.71204
1394.53125	43.77824	-0.79148	1.57123	38.30365
1398.43750	47.32072	-0.01075	3.18517	41.11877
1402.34375	42.56680	2.05957	5.20209	34.66651
1406.25000	36.12423	-0.03301	3.59268	26.19944
1410.15625	34.71999	-0.81620	3.19199	28.61148
1414.06250	35.26405	-0.04912	3.19426	32.63532
1417.96875	36.61181	-1.97311	4.40535	37.06211
1421.87500	33.04932	-0.66502	2.79593	35.44496
1425.78125	27.30944	2.39407	0.38061	27.38094
1429.68750	25.04717	0.30019	3.60633	22.94320
1433.59375	27.54251	1.08501	5.62323	26.16110
1437.50000	31.18593	4.51291	5.22256	30.18491
1441.40625	33.64852	3.46226	5.62779	28.97064
1445.31250	34.19323	2.41790	8.04766	29.77101
1449.21875	28.61694	2.63281	6.03531	29.76558
1453.12500	21.81470	1.40384	3.21704	23.31325
1457.03125	19.35282	-0.69987	5.23399	21.69610
1460.93750	18.58084	-2.48344	7.65387	24.51110
1464.84375	23.34012	-3.18520	9.67080	31.75834
1468.75000	26.08990	-1.47217	9.67311	33.76744
1472.65625	24.92354	-0.29979	6.04907	26.91205
1476.56250	20.04477	-2.30088	5.24544	20.45958
1480.46875	16.86083	-3.59608	9.67998	22.87163
1484.37500	20.54591	-0.71650	7.26476	26.89539
1488.28125	18.27417	0.88080	0.82017	25.27810
1492.18750	15.10461	0.00568	2.03127	24.86971
1496.09375	17.94416	-1.49883	5.65992	28.08775
1500.00000	18.41753	-2.69817	4.85637	28.48523
1503.90625	18.56595	0.15250	3.64985	26.86804
1507.81250	22.90201	1.23151	4.05509	25.25076
1511.71875	22.16886	0.71042	2.44564	19.20129
1515.62500	18.68470	1.70598	0.03042	16.37526
1519.53125	19.62503	-1.80646	3.65905	15.96678
1523.43750	18.61612	-1.78847	6.88479	17.17008
1527.34375	20.63662	1.99842	2.45485	21.99975
1531.25000	21.12950	-2.61569	3.26301	19.17363
1535.15625	15.81186	-7.19148	5.27995	9.49784
1539.06250	13.63364	-2.13165	1.65587	3.85125
1542.96875	10.63097	-0.49698	0.85228	2.63686
1546.87500	12.69222	-4.07017	0.45161	5.85480
1550.78125	14.80334	-3.52340	2.06567	11.89325
1554.68750	11.73542	-2.80576	3.67966	13.49945
1558.59375	12.93256	-2.46663	2.07028	9.46458
1562.50000	8.71969	-2.82484	1.66965	8.65309
1566.40625	7.13320	-6.49798	-1.14853	5.02115
1570.31250	9.23118	-4.02572	-5.57849	-1.43134
1574.21875	6.44735	0.76103	-2.75569	2.18953
1578.12500	3.01371	0.41032	1.27590	3.39276
1582.03125	3.62111	-3.13307	0.47235	2.17842
1585.93750	5.98096	-6.09036	-0.73417	0.96399
1589.84375	8.84379	-2.91125	0.07397	2.16724
1593.75000	9.61034	-0.92162	2.49378	-1.46465
1597.65625	4.42347	-7.20154	-2.33904	-3.08182
1601.56250	1.38540	-8.67626	-3.94847	0.53903
1605.46875	3.60241	-7.68273	-0.31974	-0.27227
1609.37500	7.59726	-5.81912	-3.13793	-1.48654
1613.28125	11.94970	-2.21128	-5.15029	-0.68620
1617.18750	17.96315	-1.12731	-0.71580	0.11421
1621.09375	13.70156	-2.53362	2.91291	0.10869
1625.00000	-1.60711	-3.61978	5.33276	-2.71747
1628.90625	-0.95559	-1.06252	3.32043	-2.72305
1632.81250	2.17556	-0.28568	-0.30362	-0.71393
1636.71875	2.93073	-3.93168	0.90745	2.50398
1640.62500	5.11503	-3.64488	0.50678	2.09553
1644.53125	1.64221	-4.37840	0.91201	-5.96866
1648.43750	4.54226	-4.75699	2.12312	-8.79471
1652.34375	10.09773	-4.00769	0.51372	-8.80029
1656.25000	7.26851	-6.34826	-1.09564	-14.04407
1660.15625	5.44496	-3.55126	-0.69045	-8.81165
1664.06250	4.89648	0.51612	1.72946	-4.78795
1667.96875	0.72382	-2.39588	0.92590	-13.65803
1671.87500	1.05845	-2.49602	-0.68357	-14.06668
1675.78125	-0.45875	-3.54128	1.33337	-12.86356
1679.68750	1.39630	-6.68641	5.76790	-9.64577
1683.59375	-0.29758	-7.47207	4.56140	-7.23379
1687.50000	-5.15416	-2.43928	2.54906	-6.03066
1691.40625	-1.17417	1.02812	3.76016	-5.23033
1695.31250	3.91767	2.47455	6.98589	-2.81837
1699.21875	11.90716	13.13790	10.61456	8.86102
1703.12500	19.91385	19.20131	14.64623	18.12281
1707.03125	21.16256	16.46898	21.09533	13.28208
1710.93750	23.13883	13.41648	19.88880	9.65010
1714.84375	25.62789	10.49105	17.87644	10.45034
1718.75000	17.23279	9.18009	17.47584	9.23601
1722.65625	16.38017	9.61864	18.28400	17.28903
1726.56250	15.61368	12.42475	17.07751	21.31273
1730.46875	14.36110	12.51032	12.24465	18.08364
1734.37500	14.29812	10.43579	12.64982	21.30145
1738.28125	9.31287	10.04639	13.45801	15.25192
1742.18750	6.83719	9.30903	12.25150	10.81406
1746.09375	7.61973	8.79813	15.07428	15.64352
1750.00000	7.94797	7.98203	16.28540	8.38511
1753.90625	3.76596	3.92176	14.67604	0.72384
1757.81250	0.23140	0.42443	11.85781	-1.29641
1761.71875	-3.47195	2.55641	5.81617	-1.30198
1765.62500	-6.43901	3.57465	6.62433	3.52757
1769.53125	-5.77202	-0.16652	11.46184	5.93950
1773.43750	-1.14103	-2.19994	14.28461	2.71036
1777.34375	-3.56889	-1.55535	12.27225	-1.32459
1781.25000	-9.30416	1.04333	10.25988	-2.13617
1785.15625	-3.18489	3.60363	13.08267	5.11090
1789.06250	-0.20506	4.58703	13.08499	6.31395
1792.96875	-8.89159	2.54870	7.84926	-1.75029
1796.87500	-8.13652	1.28609	5.83696	0.25872
1800.78125	-5.41681	-0.87319	7.85390	5.08832
1804.68750	-3.56198	-2.80041	6.24448	-2.17006
1808.59375	-3.55455	-0.31997	5.44087	-5.39904
1812.50000	-8.21047	-1.97723	3.83148	-11.44869
1816.40625	-7.03121	0.08330	3.02794	-10.64843
1820.31250	-7.92470	0.83367	5.44779	0.62799
1824.21875	-6.35395	-2.74509	4.64427	-2.60112
1828.12500	-1.71581	4.05170	5.04958	-4.62148
1832.03125	-5.55098	6.78835	8.27538	-1.40374
1835.93750	-9.52681	3.29800	7.47188	-2.21534
1839.84375	-11.58810	-0.28489	4.65364	-5.44440
1843.75000	-11.15005	-2.27534	5.46183	-6.25593
1847.65625	-5.56437	2.79501	7.47887	0.18532
1851.56250	-1.72461	1.85138	3.45182	-3.04379
1855.46875	-5.15455	-1.96349	1.03661	-7.07871
1859.37500	-1.49784	-2.21615	3.05361	-3.86088
1863.28125	2.20412	-0.98966	4.26479	-5.07531
1867.18750	-4.61932	1.14904	7.08764	2.17179
1871.09375	-7.21171	1.74872	11.11925	2.56907
1875.00000	-3.18928	2.02813	6.68930	-0.25714
1878.90625	-3.84486	-0.52992	2.66232	0.94583
1882.81250	-4.96547	-3.72504	3.87345	-3.49209
1886.71875	0.72202	-2.90027	6.69629	-1.08022
1890.62500	2.56275	-0.36737	5.89281	0.92871
1894.53125	3.61369	-0.84348	3.07467	-3.10630
1898.43750	6.35030	-1.67443	2.67405	-5.93249
1902.34375	5.22279	-0.81286	3.48221	-2.71477
1906.25000	3.61544	0.31809	3.08163	-4.33229
1910.15625	-0.20631	0.34081	3.48682	-5.94977
1914.06250	-4.09437	-3.32430	8.72721	2.50600
1917.96875	-5.56695	-5.65110	9.13247	-0.72313
1921.87500	-9.93525	-5.95472	5.50837	-5.16106
1925.78125	-10.03409	-4.50735	7.92829	-2.34630
1929.68750	-4.64067	-0.96009	6.31893	-2.75490
1933.59375	-4.96576	-1.78685	4.30659	-0.34302
1937.50000	-8.57503	-2.38820	2.69712	-0.34878
1941.40625	-8.12707	-2.22992	-0.12110	-8.01025
1945.31250	-3.95600	-0.85671	5.11928	-7.21016
1949.21875	-5.50289	-2.65643	7.94205	-1.57487
1953.12500	-3.84358	-3.07952	5.12384	-6.81871
1957.03125	-3.08194	-0.34805	2.70858	-13.67429
1960.93750	-8.28612	-2.13152	3.51680	-11.26250
1964.84375	-3.92979	-4.44500	5.93674	-6.83614
1968.75000	-1.98606	-4.74652	6.74488	1.61945
1972.65625	-3.55550	0.05224	4.73255	4.43396
1976.56250	0.42995	6.10975	3.92905	4.42792
1980.46875	-4.36613	3.20287	9.57245	6.43641
1984.37500	-13.57523	-1.57324	7.96303	-5.65772
1988.28125	-9.40070	-2.39345	4.33898	-3.24652
1992.18750	1.12860	1.56655	5.95296	3.59683
1996.09375	-9.32928	3.68842	3.53766	-14.94439
2000.00000	-17.31812	0.07157	0.71950	-25.02407
2003.90625	-6.69435	-0.70417	0.72180	-21.40417
2007.81250	-1.95607	0.37479	2.33584	-18.99315
2011.71875	-5.10760	1.46540	2.33811	-17.38791
2015.62500	-8.99545	3.66982	1.93740	-12.55925
2019.53125	-6.84699	4.99257	1.53668	-4.91002
2023.43750	-7.45371	2.59303	-0.07277	-4.91649
2027.34375	-5.83676	-2.48452	0.73533	-6.53464
2031.25000	4.72869	-0.24873	5.16986	-5.73507
2035.15625	7.87192	6.45754	4.76923	-8.56194
2039.06250	7.70777	7.48809	1.14521	-7.35939
2042.96875	2.68995	2.27289	0.34166	5.52818
2046.87500	1.52734	3.53479	0.34393	9.55133
2050.78125	3.23518	5.29034	-0.05674	3.90423
2054.68750	2.58471	-0.84181	0.75142	1.48072
2058.59375	7.00504	-3.32319	3.57425	-1.34580
2062.50000	9.23902	-0.05504	8.41179	0.66290
2066.40625	1.60849	2.31584	10.02583	-2.16343
2070.31250	-0.72585	1.56461	8.41646	-4.58680
2074.21875	1.72836	-1.70728	4.38949	-7.41304
2078.12500	3.93581	-0.84929	1.97424	-9.83628
2082.03125	6.15512	4.47175	3.99123	-2.99202
2085.93750	-0.34946	2.32026	4.39650	0.22585
2089.84375	2.51351	-2.96219	6.01052	0.62320
2093.75000	5.69781	-1.37552	4.40120	-0.18818
2097.65625	-0.29481	-0.80571	0.37429	-7.44643
2101.56250	-0.10944	0.13701	3.19714	-7.85484
2105.46875	-1.11577	-2.09295	6.42291	-8.26336
2109.37500	0.46149	-5.06464	5.61933	-10.68655
2113.28125	2.79946	-2.66563	1.59239	-13.10967
2117.18750	-2.46908	-4.40217	-2.83744	-12.71231
2121.09375	-7.93927	-7.01732	-0.82043	-9.49436
2125.00000	-6.72754	-2.46247	3.21122	-10.70859
2128.90625	-1.64361	0.90056	4.01945	-8.69931
2132.81250	-0.92977	-2.35201	2.81304	-10.31638
2136.71875	-4.20362	-3.98348	2.41253	-13.54524
2140.62500	-6.45128	-3.29377	2.01197	-11.93895
2144.53125	-5.49158	-3.62438	-1.20909	-6.70623
2148.43750	-7.82922	-1.58545	0.40500	-5.09990
2152.34375	-8.31739	-2.04488	0.40734	-3.09073
2156.25000	-5.10233	-3.57950	-2.41088	-5.11091
2160.15625	-2.49335	0.02337	0.00908	-7.93690
2164.06250	-8.27953	-2.75914	2.42906	-3.91309
2167.96875	-11.24311	-7.68585	3.23727	-4.72452
2171.87500	-8.08746	-8.59184	1.22496	-5.53580
2175.78125	-10.00723	-7.62249	-2.39908	-9.57048
2179.68750	-12.98719	-4.72363	-1.99376	-13.60528
2183.59375	-9.84563	-3.89756	-1.99143	-6.35815
2187.50000	-3.82283	0.32938	-1.98912	-3.94617
2191.40625	0.96309	4.60256	0.43080	-2.74306
2195.31250	1.22010	2.82564	-0.37281	1.28060
2199.21875	-8.51914	-1.41932	0.03247	-3.15739
2203.12500	-8.97372	-5.02627	1.64650	-6.38657
2207.03125	0.73669	-6.54976	-2.78336	-5.18347
2210.93750	-0.10724	-6.37874	-5.60156	-2.77160
2214.84375	-8.09425	-4.87198	-2.37577	-2.77725
2218.75000	-10.04230	-0.94480	-2.37346	0.44057
2222.65625	-5.25377	-2.11794	-3.98286	1.64380
2226.56250	0.82961	-1.72938	-0.35423	-3.59987
2230.46875	3.20347	2.38562	4.88618	-1.18784
2234.37500	-4.91801	1.51992	6.50028	-5.22274
2238.28125	-11.11189	-1.28705	3.68206	-13.28697
2242.18750	-9.55814	-7.26247	-0.34492	-15.30729
2246.09375	-5.95494	-8.98216	0.46332	-17.32770
2250.00000	-4.82070	-7.38075	0.46566	-15.72157
2253.90625	-9.40547	-8.21749	-1.54671	-10.89204
2257.81250	-12.93991	-11.71489	-0.33560	-4.04782
2261.71875	-11.00209	-14.82097	1.27847	-5.26223
2265.62500	-11.14844	-10.98217	1.68370	-9.70008
2269.53125	-9.67533	-6.66461	3.70068	-7.28806
2273.43750	-5.04416	-8.69807	3.30014	-5.27897
2277.34375	-8.27765	-7.65054	2.49664	-9.31390
2281.25000	-9.17759	-3.84301	2.09602	-6.09610
2285.15625	-1.44651	-1.68555	-1.12511	0.74808
2289.06250	-5.31641	-4.73140	-0.71985	-11.74844
2292.96875	-11.98835	-8.78444	-0.31463	-23.43919
2296.87500	-11.63626	-12.46476	-2.32693	-15.78922
2300.78125	-10.12519	-10.59472	2.51061	-5.31869
2304.68750	-7.06157	-5.67220	4.93049	-2.90681
2308.59375	-5.44241	-5.20632	-0.70813	-10.56813
2312.50000	-5.66619	-2.83431	0.90590	-13.39431
2316.40625	-0.86053	0.03217	3.72870	-5.34137
2320.31250	-0.54524	1.58842	3.73100	-8.97342
2324.21875	-5.82421	0.83018	2.92750	-15.82885
2328.12500	-5.21532	-1.23741	1.72110	-8.98467
2332.03125	-1.39486	-0.91825	1.32058	-0.12581
2335.93750	-2.55011	-1.18513	2.53173	3.89783
2339.84375	-1.38785	-0.73872	4.95163	5.90681
2343.75000	3.48254	1.70308	4.14812	4.69233
2347.65625	3.83012	1.53535	2.53871	-2.16307
2351.56250	-0.79152	-4.24336	0.52639	-4.98921
2355.46875	-5.83318	-2.01430	-0.27717	-3.38305
2359.37500	-3.78810	2.16527	0.93398	-4.19450
2363.28125	-1.29482	-4.26389	-1.48127	-3.39435
2367.18750	-2.88010	-8.57205	-3.09061	-9.44404
2371.09375	-2.65194	-4.74892	-0.67064	-6.62924
2375.00000	-5.47936	1.17159	3.36104	4.24425
2378.90625	-10.56716	-1.38635	-1.06881	-0.99952
2382.81250	-8.86720	-3.77549	-1.46942	-1.81106
2386.71875	-3.58254	-6.57705	2.96517	2.21268
2390.62500	-4.96514	-8.07340	0.14702	-2.22509
2394.53125	-4.31700	-2.10260	0.55230	-2.63368
2398.43750	-4.40079	-0.91887	2.97216	-3.04236
2402.34375	-3.11073	-3.68361	2.16864	-4.25682
2406.25000	-2.70335	-4.16442	0.96217	3.79609
2410.15625	-2.89867	-2.93287	-0.24430	5.40212
2414.06250	2.07791	-4.58330	0.16099	6.20236
2417.96875	4.63470	-5.70128	0.96919	7.00253
2421.87500	3.89281	-3.99020	1.77739	1.75878
2425.78125	-1.84689	-4.15445	0.97387	-5.90258
2429.68750	-5.31784	-5.03941	-0.63549	-13.16102
2433.59375	-3.22531	-5.46326	2.59027	-13.16671
2437.50000	-6.02859	-0.02054	2.18964	-11.15768
2441.40625	-4.37166	2.15248	-1.83733	-8.34282
2445.31250	-1.00628	-2.92103	-1.02916	-1.90179
2449.21875	0.26752	-4.31779	-1.02682	-1.90753
2453.12500	0.71826	-1.92023	-4.24792	-11.18064
2457.03125	-4.96691	-2.81499	-3.03678	-20.45379
2460.93750	-4.52988	-3.79259	-2.22861	-20.86242
2464.84375	0.63250	1.14684	-5.44975	-13.61546
2468.75000	-7.49669	1.65118	-4.64156	-10.80075
2472.65625	-14.30389	2.01782	-0.60999	-16.44761
2476.56250	-7.09458	3.64321	-0.20482	-13.63287
2480.46875	-3.42857	-1.27831	-0.60542	-7.59470
2484.37500	-4.17550	-2.83087	1.41153	-12.43567
2488.28125	-1.20901	-2.03928	1.01091	-8.41205
2492.18750	2.06848	-1.30258	1.41620	2.86422
2496.09375	-0.73286	-2.40414	-0.59613	-3.99144
2500.00000	-5.09458	-3.60331	-1.39970	-8.42937
2503.90625	-0.11096	-3.57308	-1.39738	0.83230
2507.81250	1.00186	-3.29985	0.21667	-1.18808
2511.71875	-2.95466	-1.80622	3.03944	-6.43195
2515.62500	-4.02117	-2.01937	-1.79341	-11.67583
2519.53125	-3.48354	-1.09945	-1.79109	-10.87571
2523.43750	-7.71577	-0.67842	3.85220	-6.44911
2527.34375	-13.35075	-2.12954	5.46624	-11.69297
2531.25000	-12.45485	-1.10254	3.05096	-12.90755
2535.15625	-13.74306	-0.84303	1.84448	-14.92792
2539.06250	-16.72700	-5.05056	1.04091	-22.99232
2542.96875	-10.05921	-5.43058	-1.77731	-18.56594
2546.87500	-4.77435	-3.76566	-2.98386	-17.76588
2550.78125	-5.48364	-2.81588	-0.96697	-22.60684
2554.68750	-3.71627	-0.08351	1.85579	-22.20973
2558.59375	2.71905	2.67334	0.24640	-23.42433
2562.50000	5.35624	0.70356	0.24871	-27.05647
2566.40625	0.94945	-4.17823	-0.55483	-26.25624
2570.31250	1.43598	-3.72049	-2.16429	-11.75640
2574.21875	0.66699	0.66339	-0.55025	2.34040
2578.12500	-3.57237	-2.50782	0.25787	-2.09765
2582.03125	-4.97932	-4.84231	2.27479	-6.13272
2585.93750	-6.64866	-1.75566	3.08292	-7.75014
2589.84375	-7.41202	-0.99402	2.27936	-8.56163
2593.75000	-5.03361	-4.24242	-0.53886	-7.76146
2597.65625	-5.38534	-8.10468	-4.16296	-12.19943
2601.56250	-1.57357	-8.37061	-1.74304	-9.78746
2605.46875	5.88174	-5.36234	2.28855	-2.13748
2609.37500	0.60927	-5.91628	1.88786	-2.14318
2613.28125	-0.27623	-4.72597	-0.52740	-7.38696
2617.18750	8.96081	-3.23894	-0.92803	-4.57205
2621.09375	3.89348	-4.24218	2.29773	-3.36899
2625.00000	-11.81801	-2.91063	2.30003	-11.43332
2628.90625	-15.19574	-4.38266	-2.12992	-14.25957
2632.81250	-15.69102	-7.63512	-3.73931	-18.69765
2636.71875	-14.53269	-6.04303	-0.51358	-19.91220
2640.62500	-7.51290	-1.32392	2.71218	-17.90308
2644.53125	-0.91216	1.97195	1.90858	-16.69979
2648.43750	4.40576	0.78752	2.71681	-13.88482
2652.34375	8.75273	1.13406	3.92791	-8.65230
2656.25000	4.71503	6.44934	1.10975	-2.21109
2660.15625	2.48893	6.42589	-2.11136	-1.00785
2664.06250	0.73214	0.01709	-2.51192	-5.84849
2667.96875	-1.02252	1.53737	-0.49495	-10.28618
2671.87500	-0.28432	3.85497	0.71621	-15.93258
2675.78125	-0.18927	2.80981	1.52444	-20.77325
2679.68750	-0.75140	1.67950	1.12384	-14.73480
2683.59375	2.79318	3.71440	2.73791	-6.68172
2687.50000	7.20434	3.50917	3.14314	-2.65804
2691.40625	10.78159	-2.29074	2.33962	3.38025
2695.31250	11.84442	-3.26179	2.34189	4.98624
2699.21875	9.35799	-0.65696	2.74710	1.35418
2703.12500	5.67990	-1.44340	3.15231	-0.26330
2707.03125	6.12305	-2.56390	1.54292	-5.91001
2710.93750	5.68212	-1.98993	0.73936	-10.75084
2714.84375	-1.90183	-0.08018	2.35334	-9.54768
2718.75000	-3.04396	1.42948	3.56441	-3.10649
2722.65625	-2.68758	-0.14660	1.55206	-3.11216
2726.56250	-7.88611	-3.38436	3.16605	-6.34124
2730.46875	-7.52681	-5.71622	6.39178	-7.15276
2734.37500	0.87189	-6.58193	4.37940	-9.97898
2738.28125	3.13962	-2.94193	5.18753	-5.14956
2742.18750	0.66407	-0.05288	3.98100	-2.33481
2746.09375	1.84974	-2.98126	-2.06071	-5.16113
2750.00000	-2.25408	-7.02086	-1.65550	-7.18157
2753.90625	-3.61532	-6.64882	2.37605	-4.36681
2757.81250	-2.71736	-5.31090	1.97536	2.47738
2761.71875	4.45865	-1.56705	7.61869	4.08338
2765.62500	11.96798	-1.35451	8.82976	3.27177
2769.53125	-0.66152	-7.11015	0.77342	-7.21016
2773.43750	-7.71536	-7.53179	-1.23904	-17.28913
2777.34375	-4.90481	-6.88714	-0.43089	-12.05675
2781.25000	-6.20763	-7.51185	-2.04043	-6.01846
2785.15625	-2.10290	-5.35444	-0.42645	-1.99481
2789.06250	0.47421	-1.55056	-1.63302	-5.22390
2792.96875	-4.18295	-0.76828	-3.24256	-10.46765
2796.87500	-4.63658	-0.41917	-2.03152	-9.26462
2800.78125	-5.14004	2.25682	-0.82051	-9.67336
2804.68750	-10.13493	4.35901	3.21099	-10.48497
2808.59375	-12.14191	4.01911	2.00440	-9.68490
2812.50000	-12.36544	-3.68197	-1.61971	-11.30237
2816.40625	-11.58888	-12.09745	-2.42332	-12.91986
2820.31250	-7.64702	-5.30302	-1.21238	-15.34310
2824.21875	-1.24083	4.81796	-0.00139	-19.78103
2828.12500	-1.03469	2.75047	2.41843	-20.59256
2832.03125	-6.07835	-2.16839	3.62945	-16.97190
2835.93750	-10.05380	-3.24109	0.40823	-16.57460
2839.84375	-12.51767	-3.60038	0.81339	-18.19198
2843.75000	-10.46750	-3.97891	2.42728	-19.80930
2847.65625	-6.49327	-2.13186	-0.79400	-16.59148
2851.56250	-2.65319	-1.46363	-1.19476	-10.55309
2855.46875	1.17003	-2.05496	1.62800	-5.72333
2859.37500	0.79802	-7.14267	4.85365	-2.50516
2863.28125	-2.34930	-9.94533	4.85585	-4.52511
2867.18750	0.09531	-5.38896	4.85807	-9.76844
2871.09375	3.95055	-0.75987	2.84563	-15.81749
2875.00000	3.54149	1.13146	3.25072	-9.77859
2878.90625	-3.15731	-1.02346	3.25291	-3.33673
2882.81250	-6.29182	-1.80088	-1.57999	-6.16216
2886.71875	1.41124	-0.17011	2.85451	-2.54070
2890.62500	5.26760	-1.66630	9.70656	-1.73970
2894.53125	-2.14197	-4.96275	6.08240	-6.98274
2898.43750	-6.25415	-4.18194	0.84658	-6.58479
2902.34375	3.49842	-1.70853	0.44586	-2.15743
2906.25000	-0.12267	-0.57755	4.47742	-7.80335
2910.15625	-15.22562	-4.98694	4.07671	-16.67271
2914.06250	-6.21906	-5.02557	4.48193	-7.81319
2917.96875	-1.64688	-0.50261	6.90184	-11.44448
2921.87500	-5.61145	0.80564	5.69532	-22.73158
2925.78125	-5.70948	-0.16450	5.29461	-15.48392
2929.68750	-3.94166	-1.04945	6.90860	-8.23626
2933.59375	4.19550	-1.47333	8.52250	-0.18278
2937.50000	10.25728	-0.46286	11.34523	8.67657
2941.40625	11.18319	-1.48991	11.75042	7.14486
2945.31250	7.59199	-2.84614	11.75266	-2.02872
2949.21875	0.74422	-1.08009	9.74026	-8.62814
2953.12500	-4.38110	-2.03785	8.93661	-9.90269
2957.03125	-10.36188	0.26262	8.53583	-6.57726
2960.93750	-7.09655	0.20368	6.92634	-4.16962
2964.84375	-2.03575	-4.42311	7.73437	-4.01857
2968.75000	-3.79394	0.06797	6.52774	-5.39140
2972.65625	-3.70044	0.70462	4.91825	-7.13392
2976.56250	-2.42460	-1.74619	2.90582	-8.67545
2980.46875	0.45944	5.11856	4.51973	-2.19473
2984.37500	0.02127	5.69575	6.13361	-0.37128
2988.28125	1.28911	2.43443	5.32994	-6.18014
2992.18750	3.79650	2.23409	9.36141	-6.77719
2996.09375	-0.50515	1.06795	6.54311	-6.74535
