 	TP9	AF7	AF8	TP10	
-1000.00000	2.71823	0.21849	0.58633	6.10631
-996.09375	2.71806	3.44115	2.60034	0.31745
-992.18750	0.70321	2.63450	-5.05599	-2.09336
-988.28125	3.52351	1.42498	-2.23620	10.41838
-984.37500	-4.13238	-8.24620	3.40411	11.35444
-980.46875	-11.38530	-14.69388	3.80635	7.11183
-976.56250	-9.37086	-9.45659	-0.22370	10.60438
-972.65625	-10.98278	-10.26333	-7.07419	4.02631
-968.75000	-7.35668	-7.44369	-0.22507	2.60011
-964.84375	-2.11880	-3.01220	7.42998	3.38208
-960.93750	-2.52192	-8.25103	2.99707	3.70633
-957.03125	-3.32812	-5.02834	1.38471	10.79848
-953.12500	1.10385	3.02953	1.38402	13.33530
-949.21875	-0.50813	0.20825	-3.04891	6.06061
-945.31250	-1.31434	-8.65714	-4.25839	-0.12596
-941.40625	11.57915	-8.25510	-3.85610	5.96672
-937.50000	16.81692	-6.64436	-7.48321	8.55964
-933.59375	17.21961	-4.22765	-4.66338	9.31213
-929.68750	19.23410	1.41261	-0.23188	14.75042
-925.78125	23.26326	4.23229	1.78212	14.93013
-921.87500	29.30704	5.03730	1.37846	15.10536
-917.96875	28.09807	3.02186	-1.84566	13.56350
-914.06250	22.85984	2.61810	0.16830	14.52135
-910.15625	19.63622	1.00552	1.77931	18.59171
-906.25000	18.02434	-1.01001	-1.84782	13.08929
-902.34375	13.18904	-0.60794	-3.46021	5.33728
-898.43750	7.14500	-0.60876	-2.25218	6.47396
-894.53125	3.11558	-2.22131	-1.04401	8.41346
-890.62500	1.90662	-1.81922	-2.25344	6.70047
-886.71875	1.90648	1.80635	-5.47750	4.82411
-882.81250	-2.52587	8.65545	-7.49282	4.86997
-878.90625	-0.10851	15.50442	1.37108	9.45775
-875.00000	0.69715	13.48893	9.02614	12.34583
-871.09375	-8.97348	2.20603	2.17560	3.24849
-867.18750	-10.98843	-2.63010	-1.85441	-0.60227
-863.28125	-1.72134	1.80123	-0.24341	4.03453
-859.37500	2.71061	0.99451	-3.46742	3.58226
-855.46875	0.69563	-10.69135	-14.34721	-0.27327
-851.56250	-0.91642	-13.51264	-13.54199	0.57613
-847.65625	8.35071	-3.03728	-2.66345	6.07269
-843.75000	15.20022	-1.42650	0.55938	5.65159
-839.84375	8.75296	0.99016	3.78216	2.95464
-835.93750	10.76730	4.61557	4.58736	4.00179
-832.03125	22.85490	3.80880	3.78090	16.00585
-828.12500	22.85462	5.82250	4.58616	20.81461
-824.21875	-1.72436	0.58349	4.18261	-0.75470
-820.31250	-19.05063	-3.04374	2.57028	-14.58069
-816.40625	-19.45391	-1.03001	3.77845	-15.92351
-812.50000	-19.85719	1.38666	3.37483	-20.57396
-808.59375	-27.91602	-1.03179	-1.46098	-30.52009
-804.68750	-32.75129	2.59374	0.15007	-34.92862
-800.78125	-35.97485	9.44277	4.98462	-36.12555
-796.87500	-46.85413	5.81554	1.35772	-44.73424
-792.96875	-48.06303	-0.22927	-3.07517	-43.08484
-789.06250	-38.79580	4.60498	0.14762	-32.29598
-785.15625	-36.37844	7.42459	0.54998	-29.17958
-781.25000	-42.42257	2.58842	-0.25655	-31.85907
-777.34375	-50.07842	-13.12674	-3.07764	-37.29791
-773.43750	-44.84051	-16.35094	-1.06359	-30.17276
-769.53125	-35.17036	-0.23459	3.36801	-16.75255
-765.62500	-18.24742	7.01729	7.79963	-7.28282
-761.71875	-16.23298	1.37539	4.17260	-9.43322
-757.81250	-24.29179	-2.65489	-5.49833	-21.00894
-753.90625	-19.85977	-0.23816	-1.46967	-21.32524
-750.00000	-17.44235	2.17856	4.17070	-10.89122
-746.09375	-15.83090	3.78932	-3.08268	-10.34034
-742.18750	-9.78719	2.98251	-2.27750	-11.95875
-738.28125	-3.74357	4.99619	4.16876	-6.74154
-734.37500	-8.17612	2.98059	-1.87583	-8.88639
-730.46875	-6.16174	0.56205	-3.08531	-9.47889
-726.56250	-3.74441	-1.85643	-2.28014	-7.73322
-722.65625	-2.93879	-1.45445	4.97191	-6.39321
-718.75000	-3.74485	-2.66416	8.19462	-8.99628
-714.84375	-2.93924	-2.26217	3.76169	-8.56946
-710.93750	1.49278	0.15449	1.34341	-5.26726
-707.03125	1.08964	3.77993	-1.47772	-3.89778
-703.12500	-4.14867	3.37613	-1.47840	-1.59936
-699.21875	-3.74595	2.16645	1.74435	-1.98034
-695.31250	0.28309	4.18022	-1.88275	-3.04663
-691.40625	-3.34352	1.35882	-4.30105	-3.90116
-687.50000	-2.53779	2.56665	1.74228	1.56453
-683.59375	-1.32925	3.37166	2.95033	3.63263
-679.68750	-5.35872	2.56488	-1.07968	1.41787
-675.78125	-2.53830	4.17577	-0.67742	2.44710
-671.87500	-0.52379	-0.66033	-1.48399	-2.56318
-667.96875	-3.74737	-8.71979	-1.88762	-6.66222
-664.06250	-5.35931	-5.49720	6.17034	-6.00820
-660.15625	-4.15074	-2.27464	10.19897	-6.04926
-656.25000	-3.74802	-4.69313	8.58657	-2.96445
-652.34375	-2.53947	-1.06760	3.34773	-1.65937
-648.43750	5.92180	5.78135	-4.30866	1.23330
-644.53125	6.72750	2.96008	-4.71221	2.92020
-640.62500	3.50386	-1.87591	-0.28068	1.40981
-636.71875	2.29487	0.13782	-0.68429	3.28619
-632.81250	-6.97270	0.13692	-5.92313	1.22569
-628.90625	-8.58464	-0.26692	-6.32681	0.26440
-625.00000	-4.15259	-0.67073	-3.90994	1.00283
-621.09375	2.29410	0.53723	-2.29898	4.05623
-617.18750	4.71146	1.34229	-1.89674	5.08651
-613.28125	4.30824	5.37070	1.32601	8.10542
-609.37500	7.53142	6.57855	5.75755	7.75178
-605.46875	10.35170	6.17479	10.18904	2.74283
-601.56250	13.17198	10.20322	9.38251	5.51977
-597.65625	11.56006	12.21698	2.93493	8.48476
-593.75000	6.32178	5.76920	-2.30385	3.66774
-589.84375	10.35091	2.94785	5.35116	3.14127
-585.93750	10.75370	0.93238	10.58852	5.72041
-582.03125	5.51549	-5.11245	3.33504	5.40139
-578.12500	6.72416	-1.08406	4.54311	14.69525
-574.21875	9.14144	2.54142	4.13937	18.53565
-570.31250	9.54418	-2.69749	-0.29363	8.58881
-566.40625	9.14108	-4.30998	0.10862	5.09646
-562.50000	8.33506	-0.28152	3.33136	10.55278
-558.59375	2.69392	-3.10287	5.74828	8.00832
-554.68750	-5.36494	-3.10378	5.74763	5.16429
-550.78125	-6.17103	2.53626	7.35863	3.13788
-546.87500	-2.94773	2.13246	6.14917	-1.14710
-542.96875	-3.75373	3.74331	4.93975	-1.58759
-539.06250	-4.15694	5.35414	6.14790	1.72616
-535.15625	-4.15722	-3.51135	4.93839	2.23617
-531.25000	-7.38096	-4.31813	2.52014	-3.14289
-527.34375	-4.96362	1.72492	3.32526	1.49020
-523.43750	-0.12867	0.11234	0.10110	7.66187
-519.53125	5.10923	4.54364	4.12972	11.16493
-515.62500	10.75010	11.79552	10.97891	11.76868
-511.71875	8.33235	11.39171	4.93426	5.05484
-507.81250	5.51170	4.94382	-3.52789	2.52813
-503.90625	2.69107	0.10772	-2.72272	2.84463
-500.00000	0.67627	0.50970	2.11175	3.28989
-496.09375	5.91415	6.55275	6.14034	6.76853
-492.18750	9.54041	6.55187	5.33375	8.78999
-488.28125	3.49628	-1.91052	-3.53149	3.57295
-484.37500	1.07850	-9.16420	-1.51762	-0.72905
-480.46875	-2.14510	-7.95636	3.31682	-1.74810
-476.56250	-6.57742	2.11609	7.34540	6.98254
-472.65625	-4.16002	4.53279	10.16519	8.06020
-468.75000	-10.20417	-3.52669	4.12054	-1.42454
-464.84375	-9.80144	-4.33343	4.92570	1.77505
-460.93750	-9.39882	-4.33435	2.50746	1.69625
-457.03125	-8.59328	-3.12647	1.29797	-2.09075
-453.12500	-0.13205	1.30488	1.29725	-0.76286
-449.21875	2.68823	1.30396	0.89358	1.63280
-445.31250	4.70273	-1.51750	5.32514	6.72835
-441.40625	8.32895	-7.15937	3.71273	5.97126
-437.50000	8.32881	-5.95143	-1.12316	2.92326
-433.59375	12.76092	6.13558	-0.72091	8.51090
-429.68750	12.35780	13.38741	1.29297	7.90528
-425.78125	8.73130	8.14843	-4.75173	3.65276
-421.87500	8.73113	2.90943	-6.76711	1.41044
-417.96875	7.11917	2.10272	-1.93272	3.49496
-414.06250	10.74535	4.51941	1.69289	9.28792
-410.15625	13.56563	6.53316	0.08038	8.12024
-406.25000	4.70100	-1.52631	-1.93496	2.21499
-402.34375	-5.37258	-7.16821	-2.74152	-4.73123
-398.43750	-2.55225	-2.33401	1.28704	-2.38584
-394.53125	2.68571	4.51485	2.89806	5.19485
-390.62500	-1.34380	5.72268	-7.57879	1.87015
-386.71875	-2.14976	5.31880	-3.95314	-3.22951
-382.81250	2.68537	6.52659	7.32818	-1.57175
-378.90625	1.07353	3.30228	4.50700	-5.84836
-375.00000	1.87923	8.53942	4.90919	-4.97480
-371.09375	-1.34440	8.13542	3.69976	-6.41630
-367.18750	-5.37381	2.49341	-0.33022	-7.84930
-363.28125	-1.34462	4.10429	-1.13668	-7.64461
-359.37500	1.47580	5.71508	0.87731	-7.29087
-355.46875	2.68443	2.08781	2.08542	-9.53461
-351.56250	2.68429	-1.53952	-3.95924	-16.34068
-347.65625	4.69883	0.87714	-4.76582	-12.85862
-343.75000	-0.94235	1.27915	-1.14021	-13.68245
-339.84375	-2.95720	-0.33357	0.47075	-13.55882
-335.93750	0.26603	2.08309	0.87284	-4.45294
-332.03125	4.29518	4.90269	6.11019	2.71603
-328.12500	-0.94306	4.09594	6.10942	-3.75721
-324.21875	-6.58419	4.49795	3.28817	-7.59757
-320.31250	-2.95799	2.48245	5.30208	-5.30631
-316.40625	-4.97282	-3.96525	4.09255	-0.60501
-312.50000	-5.37597	-8.80136	2.88305	4.81789
-308.59375	-2.95854	-7.19055	5.29995	6.55673
-304.68750	2.27936	2.07590	12.55200	9.80391
-300.78125	1.47332	-1.14854	14.16297	4.17465
-296.87500	-2.15328	-7.59639	8.52129	3.62450
-292.96875	-4.97396	-7.19435	3.28252	7.69158
-289.06250	-11.42102	-8.80704	2.47594	1.96036
-285.15625	-6.58594	-3.16688	12.95144	2.65927
-281.25000	-5.78018	-4.37656	13.75659	1.99451
-277.34375	-8.19784	-8.00389	2.07082	-3.44432
-273.43750	-4.97450	-3.97547	2.87589	-3.97483
-269.53125	-6.98931	-2.76773	3.68100	-8.28353
-265.62500	-11.01875	-2.76876	0.05381	-12.51352
-261.71875	-10.61603	-0.35216	-1.15572	-9.82884
-257.81250	-10.61625	2.46737	-1.15644	-11.73425
-253.90625	-0.54320	6.09284	4.08092	-2.38029
-250.00000	10.73863	6.89774	6.90068	7.65067
-246.09375	1.47103	1.65871	5.28829	0.94876
-242.18750	0.26200	-3.58029	6.09341	0.53913
-238.28125	15.17026	-1.96942	9.71905	8.97974
-234.37500	16.78179	-1.16448	10.12115	10.05838
-230.46875	12.75233	-3.58297	2.46475	7.85411
-226.56250	15.97566	-3.18086	-0.75945	13.22617
-222.65625	19.60186	-1.97296	5.28372	18.19259
-218.75000	16.78122	-1.57098	10.11811	20.42468
-214.84375	7.91670	-0.76599	8.50568	17.62814
-210.93750	5.49900	0.84491	4.47564	12.06603
-207.03125	5.49887	-3.18527	1.65440	4.57101
-203.12500	6.70756	-1.57445	4.87706	3.24306
-199.21875	3.08099	-0.36657	4.87626	-1.57014
-195.31250	-2.56018	-2.38215	2.86077	-3.03930
-191.40625	-1.75444	-3.18891	4.47176	0.94134
-187.50000	-2.15753	-9.23383	2.85926	1.97487
-183.59375	-3.36650	-8.83188	3.66445	5.25177
-179.68750	-6.18718	-6.81814	6.88714	3.44001
-175.78125	-9.81370	-5.20735	5.67767	-3.18647
-171.87500	-2.56115	0.43268	7.28864	4.29414
-167.96875	2.27373	1.23768	9.30256	7.85076
-164.06250	-8.20269	-3.59844	5.67546	0.44606
-160.15625	-7.39709	-1.58472	6.88344	5.24005
-156.25000	-1.75629	2.84663	8.49445	9.93654
-152.34375	-6.59161	-7.63042	3.65857	-0.44323
-148.43750	-4.98007	-13.67524	2.04603	-6.41505
-144.53125	2.27249	-3.60287	5.26868	2.92750
-140.62500	0.25766	-1.99200	-0.77606	3.43177
-136.71875	-5.78639	-6.02212	-5.61203	-1.54172
-132.81250	-2.56306	-8.03767	0.43106	-0.78170
-128.90625	4.68951	-8.44151	5.66824	-0.53428
-125.00000	2.67464	-7.63667	6.47318	-1.81074
-121.09375	-1.35492	-8.84643	0.83129	-1.98080
-117.18750	6.70357	-2.80341	0.83047	5.09347
-113.28125	5.09166	-0.78965	4.45609	8.51536
-109.37500	-0.95232	-12.47543	0.02308	0.90918
-105.46875	3.88276	-10.86464	-1.18651	1.13840
-101.56250	6.30016	2.02819	2.03609	1.09476
-97.65625	4.28527	8.07120	1.63230	0.83613
-93.75000	-1.75886	5.24983	-1.99494	-1.96637
-89.84375	-3.77363	0.81672	-4.01038	-4.50762
-85.93750	-2.96791	0.81580	-1.99655	-1.52558
-82.03125	-2.16221	2.82947	-3.20615	-4.66510
-78.12500	-2.16232	2.02268	-5.22158	-4.63854
-74.21875	-6.19163	0.00717	-1.59599	-0.79802
-70.31250	-6.19160	-5.23177	1.22369	-2.68612
-66.40625	-0.55050	-3.62088	2.43174	-0.13442
-62.50000	3.07579	3.63097	3.23683	1.29269
-58.59375	4.28450	2.82413	1.62440	4.79210
-54.68750	6.70198	2.01731	1.62372	7.18617
-50.78125	7.10470	2.01635	1.62300	5.56280
-46.87500	6.70167	2.41832	-1.19835	2.08375
-42.96875	7.10439	2.41736	-2.00503	6.07554
-39.06250	3.88071	-6.44806	-1.60291	13.41867
-35.15625	3.88057	-7.25488	0.00796	11.91420
-31.25000	1.86580	2.01159	5.24526	9.35577
-27.34375	-5.38708	-1.21275	4.03571	3.91576
-23.43750	1.86554	2.41269	7.25838	6.86404
-19.53125	4.68594	8.05281	3.22826	6.33770
-15.62500	-0.55233	4.42545	-6.44289	0.49456
-11.71875	2.26795	2.81273	-0.39976	-0.17547
-7.81250	2.67069	1.60288	0.80824	-4.71695
-3.90625	-0.95588	-1.62156	-2.81890	-5.20635
0.00000	-2.16480	-6.05472	-2.01386	-5.16405
3.90625	-1.76195	-3.23517	-0.00001	-4.90885
7.81250	-0.55329	-3.23611	-3.62714	-2.48444
11.71875	12.74326	1.59809	0.80427	1.56590
15.62500	13.54895	6.02936	6.04156	4.51674
19.53125	-0.15090	-2.43317	-4.43549	-2.94931
23.43750	-1.76280	-4.44881	-6.04803	-1.87439
27.34375	-0.55420	-5.25565	-0.00485	5.65013
31.25000	0.25147	-7.27125	-5.64661	4.22404
35.15625	-0.15170	-0.42245	-5.24450	6.61783
39.06250	-4.98699	1.59120	-0.00715	2.91281
42.96875	-3.77831	-4.05076	-2.82838	-2.48581
46.87500	0.25080	-5.26056	-6.45555	-1.15772
50.78125	0.25071	-2.03807	-4.03875	-0.37365
54.68750	5.08581	-2.44193	-1.21909	3.91616
58.59375	4.68278	-7.27797	-8.47270	1.54732
62.50000	2.26496	-2.04080	-4.44424	2.12560
66.40625	2.66764	-3.65352	2.00180	0.46036
70.31250	-2.97371	-12.51891	-3.64002	-6.99534
74.21875	-9.82380	-7.28174	-8.47603	-4.80106
78.12500	-7.80944	2.79057	-10.08853	0.20914
82.03125	-1.76581	6.41598	-8.88058	-0.12412
85.93750	-0.55736	7.62387	-2.83754	-0.37526
89.84375	-0.96061	4.39952	-2.83841	2.88920
93.75000	7.09765	5.20447	4.01051	9.47464
97.65625	7.09736	5.20353	6.02431	8.16942
101.56250	-7.81122	-2.85607	-7.67618	-2.78192
105.46875	-11.43779	-8.90094	-2.43894	-4.46882
109.37500	-6.60280	-7.29009	3.60423	1.07084
113.28125	2.26141	2.78225	5.21507	5.64133
117.18750	8.70813	7.61650	4.81128	6.09009
121.09375	4.67865	0.36283	-6.47161	1.41037
125.00000	1.45501	-0.84685	-5.66655	-0.93966
128.90625	3.06659	2.77870	-2.04101	3.25979
132.81250	5.48410	2.77782	-2.84765	11.89992
136.71875	7.09567	2.37397	-1.23675	13.31326
140.62500	2.26040	-6.49136	-4.86388	0.37015
144.53125	-1.36613	-9.31276	-2.44710	1.75282
148.43750	2.26008	0.75953	3.99899	12.27264
152.34375	-1.76936	1.56441	-0.43411	3.66666
156.25000	-1.36662	-4.48045	-1.24078	-2.39530
160.15625	4.67716	-5.69017	1.98188	1.35475
164.06250	6.28861	0.35285	2.38401	4.81970
167.96875	5.48254	3.57540	0.36853	5.54176
171.87500	11.12330	5.18625	3.18822	6.32130
175.78125	7.89971	3.17063	5.20209	6.10736
179.68750	2.66140	-4.48605	5.20132	7.99563
183.59375	7.09337	-6.09870	0.76829	10.68224
187.50000	4.67565	-0.05570	-5.67937	6.03187
191.40625	3.06375	2.76380	-6.88899	2.53257
195.31250	1.85485	0.74820	-6.88978	-1.07006
199.21875	-2.17454	2.35900	-4.47307	-0.25241
203.12500	1.45173	3.56690	2.37593	8.86783
207.03125	7.49554	0.34252	6.40440	18.17295
210.93750	9.91300	-3.68770	1.56842	16.87390
214.84375	9.50995	-0.46521	-2.46178	13.54344
218.75000	8.30107	4.36895	-1.25383	8.84931
222.65625	4.67465	3.96507	2.77465	7.43984
226.56250	4.27166	4.77001	4.78852	11.74467
230.46875	6.68925	-0.87191	-1.25618	11.86836
234.37500	9.50965	-3.29045	-7.30094	9.25020
238.28125	11.12122	4.76711	-5.69000	6.69685
242.18750	5.88300	2.34855	-3.67611	4.79156
246.09375	5.07702	-4.09921	-4.07989	6.08700
250.00000	14.74723	3.55553	3.17198	14.50629
253.90625	10.31481	5.16636	3.97692	9.01307
257.81250	0.24143	-0.47561	-2.87375	4.17123
261.71875	-2.98214	-4.10286	-6.50096	4.55329
265.62500	-0.56460	-3.70086	-0.86069	5.63201
269.53125	3.46461	-3.29881	-0.05565	6.65133
273.43750	5.47912	-10.95549	-5.69749	-1.67623
277.34375	11.52299	-6.12122	-6.50419	-3.15656
281.25000	11.52296	4.35398	-7.71379	1.09030
285.15625	7.49360	6.36765	-6.10288	2.72606
289.06250	4.27007	6.76964	-5.29784	2.80494
292.96875	3.86706	4.35110	-3.28399	3.77167
296.87500	3.46417	-0.48499	-1.27015	0.42925
300.78125	2.65836	-0.88886	-2.47974	-1.16029
304.68750	5.88177	0.72198	-0.46586	3.41473
308.59375	10.71696	3.54151	1.14516	9.00730
312.50000	9.10515	-0.48877	-5.70535	6.41449
316.40625	7.09048	-6.13069	-11.75009	4.05059
320.31250	4.27002	-6.13160	-13.76551	4.65654
324.21875	6.28470	1.52312	-8.52822	12.53573
328.12500	-0.56515	1.11925	-10.14077	7.92849
332.03125	-8.62390	-5.32869	-16.18559	-3.02033
335.93750	-4.59465	-2.10630	-14.97772	-2.36626
339.84375	-0.56547	-3.31613	-11.75508	-4.01898
343.75000	-0.16269	-2.10832	-3.69719	2.69230
347.65625	-0.16278	0.30827	1.54015	7.22107
351.56250	-3.38626	-5.73659	-4.90757	-1.57109
355.46875	-2.58035	-2.51410	-7.72898	-3.91343
359.37500	-0.56575	2.32005	-5.31222	-2.60308
363.28125	-2.17755	-2.91899	-4.10425	-4.35292
367.18750	-3.78926	-7.35213	-2.09042	-0.36927
371.09375	-5.40104	-5.33845	-8.53817	-3.74804
375.00000	-2.98347	1.91335	-8.94192	-5.83003
378.90625	-4.19230	3.92706	-4.91350	-1.56771
382.81250	-1.77477	0.29968	-8.94372	1.88032
386.71875	5.47790	1.10462	-10.55633	6.10820
390.62500	5.07482	3.11831	-9.75128	9.38103
394.53125	3.06010	1.90858	-8.14030	12.02788
398.43750	-1.37220	-0.10701	-4.91768	9.16391
402.34375	-1.37230	0.69791	-2.50098	7.69672
406.25000	5.07453	3.51747	-4.91942	3.68559
410.15625	-0.96953	-2.93043	-8.54674	-3.69070
414.06250	-4.59599	-9.78120	-4.51829	-4.73783
417.96875	-0.56682	-5.34989	1.52488	-1.43053
421.87500	0.23882	-4.94797	3.13575	-1.40405
425.78125	1.44742	-6.15765	4.74664	-1.18995
429.68750	-0.56740	-0.92056	2.32823	-0.25769
433.59375	-7.01446	-1.32442	-9.35762	-11.00274
437.50000	-9.83508	-3.33999	-10.16429	-11.59040
441.40625	-6.61182	-1.32630	-7.74763	-3.25596
445.31250	-2.17982	-1.32731	-9.36018	0.74969
449.21875	-5.40338	-0.92539	-6.13754	1.14088
453.12500	-4.59762	0.28243	-4.92956	1.28811
457.03125	-0.97144	2.69904	-4.52756	4.87681
460.93750	-0.16575	2.29517	-4.93138	-0.67392
464.84375	-7.41868	-3.34675	-8.96158	-5.40188
468.75000	-10.64226	-8.18287	-7.35075	-3.52811
472.65625	-4.19541	-6.57196	-6.94865	2.31387
476.56250	-4.19549	-3.34943	-17.02287	1.63582
480.46875	-0.16627	-2.14156	-15.41198	-2.51681
484.37500	11.51870	-1.73955	-6.14544	9.77192
488.28125	7.89231	-4.15797	-5.74341	17.56349
492.18750	8.69805	-1.74137	-6.95313	16.24559
496.09375	22.80047	4.30162	-5.34233	23.81478
500.00000	26.02381	4.70360	-8.56668	24.26001
503.90625	22.39734	-0.13253	-6.14997	21.29172
507.81250	21.99426	-0.93940	-2.52450	21.29848
511.71875	23.60587	0.26848	-3.33120	22.93124
515.62500	26.02337	0.67053	-2.52621	27.49381
519.53125	24.81442	-0.13625	-2.52704	28.48943
523.43750	25.62011	-1.74898	-4.13959	27.14685
527.34375	26.02290	-1.74995	-6.15511	24.19526
531.25000	29.24620	-4.16840	-2.52961	23.97802
535.15625	33.67829	-2.96061	2.70764	26.77478
539.06250	28.84291	-1.34990	-4.14306	23.87553
542.96875	26.02229	-2.96266	-8.97907	14.85051
546.87500	27.23103	-2.96360	-5.75647	11.34355
550.78125	22.39582	1.06484	-3.33981	14.94814
554.68750	17.96357	2.67567	-4.95237	14.80573
558.59375	13.12842	1.06311	-8.17668	14.04883
562.50000	7.08448	-1.35542	-6.96877	14.62735
566.40625	3.05515	-9.81786	-10.99895	14.57421
570.31250	3.86101	-9.01286	-15.02919	14.77455
574.21875	6.68156	-5.38739	-6.97143	10.92509
578.12500	4.66686	-9.41761	-5.76350	7.47405
582.03125	6.27850	-11.83612	-8.98785	10.36458
585.93750	7.08426	-9.82241	-6.16828	14.94891
589.84375	3.86070	-7.80871	-5.76624	13.78142
593.75000	7.08412	-3.37739	-8.18473	15.12902
597.65625	12.32226	-0.96074	-8.99142	15.43591
601.56250	12.72520	0.24718	-6.57467	12.94642
605.46875	7.48704	-1.76835	-7.78427	11.25976
609.37500	3.05468	-7.41028	-11.41147	5.11460
613.28125	2.65164	-8.62002	-12.62118	4.04421
617.18750	5.87486	-7.00924	-14.23374	7.71655
621.09375	10.70985	-1.77210	-9.80241	10.28965
625.00000	11.91844	-2.17598	-5.37104	7.93956
628.90625	6.68017	-8.22092	-11.81883	2.06563
632.81250	5.06823	-1.77496	-11.81973	5.87048
636.71875	8.29152	2.65635	-9.80602	7.28363
640.62500	9.09728	0.23787	-11.41861	11.26361
644.53125	9.90315	3.05757	-9.00189	15.06378
648.43750	8.69430	-3.79315	-11.82334	11.48097
652.34375	9.90305	-7.82330	-8.60073	12.94834
656.25000	10.30586	-2.98903	-1.75171	11.31868
660.15625	7.48521	-3.39288	-1.75252	7.81600
664.06250	8.29096	-5.81146	-2.15624	9.66924
667.96875	10.30553	-4.60362	-2.15702	12.40606
671.87500	11.51421	-0.17233	0.25977	15.20016
675.78125	15.54338	1.03551	-4.57627	15.38912
679.68750	17.15508	-0.57720	-9.81522	13.65104
683.59375	13.12557	-2.59280	-4.57798	7.87597
687.50000	10.70780	-6.62307	2.27101	6.44892
691.40625	9.90187	-8.63871	1.86719	8.59071
695.31250	6.67838	-5.01337	-0.14833	5.39108
699.21875	7.88713	-4.20851	3.07427	2.98546
703.12500	8.29006	-6.62715	1.46174	3.64435
707.03125	10.70770	-3.80768	-0.55376	6.50283
710.93750	11.11065	-0.18234	-2.56919	7.62170
714.84375	8.29027	-1.39220	-3.77869	6.70912
718.75000	3.05227	0.21846	-0.55607	5.64168
722.65625	-5.40920	1.02337	-2.57154	-1.00560
726.56250	-4.60319	-0.58937	-3.78110	-7.57973
730.46875	-0.97672	-2.60496	1.05322	-3.02363
734.37500	-4.20011	-7.44106	-0.55939	-0.80648
738.28125	-4.60299	-7.84500	-3.38071	-2.15087
742.18750	5.87314	-6.23421	2.66241	3.59959
746.09375	9.90246	-8.24991	1.85573	4.49222
750.00000	6.67902	-7.04207	-4.99485	-0.38494
753.90625	4.66445	-0.99901	-2.57809	0.16611
757.81250	-2.18537	-2.61165	-2.98181	1.77125
761.71875	-6.61756	-4.62727	-1.37096	-1.07013
765.62500	-4.60288	-6.64291	2.65747	1.21735
769.53125	11.11141	-8.25565	2.25373	17.54803
773.43750	6.27635	-10.27124	-4.99984	10.42934
777.34375	-18.30230	-5.83992	-9.02995	-14.01805
781.25000	-25.55499	1.41189	-8.62785	-25.88839
785.15625	-27.16673	1.41090	-10.24040	-31.50535
789.06250	-32.80769	-1.00770	-8.22663	-35.05280
792.96875	-38.44866	-1.81444	-8.22743	-39.72709
796.87500	-40.46324	0.60230	-5.00477	-41.86068
800.78125	-36.43401	3.42184	-1.78216	-39.82393
804.68750	-36.83701	1.00327	-7.42407	-37.66650
808.59375	-33.61362	-1.81828	-13.87184	-34.49161
812.50000	-26.36095	-0.20753	-11.85808	-36.68159
816.40625	-27.16696	-2.62617	-6.21786	-36.62811
820.31250	-28.77873	-5.44770	-6.21866	-27.15779
824.21875	-20.72018	-4.23992	-3.39897	-16.05526
828.12500	-19.10843	-2.62922	-0.17632	-12.20102
832.03125	-18.70551	-3.03312	1.03166	-10.65893
835.93750	-14.67618	-4.64573	1.43378	-6.78138
839.84375	-11.04979	-3.03501	2.64163	-5.21068
843.75000	-11.85566	-3.43890	2.23784	-4.54339
847.65625	-9.03514	-1.42522	1.43114	0.38831
851.56250	-3.79702	5.02075	1.83317	1.26652
855.46875	-1.37947	7.03451	0.62352	-2.28461
859.37500	-1.78238	7.83944	-1.39199	-2.98908
863.28125	-9.43817	2.19741	-7.03383	-7.15660
867.18750	-11.45295	-3.04163	-6.63172	-12.03757
871.09375	-5.40907	-1.02787	2.63486	-10.58123
875.00000	-5.81206	-5.86395	8.67797	-9.43983
878.90625	-8.22979	-4.65614	6.66238	-9.60987
882.81250	-10.24452	-1.03083	1.82642	-8.98245
886.71875	-13.06510	1.78868	-4.62129	-9.18684
890.62500	-5.81244	4.20522	-7.44264	-7.92855
894.53125	-0.97738	8.23364	-4.22005	-6.08748
898.43750	-1.78332	7.42681	-1.40042	-5.72798
902.34375	-1.78342	-2.24440	1.82220	-2.76291
906.25000	-7.42460	-12.31868	-1.80492	-2.74475
910.15625	-5.00709	-12.31965	1.82060	-9.71808
914.06250	0.63387	-8.69418	5.04320	-7.54179
917.96875	-2.58971	-7.08347	-0.19574	-2.62266
921.87500	-3.79859	-0.63757	-1.80826	-6.62533
925.78125	-8.63383	3.39075	-1.40620	-10.84339
929.68750	-11.05138	3.79276	-3.01871	-12.32851
933.59375	-7.42498	4.19473	-0.19900	-8.97078
937.50000	-7.42497	4.19375	5.84412	-7.94650
941.40625	-10.64841	-1.44822	1.00816	-11.69971
945.31250	-8.23085	-4.26974	-1.81310	-13.73786
949.21875	-4.20169	-4.27082	-1.81388	-14.55539
953.12500	-3.39589	-5.48056	-3.42645	-7.15528
957.03125	-5.00760	-5.88438	-1.41265	-3.56638
960.93750	-2.18713	1.77044	0.19825	-0.25247
964.84375	-2.59005	5.39588	-4.23478	-0.95099
968.75000	-7.82818	0.55981	-4.23553	-5.12099
972.65625	-1.78430	6.19982	1.80760	0.31815
976.56250	-0.97854	4.99007	-0.61087	-0.76278
980.46875	-3.79911	-3.87545	-3.83512	-2.90072
984.37500	-4.60502	-3.87644	-4.64195	-5.11751
988.28125	-11.45486	-4.68323	-6.65747	-11.02548
992.18750	-9.84310	-7.90762	-5.04651	-3.88168
996.09375	-2.99343	-5.49102	-0.21223	2.88168
1000.00000	-0.17303	3.37241	3.01038	8.16211
1003.90625	0.63286	1.35677	0.59199	5.19391
1007.81250	-2.99355	-9.12043	3.00874	-4.06661
1011.71875	0.63284	-1.46570	3.81369	-3.23957
1015.62500	9.49727	13.44173	4.21569	4.14359
1019.53125	6.27383	9.00861	0.18546	1.91573
1023.43750	-5.81404	-5.90076	-10.29158	-11.91761
1027.34375	-9.84334	-8.31931	-12.71002	-14.86913
1031.25000	-10.24625	-7.51433	-3.44346	-8.23656
1035.15625	-11.45500	-5.50064	2.19673	-4.23091
1039.06250	-3.79925	3.36284	3.40465	-1.89192
1042.96875	-4.20220	6.18234	1.79200	-6.48469
1046.87500	-5.41103	0.13738	-3.04405	-9.18593
1050.78125	-1.78465	-4.69872	-1.83614	-9.20772
1054.68750	-2.59052	-3.89379	4.60981	-6.93258
1058.59375	-1.38176	-4.70050	7.42946	-8.89833
1062.50000	-3.79929	-2.28382	1.78754	-12.75204
1066.40625	-6.21691	-3.49357	-3.85425	-12.40232
1070.31250	-5.81393	-5.50913	-1.03452	-12.20200
1074.21875	-11.05195	-1.48076	-1.03534	-11.21621
1078.12500	-11.85779	2.54757	-1.43920	-9.02626
1082.03125	-7.02273	2.54657	2.18628	-6.53868
1085.93750	-5.00814	-1.08081	5.81172	-5.98369
1089.84375	-3.39642	-3.49926	5.40798	-5.53943
1093.75000	-2.59054	-0.67974	5.81000	-3.38605
1097.65625	-3.39655	1.73682	4.60030	-1.06478
1101.56250	-3.79956	-0.68181	2.18190	-4.76329
1105.46875	-2.99382	-6.72678	1.77809	-6.85302
1109.37500	1.84126	-13.17464	5.00068	-0.50729
1113.28125	4.25880	-5.11701	10.64085	1.24283
1117.18750	-1.38227	4.55239	8.62533	-3.14332
1121.09375	3.85580	6.16314	-0.24005	-2.18178
1125.00000	7.07916	8.17687	-1.04680	3.12391
1128.90625	-5.00879	4.95250	1.77279	-3.15277
1132.81250	-7.02343	3.33982	4.59243	-7.80927
1136.71875	-5.41178	4.14470	5.80033	-11.23106
1140.62500	-5.00890	2.93500	2.97894	-14.10076
1144.53125	-9.84413	-5.52746	-5.08052	-19.56785
1148.43750	-11.05302	-13.98990	-5.48430	-21.94165
1152.34375	-9.84433	-10.36450	-1.85870	-12.81852
1156.25000	-0.17412	-0.69517	0.96096	-6.79246
1160.15625	9.09327	0.51262	4.18358	-2.63934
1164.06250	7.88446	5.34680	6.60027	3.64623
1167.96875	5.06385	6.55464	3.37596	2.35376
1171.87500	3.45216	2.52437	3.37504	-2.91055
1175.78125	3.85504	2.12045	-0.25225	-3.52735
1179.68750	3.04920	5.34295	-7.10291	-4.86232
1183.59375	6.27270	7.35663	2.96951	-3.78727
1187.50000	4.25815	1.71470	8.60977	-0.37881
1191.40625	-3.80033	-3.12145	-2.67315	-7.50427
1195.31250	-0.97972	2.11568	-3.88272	-10.70372
1199.21875	2.24383	3.72645	2.96623	-7.46828
1203.12500	-0.57659	-3.12438	3.36831	-6.80937
1207.03125	2.24403	-3.12533	5.78501	-5.15960
1210.93750	3.45302	-0.30571	3.76954	-0.81738
1214.84375	1.84137	0.49913	-0.26061	-0.52133
1218.75000	3.05024	2.51274	5.37956	3.64909
1222.65625	-0.97898	-5.54684	1.34942	2.64260
1226.56250	-5.41119	-12.80056	-7.11299	-5.54343
1230.46875	0.22993	-3.93711	-1.87577	-6.22557
1234.37500	3.05054	3.31469	2.55556	2.84136
1238.28125	3.05065	6.53722	1.74881	9.95855
1242.18750	1.84192	4.92456	-0.66970	4.02408
1246.09375	3.45372	1.29712	-0.26761	-3.94784
1250.00000	1.84200	-4.34491	-3.89481	-6.81044
1253.90625	0.63329	-3.13724	2.55116	-5.05063
1257.81250	0.63331	-3.13827	8.59431	-4.65426
1261.71875	1.84207	-5.15389	4.96706	-4.67503
1265.62500	5.87135	-0.31971	4.96619	-0.37294
1269.53125	6.27428	3.70853	1.33894	0.64631
1273.43750	7.48309	4.91631	3.35270	4.80972
1277.34375	13.12405	8.54162	13.02211	9.77621
1281.25000	6.27425	2.49670	6.17141	-1.28826
1285.15625	-4.60479	-7.17452	-3.49987	-12.94918
1289.06250	-5.81356	-3.95192	-3.90371	-16.49664
1292.96875	-0.57548	-3.54988	-1.48713	-11.90364
1296.87500	1.03622	-1.93911	2.94416	-3.96409
1300.78125	-1.38142	-5.16347	3.34614	-1.12141
1304.68750	4.66242	-5.16440	7.37441	4.66231
1308.59375	8.28865	1.28154	9.38806	8.24004
1312.50000	-2.59052	-2.74872	1.73141	-2.81431
1316.40625	-8.23166	-5.97316	-1.89588	-7.19301
1320.31250	-0.97894	0.06985	1.32665	-3.36364
1324.21875	1.03573	0.47187	1.32573	-9.58712
1328.12500	3.45330	-0.73793	0.92181	-10.97094
1332.03125	7.07957	1.67869	3.74136	-7.81722
1335.93750	5.87066	-2.35159	1.32290	-15.22176
1339.84375	9.09397	-6.78480	0.51606	-13.65110
1343.75000	4.66171	-11.62087	-1.49951	-12.58083
1347.65625	3.04992	-5.57786	1.32009	-6.03746
1351.56250	2.24402	4.09149	2.93082	0.48174
1355.46875	-3.39708	3.68769	2.52688	-1.05477
1359.37500	-4.60589	0.86625	5.74937	-3.77390
1363.28125	-11.45582	-2.76114	1.31626	-10.76199
1367.18750	-9.03832	-1.95630	-5.13160	-12.82239
1371.09375	2.64657	1.66912	-9.16189	-14.99242
1375.00000	0.63184	-2.76408	-8.76001	-11.43353
1378.90625	-5.41223	-9.21193	-1.10531	-9.99185
1382.81250	-1.78582	-2.36301	9.36990	-7.75274
1386.71875	2.64647	5.69462	12.99524	2.92203
1390.62500	-2.59158	2.87315	6.14447	-1.05775
1394.53125	-2.99453	-3.17187	1.71125	-8.88711
1398.43750	1.43763	-1.96405	4.93371	-4.49835
1402.34375	2.24338	-3.97967	2.91805	-2.33919
1406.25000	0.63159	-5.59235	-1.11223	-0.30644
1410.15625	1.43733	-1.16116	1.70729	2.79344
1414.06250	5.06360	0.44959	7.34738	3.35805
1417.96875	2.24308	-3.98366	4.12299	-4.61655
1421.87500	-4.60674	-10.02863	-2.32488	-9.42512
1425.78125	-3.80088	-10.43256	-1.11708	-4.37565
1429.68750	-7.83012	-5.19538	2.50828	-2.63726
1433.59375	-8.23311	1.25059	6.13373	-3.30902
1437.50000	-4.60682	0.44380	6.13275	-6.71714
1441.40625	-7.02455	-3.98945	2.90827	-11.27641
1445.31250	-5.01006	-1.57286	3.71311	-8.47960
1449.21875	-3.39861	4.47006	2.50329	-5.26801
1453.12500	-2.59290	4.46903	4.11399	-3.50913
1457.03125	5.06257	2.45338	4.11296	-4.75571
1460.93750	1.43604	-2.78571	-4.75252	-9.50061
1464.84375	-5.41391	-5.20431	-9.99158	-8.58759
1468.75000	-3.39933	-0.77307	-0.32220	-3.08748
1472.65625	1.03290	3.25519	8.13838	-0.87187
1476.56250	-0.98165	1.23951	3.70518	-3.16158
1480.46875	-6.21965	-5.20842	-3.14556	-7.31409
1484.37500	-4.60784	-7.62701	-9.19047	-9.93370
1488.28125	-3.80193	-6.41923	-10.40025	-7.38005
1492.18750	-2.59308	1.63832	1.68663	1.77835
1496.09375	-1.38428	-1.98913	10.95295	-0.32260
1500.00000	-4.20466	-11.25754	10.95191	-9.54740
1503.90625	-1.38403	-6.02046	10.54804	-12.11253
1507.81250	0.22788	2.44012	12.96464	-3.64389
1511.71875	0.63100	4.05085	12.15789	4.83896
1515.62500	-0.57768	-1.99409	2.48662	-1.07442
1519.53125	-2.18941	-4.00978	3.29157	-6.52560
1523.43750	1.43699	-2.80204	6.91694	-1.42109
1527.34375	-0.57756	-0.78840	3.28962	-3.56656
1531.25000	-3.39799	-2.80405	0.06519	-9.82755
1535.15625	3.45199	0.82134	2.48176	-0.18077
1539.06250	-2.18892	-3.61194	0.46613	-4.69143
1542.96875	-9.03859	-9.65693	0.06227	-8.88112
1546.87500	-2.99450	-4.01694	4.49353	-9.16453
1550.78125	0.22916	-2.40618	2.88088	-18.05056
1554.68750	-0.57650	0.41333	1.26818	-14.96940
1558.59375	-3.79981	2.02408	0.86425	-9.27926
1562.50000	1.84134	0.41144	-0.74846	-3.05953
1566.40625	6.67665	-3.21593	-1.95816	2.52833
1570.31250	-0.57603	-7.64910	-5.18257	-2.91224
1574.21875	-0.17306	-0.80031	0.86041	-1.52364
1578.12500	1.43874	3.22803	4.88872	1.47225
1582.03125	2.64758	-1.60805	1.66431	-0.87526
1585.93750	0.23003	-4.02657	-1.96297	-8.78160
1589.84375	-5.41100	-5.63922	-4.78446	-12.76949
1593.75000	3.85643	-0.40210	2.06449	-6.18368
1597.65625	1.84183	-0.80606	4.07822	-9.50319
1601.56250	-2.59024	-7.65682	0.45088	-12.39558
1605.46875	1.43918	-6.44896	1.65876	-10.45572
1609.37500	3.05088	-3.22660	1.25488	-7.73625
1613.28125	6.67727	-0.00422	3.67141	2.07258
1617.18750	5.87141	-3.63155	3.26755	4.53629
1621.09375	4.25983	-5.24426	-1.56860	-0.14309
1625.00000	7.08046	0.39583	5.28031	3.95407
1628.90625	-0.17216	-4.84325	4.87642	1.30395
1632.81250	-9.84230	-8.06768	0.84616	-6.97873
1636.71875	-2.18646	0.79585	4.87450	-1.13282
1640.62500	4.26063	6.43585	8.49996	4.45919
1644.53125	-7.02128	0.79389	5.27558	-2.61941
1648.43750	-9.43869	-1.62464	-2.78399	-6.20188
1652.34375	-2.58862	-0.41676	-5.20247	-5.54005
1656.25000	-2.58851	-5.65579	-1.17416	-9.18423
1660.15625	-5.00607	-13.71545	0.43657	-11.88086
1664.06250	-7.42360	-13.71646	2.85319	-13.65393
1667.96875	-4.60297	-8.07642	4.46387	-13.33466
1671.87500	0.23219	1.59294	-1.58111	-9.33154
1675.78125	2.64982	7.23294	-1.17917	-3.90440
1679.68750	-0.97657	1.18795	-0.77728	-5.23939
1683.59375	-6.21469	-0.82779	-2.79293	-10.61126
1687.50000	0.63513	2.79752	-0.37636	-8.41160
1691.40625	4.26151	3.19939	1.23437	-2.64330
1695.31250	7.08206	-0.02505	1.63625	1.81287
1699.21875	9.90263	-4.05534	0.42641	2.63077
1703.12500	10.70852	-4.05632	-3.60389	0.46911
1707.03125	8.69399	-3.65434	-8.03715	2.92472
1710.93750	6.67950	-5.26709	-6.42643	2.02888
1714.84375	10.70896	-0.43290	-2.80108	-0.49549
1718.75000	7.88860	1.98362	-1.19032	-2.77180
1722.65625	2.24767	2.78850	-2.80308	-4.58413
1726.56250	3.85950	3.59330	-4.41578	0.12371
1730.46875	5.06844	-0.43701	-4.81975	1.45619
1734.37500	1.03925	2.38252	-0.38851	0.85286
1738.28125	5.87451	7.21667	4.84859	7.97005
1742.18750	7.08342	-3.26053	4.44467	5.25897
1746.09375	-0.16923	-11.72300	-2.00312	-6.74208
1750.00000	-4.19837	-3.66536	-2.00404	-2.35180
1753.90625	-2.98943	3.18349	-3.21373	2.22857
1757.81250	-5.00403	2.77966	-6.43808	-2.61315
1761.71875	-7.82452	-2.86234	-4.02141	-1.02214
1765.62500	-3.39233	-8.50437	0.40983	3.28012
1769.53125	1.44288	-5.68479	-2.81455	7.12010
1773.43750	9.09861	3.17867	-2.81547	4.83679
1777.34375	9.90465	3.98359	-1.20466	-0.26982
1781.25000	2.65193	0.35634	0.00314	1.55945
1785.15625	3.86060	1.16130	7.65778	3.19515
1789.06250	5.06934	2.77218	8.05980	0.05062
1792.96875	3.05464	3.57712	2.41781	-0.99742
1796.87500	6.27800	5.59083	-1.20950	0.49523
1800.78125	10.71010	3.57525	-1.61344	2.12898
1804.68750	6.27770	0.75388	-2.01728	0.65995
1808.59375	7.08348	4.78234	0.39937	5.04361
1812.50000	11.11277	3.97557	2.81604	7.68884
1816.40625	4.66586	-3.68097	-2.02012	4.11600
1820.31250	7.48619	-0.05558	2.00814	9.95979
1824.21875	3.45675	4.77868	5.63358	13.40656
1828.12500	-5.40782	-1.26626	-4.84350	2.75532
1832.03125	-2.99023	-0.05844	-10.48544	-5.77595
1835.93750	0.23326	0.74650	-4.03948	-7.94239
1839.84375	-7.82533	-2.88090	-5.24926	-8.78926
1843.75000	-6.61656	4.37086	-8.47369	-5.30143
1847.65625	-1.37847	0.34063	-7.66879	-6.41361
1851.56250	-1.78131	-2.88377	-11.69903	-5.53537
1855.46875	1.03921	4.77097	-6.86489	0.98695
1859.37500	-0.97538	3.56120	1.59563	1.89433
1863.28125	-1.37827	0.33678	0.78878	-1.06422
1867.18750	-3.39281	-0.87301	-3.64449	-3.12445
1871.09375	-5.40733	3.55824	-2.03376	-4.89141
1875.00000	-4.60133	0.73669	-2.84072	-9.79383
1878.90625	-3.39254	-6.51709	-10.90031	-3.51678
1882.81250	-2.58653	-8.93566	-11.70711	-2.08320
1886.71875	-1.37768	-3.69859	-3.24661	-4.70493
1890.62500	0.63713	4.35892	-0.42719	0.17990
1894.53125	2.24899	4.35792	2.39227	6.85632
1898.43750	3.45800	2.34230	-0.02629	7.21606
1902.34375	3.05521	3.55012	-4.05666	3.73445
1906.25000	5.87584	7.57842	-1.23725	2.14116
1910.15625	7.08484	5.56277	-1.23827	1.21205
1914.06250	1.04108	0.32366	-1.23926	3.79153
1917.96875	-7.01739	-2.90085	-7.28421	2.26401
1921.87500	-3.79384	-1.29022	-4.06174	1.08190
1925.78125	-2.58494	-9.34991	-1.24226	-1.92711
1929.68750	-5.00240	-7.73922	-8.49604	-3.41210
1933.59375	1.44472	7.16825	-4.06480	1.96038
1937.50000	-1.37557	0.72051	-8.49805	-3.05910
1941.40625	-13.86617	-8.95079	-13.73714	-8.82675
1945.31250	-13.46298	-5.72833	-6.08246	-7.64132
1949.21875	-2.58362	-0.89421	-1.65133	-3.22055
1953.12500	1.04287	2.32825	-0.44355	1.76220
1957.03125	2.25180	3.53607	-0.44456	-1.09562
1960.93750	6.28123	4.74384	-2.46025	-1.00495
1964.84375	5.47555	6.75744	-6.89353	3.53479
1968.75000	7.89331	1.51830	-12.13261	3.39425
1972.65625	7.49047	-2.10912	-9.31304	1.98376
1976.56250	5.07298	-3.72179	-4.47890	2.11181
1980.46875	12.32586	-0.49930	0.75820	2.39162
1984.37500	8.29666	4.33484	-1.25746	5.01028
1988.28125	1.44695	1.91623	-3.67611	3.13174
1992.18750	3.05882	5.54165	3.57562	1.81416
1996.09375	-3.38785	3.12307	0.75410	0.92211
2000.00000	-2.17894	1.51034	-0.05282	0.15872
2003.90625	1.85042	2.71811	3.97544	-2.00353
2007.81250	-2.98461	-1.71515	1.15396	-2.80238
2011.71875	-2.58157	-3.73083	-2.87642	1.65099
2015.62500	-0.56687	-5.74651	-7.30965	-4.66550
2019.53125	-4.19327	-8.16507	-5.69893	-3.66982
2023.43750	-3.79035	-4.94260	-3.28232	5.86674
2027.34375	-4.59621	-0.51135	-3.68630	6.94450
2031.25000	0.64195	5.53162	1.14788	13.17415
2035.15625	2.65663	6.33650	2.35559	7.91227
2039.06250	-7.81961	-4.14069	-0.46595	-3.44844
2042.96875	-7.81974	-5.35049	-0.46698	0.42035
2046.87500	-0.56711	-2.53094	-6.10906	4.16609
2050.78125	1.85041	-8.57591	-8.12487	0.51793
2054.68750	5.47679	-3.74164	2.35032	-0.43030
2058.59375	7.89439	2.70428	2.34935	-1.18719
2062.50000	4.67093	-1.32607	-4.09848	-1.41449
2066.40625	3.46213	-4.14752	-6.92007	-1.06470
2070.31250	9.90904	0.28376	-5.30939	4.77670
2074.21875	11.92371	2.70043	-0.07237	6.56836
2078.12500	12.32664	2.29659	1.53828	4.32625
2082.03125	12.32663	1.08681	1.53723	6.41090
2085.93750	8.70034	-1.73471	0.32741	3.33962
2089.84375	4.67114	1.48770	-0.88240	-2.25994
2093.75000	7.89474	7.53062	-2.09218	-0.91217
2097.65625	7.49191	3.90327	-9.34595	-4.23166
2101.56250	8.29780	-2.54455	-10.95872	-5.51244
2105.46875	8.70077	-4.15731	-2.90116	1.26245
2109.37500	0.64216	-0.93489	-0.88754	-2.46498
2113.28125	-8.62530	4.70512	-1.69442	-3.93823
2117.18750	-4.19297	7.92761	-2.50125	6.18114
2121.09375	3.86571	5.50908	-4.11387	9.96323
2125.00000	-0.96937	0.27002	-2.90611	3.98708
2128.90625	-2.17812	2.28364	-2.90713	-0.27484
2132.81250	-3.78972	1.47675	-3.71398	-3.31950
2136.71875	-5.40134	3.49041	-4.92377	-2.30888
2140.62500	0.23985	5.10116	-6.53645	4.89480
2144.53125	3.86627	2.68264	-5.73160	10.30687
2148.43750	7.89570	2.27868	-8.95607	5.51552
2152.34375	8.29870	4.29233	-8.95708	-2.28432
2156.25000	9.50760	6.30596	-4.92882	-0.69047
2160.15625	12.73112	8.72258	-0.90058	5.47730
2164.06250	11.11942	7.91574	-0.09572	6.52476
2167.96875	6.68732	2.67666	-6.54371	0.80010
2171.87500	3.86691	-2.56239	-9.36528	1.57975
2175.78125	6.68759	-6.59265	-8.56043	7.00704
2179.68750	8.29938	-4.57895	-1.71161	10.50726
2183.59375	1.04673	-1.35649	4.73426	10.37350
2187.50000	1.04678	1.06011	5.13613	10.15554
2191.40625	6.68788	2.67084	3.92628	10.68575
2195.31250	7.89674	1.46104	0.70183	1.84522
2199.21875	4.67332	6.29519	2.71548	3.06601
2203.12500	8.29969	6.29419	4.72913	10.57472
2207.03125	3.06164	-4.58596	-2.12168	6.58325
2210.93750	-0.16175	2.66575	-4.54034	6.09032
2214.84375	-2.17627	7.90287	-6.95895	6.38644
2218.75000	-1.37028	5.88723	-12.60092	5.31890
2222.65625	5.88248	7.49804	-6.96093	7.13288
2226.56250	4.67384	-2.57615	-3.33551	5.39377
2230.46875	-0.16111	-7.00934	-8.17168	3.09998
2234.37500	-0.56372	-3.38403	-4.94917	4.10841
2238.28125	3.46586	0.24130	6.33189	10.41992
2242.18750	7.49547	-0.56557	5.52506	10.93254
2246.09375	5.48113	-9.83397	3.91240	4.97566
2250.00000	1.45219	-8.62629	3.91144	2.91927
2253.90625	5.48182	-0.16581	2.70167	8.70870
2257.81250	7.09377	1.84782	3.50652	9.91121
2261.71875	7.09402	-0.16785	1.89386	2.63798
2265.62500	6.69135	1.84580	0.28116	1.70232
2269.53125	11.52673	9.90348	-3.74912	9.57176
2273.43750	15.95921	10.70837	-2.94430	13.73539
2277.34375	13.94479	3.45465	3.90455	10.24068
2281.25000	7.90107	0.63317	3.09777	4.41453
2285.15625	2.26026	-3.39715	-0.12658	-0.79934
2289.06250	0.64877	-6.21863	-0.53045	0.48864
2292.96875	-0.96283	-0.98151	-2.94895	3.47018
2296.87500	-0.15684	-2.19129	-2.94990	-0.67789
2300.78125	1.85795	-2.59516	2.69013	-7.90831
2304.68750	-0.15659	4.25368	5.10669	-4.94487
2308.59375	2.66409	5.05859	0.67342	-0.15804
2312.50000	4.27594	3.84883	-1.74521	3.29326
2316.40625	1.85846	1.83317	-2.14914	3.34689
2320.31250	-2.17071	-3.00298	-3.76186	-0.47930
2324.21875	-11.03496	-8.64501	-2.55401	0.14727
2328.12500	-4.58790	-9.85469	-0.54039	-0.43048
2332.03125	1.05328	-3.40876	0.26447	-1.70874
2335.93750	-0.15529	2.63436	3.88993	1.76601
2339.84375	1.05366	3.43926	4.69482	5.35154
2343.75000	2.26259	5.04998	4.69381	6.42197
2347.65625	7.50083	10.28708	9.52794	10.14501
2351.56250	4.68047	4.24212	4.69182	6.18811
2355.46875	-3.37803	-4.62331	-2.15894	-6.63029
2359.37500	0.65146	-1.80383	1.46640	-4.11114
2363.28125	6.29256	1.01559	0.25662	6.63000
2367.18750	3.87508	-4.62646	1.06158	7.79321
2371.09375	-0.15415	-8.65691	1.06052	1.99692
2375.00000	-0.55698	-0.19648	-1.76110	-1.29375
2378.90625	-0.15390	2.22013	-0.95619	-2.26932
2382.81250	3.87555	6.65141	8.31032	3.59648
2386.71875	7.09912	7.85922	7.10055	10.24214
2390.62500	-0.95929	0.20252	-0.55612	9.08297
2394.53125	-11.03231	0.60447	0.65171	-8.01360
2398.43750	-9.01746	-1.81413	-2.57271	-12.89207
2402.34375	-7.00266	-1.00929	-1.36489	-5.09165
2406.25000	-9.42004	-1.01030	2.26048	-6.28201
2410.15625	-5.39045	0.60049	-0.96396	-10.43464
2414.06250	-5.79305	5.03173	0.24384	-11.07866
2417.96875	-4.58401	5.03075	5.88388	-4.95055
2421.87500	-1.76328	7.44743	6.68876	3.94067
2425.78125	-7.00112	2.20844	3.46439	5.76677
2429.68750	-11.03017	-3.83643	-0.56582	-0.55332
2433.59375	-7.80653	-5.85209	-2.58138	-4.04535
2437.50000	-4.18000	-2.62967	1.44697	-2.21504
2441.40625	3.87877	-3.03364	3.46064	0.07590
2445.31250	11.53464	-6.66097	2.65378	5.29075
2449.21875	4.28210	1.79953	3.45867	6.48821
2453.12500	0.25302	7.43961	-0.97447	3.81541
2457.03125	-0.14973	2.20056	-3.79589	2.56937
2460.93750	4.68578	-1.02380	7.48519	4.27191
2464.84375	2.26848	-1.42765	11.51354	2.36485
2468.75000	-1.76057	-0.21975	5.46868	-3.01370
2472.65625	-4.98373	-3.04113	0.63264	-4.42401
2476.56250	-6.99815	0.18140	-1.38294	-8.32511
2480.46875	-4.58038	1.79210	-3.39859	-7.23929
2484.37500	-6.99776	-8.28215	-9.84647	-7.03819
2488.28125	-8.60929	-9.08896	-3.80350	-8.51362
2492.18750	-6.52638	1.38630	8.28346	-4.38203
2496.09375	-1.36020	5.81749	14.72933	-0.25585
2500.00000	-5.19326	1.78718	7.87859	-2.43610
2503.90625	-12.77606	-1.84014	1.02782	-4.78154
2507.81250	-0.69514	-2.64696	8.68248	0.95121
2511.71875	5.27143	-5.06553	4.65222	3.89332
2515.62500	6.29511	0.57459	0.62201	4.13825
2519.53125	-0.87331	-5.47035	-1.79650	0.95003
2523.43750	-3.98618	-11.11233	-0.18573	-0.47094
2527.34375	-0.22946	-2.24889	6.66303	-0.50004
2531.25000	-3.87842	2.98823	7.06500	-2.32174
2535.15625	-4.96983	-1.84789	3.84057	-2.71378
2539.06250	-7.82854	-5.07230	3.43666	-0.48990
2542.96875	-4.47655	0.56779	4.24158	3.00411
2546.87500	1.42952	4.59612	2.62888	4.46656
2550.78125	1.47978	1.77461	4.23954	3.56157
2554.68750	0.30292	-8.29954	4.64149	-0.66490
2558.59375	0.53728	-8.70337	6.65516	-3.93009
2562.50000	7.91631	9.42769	11.08642	-0.79997
2566.40625	9.92192	16.27664	7.45903	2.55150
2570.31250	-1.62364	11.44062	3.42872	-1.02622
2574.21875	-4.48101	7.81337	2.21888	-4.62448
2578.12500	-1.56156	4.99193	2.62084	-8.96302
2582.03125	-7.09881	0.96176	3.02283	-12.28241
2585.93750	-10.21098	-3.06846	2.21593	-11.88874
2589.84375	-3.52120	1.76573	5.43838	-10.04679
2593.75000	0.01776	6.60000	3.82575	-3.71521
2597.65625	1.18766	0.95801	0.19840	0.53227
2601.56250	-2.78040	-6.69857	2.61498	-1.21983
2605.46875	-2.15737	-5.89362	7.04622	-1.38377
2609.37500	-0.18722	0.14940	9.46279	-2.95675
2613.28125	-1.91788	6.59535	11.07354	3.26865
2617.18750	-0.07896	9.01196	7.44617	2.80067
2621.09375	-7.73444	0.14656	0.19242	-7.90074
2625.00000	-15.07438	-7.10714	-0.21152	-9.04757
2628.90625	-14.99338	-8.31686	0.99626	-5.95130
2632.81250	-5.85587	-8.31780	3.00989	3.43143
2636.71875	3.10292	-7.91580	7.44105	7.92018
2640.62500	6.65125	-3.48462	7.44000	4.34822
2644.53125	-0.60840	-3.08263	3.40970	2.19120
2648.43750	-2.81248	-5.50112	3.81167	4.73880
2652.34375	4.72246	-2.27858	-1.83034	5.23192
2656.25000	1.87009	-2.68241	-3.04008	0.98518
2660.15625	-0.31683	-5.10097	2.19699	-1.13452
2664.06250	6.58895	0.53913	7.83703	4.93366
2667.96875	6.93910	0.13525	3.80682	7.35013
2671.87500	0.40081	-4.29795	-4.25269	0.20424
2675.78125	-0.95670	-3.49307	-7.88005	-0.67675
2679.68750	6.82192	-1.07641	-4.25459	1.84673
2683.59375	14.17488	-0.67442	-0.22623	5.62862
2687.50000	7.81280	-4.70466	-1.43598	5.50517
2691.40625	-0.28866	-3.49684	-3.04868	2.04354
2695.31250	3.89009	4.56088	-0.22903	4.54741
2699.21875	9.53479	6.17159	7.42564	4.43270
2703.12500	4.42139	0.12665	2.18655	0.24886
2707.03125	-2.20774	-5.51539	-5.47002	0.40856
2710.93750	-4.19830	-6.72514	-7.08275	-2.14936
2714.84375	-2.52790	-1.89095	-2.24854	0.94313
2718.75000	-4.66696	-3.10071	-1.84661	0.98705
2722.65625	-7.76120	-9.95147	-9.50321	-4.35289
2726.56250	-5.39486	-14.78759	-5.07198	0.11589
2730.46875	-1.25762	-9.14741	2.17980	1.32014
2734.37500	2.35286	-1.49267	3.38763	1.00097
2738.28125	4.10896	-0.68769	1.37199	5.21448
2742.18750	7.04281	-3.50918	-2.25533	8.34733
2746.09375	7.11496	-2.30130	-1.45048	8.25105
2750.00000	6.51599	-0.69051	2.17487	14.46108
2753.90625	6.84625	-3.10911	8.21789	16.80717
2757.81250	3.22697	-1.09545	5.79930	10.26911
2761.71875	0.48411	-0.29055	0.15729	4.91006
2765.62500	-4.56865	-8.35005	-5.08173	-0.97516
2769.53125	-6.26435	-11.57441	-5.08266	-5.03907
2773.43750	0.87803	-5.53142	-3.06899	-3.61749
2777.34375	6.38878	3.33210	0.15348	5.67966
2781.25000	4.39695	3.73406	-0.65332	9.51671
2785.15625	8.30915	-1.50496	-2.26595	7.49186
2789.06250	2.30364	-5.93815	-5.08747	6.07452
2792.96875	-7.49484	-13.59487	-4.68544	1.37249
2796.87500	-2.92436	-9.96943	1.76061	5.95475
2800.78125	-0.55661	-8.35862	5.38613	8.06940
2804.68750	-1.39400	-8.35950	5.38529	5.44680
2808.59375	6.02769	-1.51068	2.96683	7.90680
2812.50000	5.49887	-0.70578	8.20400	10.41856
2816.40625	-0.13267	1.30785	13.84409	11.09723
2820.31250	0.13120	2.11272	9.41090	12.25805
2824.21875	6.21236	5.73814	5.78362	10.61890
2828.12500	6.91969	6.94605	2.96218	4.88505
2832.03125	0.36951	-0.30760	-2.67982	-1.46509
2835.93750	3.48201	-1.11439	1.75147	-0.24639
2839.84375	10.89503	0.49641	8.60035	-2.49069
2843.75000	13.40030	2.91297	8.59948	-5.19524
2847.65625	13.84219	4.12080	5.77811	-2.99530
2851.56250	11.36345	6.53746	-0.66968	-3.25728
2855.46875	8.72574	10.16286	0.53821	-0.27242
2859.37500	8.77014	11.77367	8.19298	7.34493
2863.28125	6.87423	11.77277	4.96857	12.40188
2867.18750	7.85579	14.18937	7.38516	19.31702
2871.09375	9.87025	10.15905	11.81645	16.31915
2875.00000	2.70463	-3.54159	6.17444	7.39310
2878.90625	-3.42029	-8.37769	4.15882	4.29737
2882.81250	-0.06685	-0.32001	-0.27429	-1.05552
2886.71875	0.24185	7.33478	-1.88693	1.30613
2890.62500	2.33463	6.93088	2.94737	10.92268
2894.53125	10.80315	4.10942	11.00498	18.31838
2898.43750	11.79860	-3.14426	8.18349	12.14508
2902.34375	7.48729	-5.56278	4.95910	2.38510
2906.25000	1.47548	1.68905	6.16686	1.39435
2910.15625	2.45369	6.12037	7.37469	4.32049
2914.06250	7.63600	4.50772	8.58260	12.35556
2917.96875	3.65987	-0.32849	5.35825	4.70172
2921.87500	-2.29224	-3.95585	-2.70127	-9.10410
2925.78125	1.88608	2.49007	-1.89636	-4.59609
2929.68750	3.77820	9.33891	4.14666	6.17794
2933.59375	2.87251	6.92035	0.92239	7.63488
2937.50000	2.78807	0.06956	-7.13714	-1.91112
2941.40625	-3.21268	-1.54319	-6.73509	-3.68674
2945.31250	-2.55580	0.87342	5.35189	2.67474
2949.21875	3.88782	-1.94805	8.97740	6.01376
2953.12500	1.74866	-5.57544	5.75309	1.73684
2957.03125	-2.90392	-8.39694	8.57273	-3.66015
2960.93750	-1.71884	-8.39795	8.97480	-3.92189
2964.84375	3.86388	-0.74325	5.34753	-2.58132
2968.75000	-0.44354	4.09094	2.52618	-4.23618
2972.65625	-4.19873	7.71638	7.36044	-2.11891
2976.56250	0.28505	8.52124	6.95660	0.26297
2980.46875	0.58042	6.90851	5.74685	1.47723
2984.37500	-6.65614	2.07237	7.35759	-4.24669
2988.28125	-6.39725	1.26556	6.14785	-10.07122
2992.18750	-0.86925	4.89096	12.99675	-9.97996
2996.09375	-5.77631	2.06953	9.77239	-7.06257
