 	TP9	AF7	AF8	TP10	
-1000.00000	2.51617	-9.34393	1.72252	-3.23621
-996.09375	6.14239	-4.50882	6.15462	-0.83381
-992.18750	0.90417	-1.28539	1.72222	1.71544
-988.28125	-0.30471	-2.49419	0.91621	-3.04074
-984.37500	1.70980	-1.28539	5.75120	-3.94136
-980.46875	0.90383	-1.68830	10.18334	-5.14345
-976.56250	-5.94599	-1.68829	11.39205	-10.25561
-972.65625	-8.76659	-1.28542	4.54213	-11.91970
-968.75000	-4.33453	-0.88250	-0.69608	-13.04319
-964.84375	-2.31993	-2.09134	1.31845	-11.20644
-960.93750	-1.51419	0.72907	5.34757	-3.47507
-957.03125	-0.70843	5.16127	6.55621	0.00394
-953.12500	-0.70848	1.53490	4.13848	-1.37031
-949.21875	3.72370	1.13190	4.54131	-0.01054
-945.31250	-1.11163	-0.07695	-0.29402	-1.51144
-941.40625	-2.32050	-2.49464	-5.53226	-1.04388
-937.50000	2.91746	-2.09178	-4.72646	0.93021
-933.59375	2.11158	2.34045	-2.30897	2.32796
-929.68750	1.30569	5.96678	-0.69730	-0.61248
-925.78125	2.91735	5.56383	2.12311	-2.24732
-921.87500	4.52911	4.35497	1.72009	-1.06473
-917.96875	4.12613	1.93734	2.52589	0.57910
-914.06250	8.15538	-0.48031	1.71986	0.37361
-910.15625	6.54364	1.13140	-5.53301	-1.95938
-906.25000	6.94661	5.16068	-3.11547	-1.72170
-902.34375	5.33486	3.95185	2.52552	-2.72260
-898.43750	0.90262	-4.50973	0.10780	-0.64734
-894.53125	6.14075	-3.30097	0.91354	2.83021
-890.62500	9.36417	0.32535	3.33108	2.79312
-886.71875	4.52896	-4.50997	0.51048	-2.34598
-882.81250	2.91712	-4.10707	0.10741	-3.59000
-878.90625	0.90239	1.13098	2.52492	2.89236
-875.00000	2.11107	3.54850	3.73354	2.43520
-871.09375	2.91678	5.16012	4.13631	-0.06201
-867.18750	-2.32140	3.95125	2.52447	-0.89220
-863.28125	-1.11275	5.96583	4.53900	-2.04539
-859.37500	-0.70985	5.96579	2.12126	0.32066
-855.46875	-5.14216	-2.89869	-4.72864	-2.43197
-851.56250	-7.55975	-4.91338	-1.10239	-4.89134
-847.65625	-3.12759	-2.09290	2.12097	-3.40049
-843.75000	3.72223	5.56276	4.13547	0.31003
-839.84375	1.70756	9.18909	4.13526	1.71447
-835.93750	-4.73934	1.53347	-3.11774	-2.10893
-832.03125	-5.14233	-1.28713	-1.90909	-3.64535
-828.12500	-7.15702	-1.69008	-0.70034	-6.24301
-824.21875	-12.39517	-0.48137	-5.13262	-9.00495
-820.31250	-3.93365	1.93621	-8.35608	2.24318
-816.40625	-4.73949	-1.28724	-3.92385	7.02363
-812.50000	-13.20103	-6.52533	3.32887	-1.97419
-808.59375	-6.35128	-7.73419	1.31413	-3.77743
-804.68750	3.72199	-6.52545	0.91105	2.65759
-800.78125	8.55710	-4.10792	0.10504	6.74853
-796.87500	1.30437	-4.10801	-6.34203	4.00817
-792.96875	1.70739	-3.70515	-3.92457	0.91816
-789.06250	8.55731	1.93576	1.31341	2.78641
-785.15625	2.91647	1.12979	1.31323	5.89321
-781.25000	-5.14190	-4.10847	5.74522	9.19424
-777.34375	-6.75337	-8.54085	5.34219	4.55516
-773.43750	-5.14136	-10.95852	2.92447	-1.02131
-769.53125	-0.70869	-5.31767	2.52137	0.95650
-765.62500	-1.51402	-1.69140	-2.71698	2.72621
-761.71875	-4.73689	-6.12383	-0.70256	2.73972
-757.81250	-5.54216	-6.92984	8.56459	3.02135
-753.90625	-6.75041	-1.28900	10.98189	1.46474
-750.00000	-7.95866	-5.31848	8.16116	3.21952
-746.09375	-9.16692	-7.73633	7.75803	5.65432
-742.18750	-7.15181	-4.11019	6.14611	4.71871
-738.28125	-9.16611	-2.90164	1.71372	2.22397
-734.37500	-9.16585	-0.88724	0.90771	1.11179
-730.46875	-5.94216	-0.08160	0.10170	-3.72831
-726.56250	-5.53901	-2.49938	-3.52488	-7.07597
-722.65625	-1.10664	-3.70828	-2.31619	0.63372
-718.75000	-1.91231	-5.32018	-3.92795	6.59393
-714.84375	-4.32983	-10.15547	-11.98666	-0.88240
-710.93750	-2.71805	-5.72330	-8.76339	-2.97143
-707.03125	0.50540	-0.88818	-0.70486	-0.00213
-703.12500	1.71413	-0.08236	2.11544	0.16469
-699.21875	-2.71821	1.93227	4.12992	-2.80543
-695.31250	-2.31536	3.14111	4.93568	-3.72083
-691.40625	0.90786	3.94699	1.71213	1.05093
-687.50000	-0.30109	2.73824	-2.31725	-0.92192
-683.59375	5.33967	3.94707	2.11492	0.50216
-679.68750	6.54822	5.55879	4.12949	4.65254
-675.78125	3.32452	8.37926	2.11479	3.46808
-671.87500	1.71261	2.33534	0.10004	5.10726
-667.96875	-0.70523	-6.12613	-3.92937	5.07631
-664.06250	2.11500	0.32083	-0.30313	7.70056
-660.15625	-0.70575	1.93259	5.33782	1.17032
-656.25000	-1.10900	-1.29080	2.92011	-2.28956
-652.34375	4.53172	-0.88782	0.50250	1.53306
-648.43750	6.14313	-2.09662	3.32290	1.07071
-644.53125	0.90479	-3.70831	3.32277	3.23551
-640.62500	-1.91599	-4.51423	2.91969	3.27392
-636.71875	0.50130	-8.54355	0.90495	4.38484
-632.81250	2.51565	-5.32011	-1.91561	2.40660
-628.90625	6.54466	2.33556	1.71067	-1.25400
-625.00000	8.96201	-0.88792	3.72524	0.01020
-621.09375	6.14120	-1.69380	-1.51290	0.49395
-617.18750	6.14095	6.36471	2.11344	0.51946
-613.28125	8.96126	9.99100	3.32217	-2.35540
-609.37500	3.72289	3.14118	-6.75111	-9.55535
-605.46875	-0.30671	-2.09699	0.50156	-9.21910
-601.56250	0.90173	0.32052	6.14246	-4.34096
-597.65625	-1.11323	0.32046	1.71012	-1.39841
-593.75000	-2.32229	-5.72352	3.72466	-3.49608
-589.84375	-3.12847	-11.36458	1.70988	-5.30240
-585.93750	-1.51690	-6.12646	0.09810	-4.29831
-582.03125	2.10920	0.72331	2.11267	-3.16372
-578.12500	2.51185	4.75258	0.50087	-2.17676
-574.21875	2.91446	7.17013	2.11244	-3.04001
-570.31250	4.52593	4.34955	-1.11113	1.02434
-566.40625	10.56958	4.34952	-3.93170	8.33303
-562.50000	8.15177	6.36421	1.70928	5.24431
-558.59375	-3.13045	2.73779	-3.52888	-2.62150
-554.68750	0.89869	3.94657	-6.34952	-1.39959
-550.78125	0.89852	1.52902	-1.51450	-5.48920
-546.87500	-1.92214	-0.48572	1.30596	-8.38855
-542.96875	5.33049	1.12606	-0.30590	-0.05905
-539.06250	2.10690	-0.48565	-7.96164	-2.73172
-535.15625	0.89793	0.32025	-7.15590	-7.44866
-531.25000	7.34461	-1.29155	0.09672	-5.10719
-527.34375	4.92681	-1.69452	-0.30633	-4.49586
-523.43750	1.30017	3.94639	-0.30642	-2.14114
-519.53125	4.92638	5.96099	0.09644	-1.29661
-515.62500	6.13498	1.12582	0.09633	-2.66153
-511.71875	4.52317	-2.90348	2.11084	-3.88187
-507.81250	5.32893	-2.90347	2.11076	0.67369
-503.90625	6.53766	-0.08301	3.72241	6.26157
-500.00000	4.52294	0.72278	-2.72453	4.91164
-496.09375	7.34335	3.54329	-8.76864	4.09053
-492.18750	6.53743	3.94614	-6.35113	3.41627
-488.28125	-1.11838	-2.50083	-4.73949	0.27179
-484.37500	1.70209	2.33433	-2.72501	0.17698
-480.46875	-0.71561	7.97530	1.30409	0.98946
-476.56250	1.29890	9.18402	8.15372	0.30947
-472.65625	8.14861	8.78109	6.94481	-0.95169
-468.75000	3.31336	1.12535	-0.71093	-2.47805
-464.84375	2.50732	0.31945	0.90062	-2.25312
-460.93750	3.31297	-0.88940	2.51223	0.24011
-457.03125	2.50694	-3.30707	-4.74064	1.30152
-453.12500	5.73023	3.13973	-7.15836	2.34478
-449.21875	1.70075	0.72203	-4.33799	1.28689
-445.31250	-1.92583	0.31907	-3.12933	0.59190
-441.40625	-3.13473	3.13950	-2.72653	1.46246
-437.50000	-3.94070	-2.90453	0.49674	0.61602
-433.59375	-3.13503	-1.69583	1.70532	-0.40386
-429.68750	1.69999	3.54218	3.31695	3.10265
-425.78125	6.13203	4.75082	5.73437	3.48243
-421.87500	2.50560	4.75075	4.12257	2.24741
-417.96875	-3.53845	2.73601	2.51077	0.26481
-414.06250	-3.13570	3.54178	1.70471	-1.14953
-410.15625	1.69935	1.12410	0.89872	-3.07970
-406.25000	0.08747	-2.09939	0.49573	-2.03626
-402.34375	-1.92726	-0.48771	1.70433	1.39504
-398.43750	2.50490	4.34744	2.91292	4.27618
-394.53125	6.13116	4.34738	-3.53416	6.14188
-390.62500	1.69889	-1.29366	-8.36944	1.26954
-386.71875	-1.12170	-5.32293	-0.71386	0.15981
-382.81250	-4.74808	-3.30829	3.31528	0.12453
-378.90625	-6.35987	-0.08484	2.50928	0.15989
-375.00000	-6.35990	-0.89071	1.70321	1.71744
-371.09375	-4.74823	-0.89074	5.73231	6.06995
-367.18750	-6.36008	-1.29371	8.95557	10.07488
-363.28125	-9.98659	-3.30839	2.10562	6.90698
-359.37500	-5.55456	-0.08500	0.09083	5.64654
-355.46875	-6.36073	-2.50265	-1.92394	2.49087
-351.56250	-7.97261	-6.53198	-6.35624	0.43446
-347.65625	-2.33163	0.31781	-8.77394	1.11944
-343.75000	-3.13767	4.34704	-7.56533	-0.00524
-339.84375	-10.39052	2.73526	0.49314	-1.42126
-335.93750	-6.76414	-4.92042	4.92514	-0.40956
-332.03125	-1.92905	-9.35277	0.49277	-1.14002
-328.12500	2.50317	-0.08545	-1.92496	2.70929
-324.21875	6.93540	5.55558	1.70128	11.63232
-320.31250	0.48849	1.12331	4.11878	9.18085
-316.40625	-1.52617	-2.50313	1.29816	6.70865
-312.50000	-0.31738	-1.29441	-0.31373	4.56064
-308.59375	-0.72032	2.73478	-0.31382	3.96626
-304.68750	1.69731	1.52597	-3.53737	1.93979
-300.78125	-0.72022	-0.48879	-5.95505	-3.63953
-296.87500	-1.12308	0.31707	-3.53763	-1.94764
-292.96875	-1.92886	-2.10060	-2.32896	-0.20251
-289.06250	-0.72002	-2.90654	0.49147	0.85974
-285.15625	-1.12291	-2.10076	7.74412	2.75752
-281.25000	-1.12289	-2.90668	9.35568	2.43190
-277.34375	0.48886	-7.33901	4.52040	1.41880
-273.43750	2.50346	-6.93616	2.90856	3.09461
-269.53125	7.33857	-5.72741	2.10262	3.86312
-265.62500	5.32395	-2.90690	-0.31513	4.42349
-261.71875	4.11517	1.12238	-4.74748	5.24234
-257.81250	7.33860	4.34579	-5.55350	4.71749
-253.90625	2.90627	0.71934	-1.12140	-1.27194
-250.00000	1.29452	-1.69825	0.08727	-2.33838
-246.09375	8.54725	0.31639	3.71352	2.51346
-242.18750	8.54723	-0.48954	2.50464	6.00961
-238.28125	4.51789	1.92804	1.69858	7.14080
-234.37500	3.71196	7.16612	9.35416	6.43118
-230.46875	1.29427	6.76315	13.38334	5.21715
-226.56250	0.89126	-0.48962	9.75689	3.48101
-222.65625	-0.31755	-1.69844	0.89230	5.14651
-218.75000	3.30870	2.33076	1.29516	5.86842
-214.84375	10.15839	5.95705	8.95064	7.25647
-210.93750	5.32310	6.35990	9.35339	5.16746
-207.03125	-3.94439	2.73336	4.11513	-3.14539
-203.12500	-5.95908	0.31574	2.50332	-5.39603
-199.21875	-3.94450	-1.69901	2.10027	-5.54556
-195.31250	-2.73582	-0.89328	2.10022	-3.64041
-191.40625	-1.12427	0.31543	2.50306	0.32556
-187.50000	-3.54198	-0.08765	4.92037	2.78503
-183.59375	-1.52751	1.12101	7.33777	0.98567
-179.68750	-1.12474	-2.50551	4.11417	-3.32531
-175.78125	-0.31894	-3.31140	-9.58562	-1.68912
-171.87500	2.90431	3.94131	-12.40626	-3.27326
-167.96875	0.08365	2.32952	-0.72145	-6.93055
-164.06250	-0.31944	1.12058	5.32230	-5.51498
-160.15625	0.08329	2.32928	5.32215	-4.38949
-156.25000	-1.52854	-0.49133	2.09855	-3.81984
-152.34375	-3.14040	1.12040	1.69545	-3.22042
-148.43750	0.48591	0.71742	1.69532	0.34673
-144.53125	-1.12595	-1.29729	-3.13999	0.49706
-140.62500	0.08277	1.52321	-3.14014	-0.67317
-136.71875	10.15596	6.76117	5.32126	2.85569
-132.81250	10.15586	3.13476	4.91816	-0.33109
-128.90625	3.70892	-6.53566	-3.94636	-1.97684
-125.00000	11.36452	-3.71518	-2.73766	3.31685
-121.09375	15.79677	1.92577	-1.93197	1.78614
-117.18750	0.08241	0.31406	-3.54386	-3.02336
-113.28125	-4.34994	-2.90941	1.69408	-3.48058
-109.37500	-4.75299	-4.52118	5.32034	-1.01013
-105.46875	-6.76783	-2.50657	3.30555	0.93794
-101.56250	-4.75337	2.73150	3.30539	4.20449
-97.65625	-7.57405	1.11979	-0.32116	2.71496
-93.75000	-5.15665	-0.08905	-9.99158	5.04971
-89.84375	2.09599	-0.89493	-8.38000	7.27296
-85.93750	-1.53046	-4.92426	-3.14206	1.42737
-82.03125	-5.55986	-4.92430	-1.93341	0.95038
-78.12500	-0.72481	-2.50678	-0.32183	3.54923
-74.21875	0.88678	-0.89507	3.30442	5.10376
-70.31250	0.88667	4.74583	3.70714	5.13900
-66.40625	1.28955	9.17804	3.30413	4.79215
-62.50000	0.88658	6.35755	2.09520	4.12114
-58.59375	0.88653	1.52241	-1.12843	-0.92403
-54.68750	-2.73991	2.32826	0.48318	-1.71667
-50.78125	-3.94875	1.92529	-0.72577	-0.16512
-46.87500	-1.53124	1.11943	-1.53178	1.36788
-42.96875	-3.14322	-0.89522	-1.53187	2.44465
-39.06250	-7.57565	0.31359	1.69149	2.99546
-35.15625	-5.96419	-0.49236	2.90012	4.72529
-31.25000	-3.14403	-3.31292	-0.72644	6.66378
-27.34375	-8.38249	-2.50711	-3.54718	3.64860
-23.43750	-16.44146	-2.50714	-8.78546	-2.86130
-19.53125	-7.98032	4.74557	-8.78562	-2.01702
-15.62500	-1.53386	8.37193	-3.54768	-0.15862
-11.71875	-7.98121	3.93964	0.07859	-4.60262
-7.81250	-9.19042	2.32791	-1.13033	-3.27076
-3.90625	-11.60840	-3.71612	-5.56272	-0.50370
0.00000	-8.38533	-4.92502	-2.74231	2.17552
3.90625	-4.75926	-1.70162	4.10739	3.77184
7.81250	-5.96836	-1.29872	2.49559	1.08278
11.71875	-5.56569	-2.50752	0.07783	-0.04720
15.62500	-0.73078	-1.70165	2.89817	2.67833
19.53125	-3.14855	1.52176	0.07750	0.67013
23.43750	-7.17805	2.32758	-7.98131	-3.23338
27.34375	-4.35780	1.11879	-9.99613	-1.27133
31.25000	5.31234	4.74511	0.88282	6.87253
35.15625	3.29747	3.13336	7.73253	5.48576
39.06250	-9.19365	-3.71651	-2.74385	-5.31775
42.96875	-10.80563	-2.50787	-4.35585	-6.27107
46.87500	-15.64112	-1.70207	-1.93850	-4.01916
50.78125	-15.23841	-2.10514	-1.93872	-1.45086
54.68750	-9.19468	1.52116	-4.35652	-4.56357
58.59375	-7.98610	6.75910	-6.37134	-7.31952
62.50000	-3.95700	7.96781	-6.77440	-1.71920
66.40625	1.28093	2.32675	-9.59507	2.90192
70.31250	0.87781	1.11784	-7.58056	-0.03851
74.21875	3.69818	4.74408	2.08959	-0.06170
78.12500	5.71267	5.54991	6.52164	5.55306
82.03125	10.95064	5.54984	2.89510	8.00280
85.93750	12.56221	3.53511	-1.13435	11.42369
89.84375	10.54743	1.11742	0.07427	9.09063
93.75000	11.35313	0.71441	1.28294	0.86666
97.65625	12.56174	5.95241	-2.74651	9.53592
101.56250	11.75574	4.74350	-3.14961	12.81985
105.46875	6.51752	1.52003	0.07372	5.41818
109.37500	2.08513	-0.49480	4.90874	6.99267
113.28125	4.09969	-1.70366	10.14671	7.49456
117.18750	2.08497	-1.70378	6.52022	3.83287
121.09375	-3.15322	-4.92734	3.29664	-0.56398
125.00000	-0.73567	-3.71860	4.50533	-1.82698
128.90625	2.08478	-2.10694	4.10225	0.10807
132.81250	0.47300	-2.50997	-1.13595	-3.94558
136.71875	0.06992	-0.89832	2.08738	-0.66655
140.62500	-3.15366	-0.89840	-7.98599	1.69945
144.53125	-7.58598	-2.51023	-21.28286	-1.45619
148.43750	-3.55680	-2.51034	-9.59801	-3.10979
152.34375	-2.34810	-1.70454	1.28096	-2.42484
156.25000	-3.55703	-1.70465	4.90714	0.07684
160.15625	0.47214	-4.12232	6.11581	-0.93629
164.06250	0.47205	-5.73402	6.51862	-2.74502
167.96875	3.69540	1.92156	4.90668	-3.87848
171.87500	4.90406	5.95075	-4.36085	-8.08782
175.78125	-1.14005	2.72725	-8.39024	-8.43217
179.68750	0.06866	-2.51089	-4.36109	-5.64562
183.59375	2.88906	-4.52560	-4.36129	-4.49150
187.50000	4.09779	1.51837	0.47376	-0.59566
191.40625	5.30653	1.11537	-1.13814	1.63037
195.31250	8.52994	4.74169	-1.94411	5.24486
199.21875	6.51524	1.11530	1.68205	4.90352
203.12500	-1.94641	-8.95806	0.47308	-0.25451
207.03125	-4.76704	-4.12303	1.27875	5.51977
210.93750	-4.76720	1.51792	3.29328	7.79068
214.84375	0.06772	4.33827	11.75469	7.27071
218.75000	-1.54419	3.93520	12.96329	6.54201
222.65625	-1.54435	2.32342	7.32218	0.29074
226.56250	2.88764	3.53213	5.30740	1.56359
230.46875	-2.75358	-0.49736	-1.13966	0.72020
234.37500	-1.54501	-2.91506	-1.94565	0.07160
238.28125	0.46943	-2.51231	-0.33407	-1.12435
242.18750	-2.35124	-2.51244	-3.15468	-6.88741
246.09375	0.46907	0.71089	-2.34897	-8.44464
250.00000	0.46888	1.91958	-2.34912	-5.48187
253.90625	-6.38116	1.91947	0.87417	-3.45076
257.81250	-8.39602	5.14285	3.69450	-6.80462
261.71875	-5.57570	4.33692	2.88846	-7.68832
265.62500	-5.97887	2.72509	-4.36450	-5.57771
269.53125	-5.57611	1.51631	-8.79695	-8.40356
273.43750	-3.96463	-0.09549	-1.94733	-7.72237
277.34375	-6.38239	-0.09553	5.30519	-4.84814
281.25000	-9.60597	1.91910	8.93136	-4.93221
285.15625	-10.00909	1.51614	7.72244	-4.75303
289.06250	-5.98006	-1.70742	4.49878	-3.21584
292.96875	-1.54800	-5.33390	2.48394	-0.64975
296.87500	-0.33937	-11.37793	3.28961	-2.09471
300.78125	2.07804	-16.21320	4.09530	0.57606
304.68750	10.53949	-4.93123	7.31862	10.53975
308.59375	10.53934	3.93314	4.49793	13.29676
312.50000	8.52450	4.73890	1.27426	12.93562
316.40625	14.97121	6.35057	1.67694	5.89812
320.31250	10.53877	1.51533	-3.15837	0.78117
324.21875	8.92685	3.52989	-0.33802	0.40261
328.12500	13.35878	5.94732	0.87064	-4.40509
332.03125	14.97034	3.93259	0.46763	-5.24184
335.93750	15.37307	3.93255	4.89970	1.81474
339.84375	11.34360	0.70903	8.12302	7.77543
343.75000	8.52287	-1.30573	10.54047	8.34492
347.65625	9.32847	-4.93216	8.52562	10.15295
351.56250	4.89602	-4.93223	3.69021	5.25841
355.46875	0.86643	-0.09719	3.28714	0.57334
359.37500	-1.14844	-0.90318	4.49578	4.23810
363.28125	-3.16332	-1.30627	2.48099	6.55787
367.18750	-0.74588	-0.50050	-0.33965	5.38556
371.09375	1.26862	-2.11222	0.46617	2.53089
375.00000	-3.96965	-4.12689	2.88361	-0.23417
378.90625	-5.58155	-5.33573	1.67465	-2.16795
382.81250	0.05921	-4.93280	-0.74307	1.08097
386.71875	-2.35862	-1.30646	-2.35501	2.63821
390.62500	-7.19419	-0.09764	-6.78739	-5.77068
394.53125	-13.23855	-4.52988	-7.59346	-9.06091
398.43750	-13.64190	-6.94740	0.86795	-7.40631
402.34375	-11.22465	-6.14153	1.67362	-8.49312
406.25000	-16.86607	-10.97670	-5.57929	-10.18792
410.15625	-11.62835	-7.75336	-1.14713	-5.54736
414.06250	-0.74956	1.51403	3.68787	3.51532
417.96875	0.86182	1.51398	-5.17672	2.63522
421.87500	-1.55594	-0.90362	-4.37098	0.80179
425.78125	2.87602	0.30514	6.50804	2.35622
429.68750	4.08459	-0.50087	6.10488	0.77967
433.59375	2.06977	-2.91850	2.07539	6.47669
437.50000	8.11361	-0.09806	4.89568	10.23780
441.40625	6.09886	0.70772	7.31310	7.61018
445.31250	1.66658	-2.11284	9.73054	4.80294
449.21875	1.66647	2.31934	12.14795	3.13095
453.12500	1.26340	7.96023	10.13318	5.06684
457.03125	-1.55716	-0.50140	4.89490	0.90555
460.93750	-4.37775	-6.94830	0.05955	-4.18456
464.84375	-11.22758	-5.73961	-3.16409	-8.90142
468.75000	-14.45111	-3.72510	-2.35842	-12.20080
472.65625	-11.63070	-0.09887	-6.79076	-10.38050
476.56250	-6.79557	2.31864	-10.01434	-7.62263
480.46875	-10.82498	-0.90491	-5.98520	-8.38970
484.37500	-12.83970	-1.71086	-8.00000	-13.38088
488.28125	-7.19876	3.52713	-4.77669	-15.00413
492.18750	-4.37833	6.75038	2.47592	-12.46320
496.09375	-8.40764	6.34738	-0.34473	-12.91924
500.00000	-9.61641	3.12386	-0.34480	-13.06014
503.90625	-1.15493	-1.30853	7.71370	-7.83720
507.81250	2.06842	4.33239	1.26664	-4.88499
511.71875	-6.79610	8.36162	-10.41849	-16.49093
515.62500	-12.23752	7.55570	-10.41861	-22.79105
519.53125	-14.21660	8.36143	-3.56898	-21.89815
523.43750	-13.41568	6.74955	0.46021	-20.24402
527.34375	-20.70734	-1.30918	-7.59859	-26.33681
531.25000	-26.10678	-10.57671	-11.62797	-31.13201
535.15625	-18.79244	-9.36798	-8.80756	-26.37731
539.06250	-16.70642	-6.54759	-4.77839	-21.89818
542.96875	-14.56527	-6.54774	-1.15223	-14.90945
546.87500	-8.50753	-2.92145	0.86228	-9.74647
550.78125	-7.15307	-0.10104	4.08561	-6.72872
554.68750	-6.80588	-1.30995	2.87668	-2.91916
558.59375	-0.27070	-4.13055	2.87656	-0.97723
562.50000	9.25195	-4.53357	7.71165	3.24958
566.40625	13.76787	0.30160	6.09973	6.82844
570.31250	14.63770	5.13668	4.08490	6.85423
574.21875	11.23363	1.51026	-2.36215	-0.76144
578.12500	10.91636	0.70426	-3.16813	-1.03084
582.03125	10.08588	1.51004	4.48742	4.41542
585.93750	0.58468	-0.90771	9.32244	0.41086
589.84375	-1.83460	-3.72834	10.93399	-1.26857
593.75000	1.88433	-6.54903	10.53094	-0.15507
597.65625	2.75405	-4.13156	10.12786	0.91811
601.56250	0.42688	1.91229	4.08378	0.27426
605.46875	-0.51353	3.92686	2.47194	4.43505
609.37500	1.04853	-0.10253	4.48645	9.59211
613.28125	0.60647	-0.10259	2.47168	5.75476
617.18750	-5.01139	3.52373	-3.97535	-0.76083
621.09375	-1.59331	3.52358	-3.57265	2.11100
625.00000	5.63570	-2.11762	0.85939	3.58127
628.90625	2.33288	-3.32654	2.06802	3.96981
632.81250	-2.26934	-0.90906	2.47083	-0.35559
636.71875	-8.75164	-5.74433	-4.37916	-10.08733
640.62500	-11.28616	-8.96787	-2.36467	-6.59115
644.53125	-5.54863	-8.96798	0.85859	1.06488
648.43750	0.80851	-10.17693	-1.96207	5.62846
652.34375	1.31713	-6.55072	-1.96223	5.28870
656.25000	8.86214	-4.53621	-1.96237	14.45105
660.15625	18.89496	-4.93925	-2.76839	28.16619
664.06250	27.17689	-3.32769	-4.38031	32.74060
667.96875	32.33429	-4.13362	0.05180	36.71962
671.87500	31.11057	-2.92490	2.06627	36.79009
675.78125	30.50666	0.29850	1.66317	32.97372
679.68750	32.13783	1.91012	3.67774	32.25036
683.59375	29.26841	1.10421	2.87177	31.31384
687.50000	26.79821	1.50709	2.46871	27.52641
691.40625	30.29784	1.50698	1.25974	28.06668
695.31250	27.17288	0.29807	3.67708	29.37263
699.21875	21.99619	-3.32846	1.66225	29.03882
703.12500	23.69060	-4.53738	-1.96425	33.85008
707.03125	23.68468	-3.32866	0.45318	31.62831
710.93750	19.02550	-4.53750	2.46766	21.42310
714.84375	14.17450	-2.92582	6.09381	17.75869
718.75000	12.64745	-0.10541	9.31708	22.56960
722.65625	9.63669	-0.91135	8.91399	25.43846
726.56250	6.47173	-6.14953	5.69040	16.78037
730.46875	6.56119	-8.16426	1.25807	12.42239
734.37500	5.21403	-2.92625	-1.96549	16.27043
738.28125	4.89973	0.29711	-0.35391	18.08951
742.18750	5.23778	-0.50889	1.66060	15.34511
746.09375	9.00318	-0.50900	0.04873	14.80416
750.00000	10.63319	-0.10616	-3.57791	16.77335
753.90625	7.54582	-0.50920	-2.36928	16.45295
757.81250	14.06593	-1.71801	0.45120	16.01188
761.71875	16.93950	-4.53865	1.25694	15.25587
765.62500	7.90595	-4.94163	-0.75785	11.58794
769.53125	6.66145	-1.31539	-4.38438	11.09943
773.43750	10.69549	2.31086	-3.98158	15.49064
777.34375	9.52546	3.11660	2.06220	17.95843
781.25000	8.88078	2.71358	4.88254	18.72583
785.15625	12.44542	3.51942	2.86776	13.97250
789.06250	9.55328	-0.10704	-0.35585	7.88309
792.96875	1.77091	-3.73350	2.46452	2.10453
796.87500	1.35392	-6.55417	2.06137	-1.04246
800.78125	-2.01538	-7.76306	-4.38572	-0.43245
804.68750	-6.39206	-7.76317	-9.22106	-1.01731
808.59375	-5.27174	-7.36036	-6.40074	-2.55500
812.50000	-0.28909	-2.92826	-1.56570	-1.13940
816.40625	3.65636	-1.31668	3.26943	6.16218
820.31250	-0.43715	-6.55489	2.06051	2.91426
824.21875	-1.06252	-5.34621	-2.77482	-2.76543
828.12500	-1.14840	-1.71993	-2.37214	1.13164
832.03125	0.89066	-1.31718	-3.98403	2.13367
835.93750	3.94471	1.10030	-10.02812	0.49848
839.84375	4.34905	3.51785	-5.99895	-1.44722
843.75000	8.28555	5.93531	0.44779	-2.15646
847.65625	15.47420	11.57626	-1.56709	5.23329
851.56250	16.18947	9.96444	-2.37310	13.13117
855.46875	1.81821	1.90578	6.89408	7.35993
859.37500	-10.22025	-2.52657	10.52029	-1.82516
863.28125	-7.36081	-3.73544	9.31129	2.01356
867.18750	-0.13144	-3.73557	6.89351	4.50127
871.09375	7.73235	-1.31810	4.47586	6.46599
875.00000	7.75579	1.50238	7.69915	4.59417
878.90625	1.38799	2.30812	6.89305	-2.23999
882.81250	3.16951	7.94900	5.28118	1.68375
886.71875	5.21931	6.74008	4.47514	4.56697
890.62500	-0.70801	-2.52742	4.47495	2.28086
894.53125	-3.62531	-5.75091	3.26594	3.49055
898.43750	-0.71534	-5.34811	2.86280	1.74876
902.34375	3.61088	-1.72177	4.47441	3.70146
906.25000	5.33306	-5.34824	2.86250	4.21077
910.15625	4.16449	-6.15420	-1.97279	7.82289
914.06250	7.16424	4.32183	-1.16706	10.50244
917.96875	7.64756	4.32170	-0.36134	8.13638
921.87500	1.61831	-0.91648	-2.77902	8.47020
925.78125	3.02782	-0.51367	-6.00264	9.06450
929.68750	3.41102	1.90383	-10.83803	10.19212
933.59375	5.07139	0.69486	-6.40598	8.71232
937.50000	6.33238	-2.93165	-2.77975	5.65120
941.40625	4.04118	0.29169	-0.36232	5.11230
945.31250	3.13646	5.12671	3.26392	2.19585
949.21875	2.67176	3.51486	1.65197	0.91917
953.12500	4.60333	-1.32051	-1.57166	-0.26435
957.03125	3.40010	-4.14112	-1.57182	0.34708
960.93750	0.40328	-2.52951	0.03979	0.48031
964.84375	-0.79013	-4.14134	-6.40727	0.92257
968.75000	-2.88976	-11.79712	-8.42205	0.94812
972.65625	-1.89406	-7.36493	0.03940	1.30389
976.56250	-3.56450	-2.93277	7.69499	1.50174
980.46875	-6.87760	-5.75337	8.90360	0.21995
984.37500	-6.73944	-3.73888	8.50050	1.61123
988.28125	-4.41070	-2.12734	8.90316	-1.01251
992.18750	-3.54014	-0.11280	4.87369	-1.49028
996.09375	-4.48522	1.09594	2.45597	0.66369
1000.00000	3.55478	2.30463	3.66448	4.73962
1003.90625	7.85063	-0.91897	2.85844	11.10535
1007.81250	6.97128	-1.72496	4.47004	9.93604
1011.71875	6.91795	3.11006	4.46986	7.87280
1015.62500	2.25153	-0.11349	2.45503	3.08052
1019.53125	1.07814	-3.73992	0.84311	-1.66778
1023.43750	4.69944	-3.33712	-1.97752	1.59797
1027.34375	5.46631	-2.53136	-0.36594	5.98125
1031.25000	2.88722	0.28909	1.24568	6.02102
1035.15625	3.35163	3.10951	2.45438	5.94037
1039.06250	4.63169	5.92996	-0.36629	10.41936
1042.96875	7.17571	9.95922	-3.99279	16.19916
1046.87500	4.77187	5.12403	-7.21634	12.90048
1050.78125	0.48517	-2.53175	-5.20180	5.03898
1054.68750	3.24984	-0.92011	4.06544	2.80458
1058.59375	5.75550	1.90029	5.67696	3.13462
1062.50000	6.01057	0.69139	2.45337	-1.50325
1066.40625	7.70587	1.90013	-0.77030	-4.77427
1070.31250	10.18736	4.31766	0.43833	-1.92812
1074.21875	10.40952	3.10877	4.87036	-1.48519
1078.12500	11.30099	3.10870	6.88481	0.66295
1082.03125	8.85881	7.13798	7.28760	4.49746
1085.93750	6.20744	2.70569	3.66106	5.73099
1089.84375	4.99702	-0.92076	-1.17424	5.66320
1093.75000	-2.56617	-1.72669	-0.36856	2.34447
1097.65625	-4.91994	-0.11506	1.24304	3.82047
1101.56250	-4.82959	2.30245	1.64580	3.57952
1105.46875	-6.97882	-2.12991	3.66033	2.50219
1109.37500	-7.43142	-4.14462	3.25736	2.82398
1113.28125	-11.09701	-3.33882	0.83965	0.19540
1117.18750	-9.46218	-0.51841	0.03368	-1.48512
1121.09375	-3.22361	-3.74190	-3.18993	0.58085
1125.00000	-2.84435	-8.98005	-6.81648	2.05108
1128.90625	-4.93834	-3.74201	-3.99615	0.42496
1132.81250	-1.88500	3.51061	1.24180	-1.07998
1136.71875	3.31759	2.70458	2.85332	-0.73859
1140.62500	4.81229	0.28690	0.43561	-1.27179
1144.53125	4.50580	4.71895	-2.78799	-0.46564
1148.43750	-0.01624	-0.11635	-5.20573	-1.94615
1152.34375	-2.32822	-0.92233	-1.98249	-1.48021
1156.25000	1.59027	3.91270	2.44955	0.02637
1160.15625	6.78775	6.33020	1.24056	-0.76407
1164.06250	7.41395	6.73299	-3.59483	1.79561
1167.96875	4.91550	4.31536	-4.80377	7.38622
1171.87500	5.30334	1.09186	-4.40099	8.26253
1175.78125	5.10222	2.70344	-3.19229	4.44606
1179.68750	-0.11651	-0.11721	-2.38657	3.31965
1183.59375	11.11650	-2.13195	9.70127	15.27674
1187.50000	14.28718	7.94116	12.92454	12.29509
1191.40625	-0.34508	9.14977	-1.98396	-2.87895
1195.31250	4.58856	6.73198	-6.81920	-1.97587
1199.21875	10.69385	6.73181	-10.04278	0.51079
1203.12500	10.37373	8.74637	-9.23705	6.12786
1207.03125	7.54739	9.14915	-3.59617	9.14412
1210.93750	0.47065	2.70212	0.43304	3.77405
1214.84375	-5.99198	3.50790	-2.38765	-2.30798
1218.75000	-6.71326	4.71650	-5.61126	-6.36160
1222.65625	-6.50062	2.70170	-3.59680	-4.29861
1226.56250	-3.62161	5.11918	-6.82030	-1.67469
1230.46875	-1.92049	5.52205	-10.44677	-2.00330
1234.37500	-2.05884	4.31318	-8.02925	-2.58740
1238.28125	1.25320	5.11894	-0.77661	-0.36540
1242.18750	6.02345	5.92465	4.86419	1.72530
1246.09375	1.73019	4.31280	2.44645	-1.63618
1250.00000	1.74847	3.90972	2.04335	-2.89044
1253.90625	-0.93595	2.70084	4.05788	-3.61384
1257.81250	-12.14491	-0.11975	0.02843	-4.45796
1261.71875	-11.68897	1.89481	-3.59814	-3.60228
1265.62500	-9.84337	1.49185	-0.37484	-3.64383
1269.53125	-10.68494	1.08886	6.07193	-6.14699
1273.43750	-9.06845	1.08885	7.68355	-11.02316
1277.34375	-11.04434	-4.14930	4.05697	-9.36110
1281.25000	-10.07726	-4.55234	3.65390	-5.77325
1285.15625	-4.90096	-4.14950	4.86260	-1.25910
1289.06250	-2.55497	-0.92617	1.63896	-1.70758
1292.96875	-3.48755	6.32651	-2.39056	-2.65105
1296.87500	1.73657	8.74406	-3.19660	3.87231
1300.78125	7.23173	11.16150	-5.21145	6.49697
1304.68750	3.25791	8.34082	-6.01750	3.49456
1308.59375	-1.26275	3.90843	-4.00306	-0.86358
1312.50000	-0.71233	2.29662	-1.58571	-1.86558
1316.40625	2.02424	0.68473	0.42881	2.21249
1320.31250	2.76587	1.49051	-3.60071	1.78500
1324.21875	-0.68006	1.89327	-0.37745	-1.07420
1328.12500	0.03997	4.31074	8.08391	-0.80355
1332.03125	-2.75616	-0.52462	4.45742	-5.44262
1335.93750	-11.38706	-2.53942	1.23382	-9.89830
1339.84375	-7.75932	2.69857	4.05418	-8.62051
1343.75000	-7.44915	1.48972	2.03939	-6.50924
1347.65625	-13.55720	-0.92801	-2.79590	-13.22202
1351.56250	-12.03610	-0.52521	-4.81071	-14.59148
1355.46875	-10.29007	-0.12231	-1.99036	-10.28933
1359.37500	-6.61418	4.71279	1.63586	-6.17755
1363.28125	-5.76943	8.33917	2.03867	-0.72703
1367.18750	-8.21053	3.50398	-1.99079	-2.67171
1371.09375	-8.80848	3.90682	-8.43787	-5.13946
1375.00000	-6.77066	4.71258	-8.03512	-4.59394
1378.90625	0.15806	1.89200	-5.61779	-5.78729
1382.81250	2.74516	2.29493	-1.99162	-7.10196
1386.71875	-2.45793	1.89191	0.02277	-4.62197
1390.62500	-2.74446	0.68302	0.02249	0.74735
1394.53125	3.60538	2.69758	3.64852	3.97138
1398.43750	5.30636	0.27998	4.45415	7.46741
1402.34375	6.40899	-2.54064	4.85679	9.01690
1406.25000	8.13093	-0.92893	8.07998	12.34643
1410.15625	8.17095	-3.74949	6.46802	15.15246
1414.06250	9.15594	-1.33203	6.87068	12.19077
1417.96875	4.80391	0.27964	1.63237	5.79528
1421.87500	1.59485	1.08538	0.02045	4.11412
1425.78125	1.79542	4.30871	2.43783	7.93158
1429.68750	1.37253	5.92028	-2.80049	6.23844
1433.59375	-2.20534	1.89083	-4.41250	1.53498
1437.50000	-5.37668	0.27899	0.82539	0.89124
1441.40625	-4.44466	4.30812	6.06334	0.35206
1445.31250	-5.75240	5.11376	5.66023	-2.16161
1449.21875	-4.20252	3.90480	2.03373	-0.61789
1453.12500	-4.28566	3.09883	1.22771	-0.99572
1457.03125	-9.92122	4.30749	-5.62230	-11.26357
1460.93750	-19.76793	3.90440	-10.05461	-22.41244
1464.84375	-24.99062	2.69543	-5.21962	-20.35849
1468.75000	-16.61417	11.55973	-1.19051	-11.06569
1472.65625	-29.72106	18.40939	0.82394	-21.58904
1476.56250	-53.14989	15.99175	4.45013	-48.38761
1480.46875	-65.73056	15.58864	5.65868	-64.98091
1484.37500	-78.48627	15.18556	4.44981	-73.66301
1488.28125	-89.85732	17.60306	5.25552	-89.98640
1492.18750	-98.25434	17.60292	9.68760	-100.94055
1496.09375	-100.81131	17.19985	16.53721	-99.18980
1500.00000	-102.84463	18.40854	14.52240	-100.35211
1503.90625	-102.98100	16.39380	14.11929	-103.25398
1507.81250	-101.84568	16.39367	14.92502	-101.19991
1511.71875	-97.06389	16.39350	8.47795	-96.01051
1515.62500	-87.62778	14.37866	8.88069	-90.72961
1519.53125	-81.95132	10.34918	14.11871	-82.18127
1523.43750	-75.50952	4.30510	22.17731	-74.48341
1527.34375	-67.48997	0.27570	18.14787	-69.29439
1531.25000	-53.54894	3.09609	12.10375	-57.16679
1535.15625	-45.83186	2.29011	5.65661	-49.59185
1539.06250	-41.73133	1.08121	2.03006	-46.72475
1542.96875	-29.11415	3.90163	2.43284	-34.90101
1546.87500	-19.43016	-0.93361	-1.59670	-24.09725
1550.78125	-15.65829	-3.35131	-5.22323	-17.45340
1554.68750	-10.07329	-1.33677	-4.01458	-12.03229
1558.59375	-4.34419	2.69239	-5.62643	-8.07592
1562.50000	0.34311	-2.14286	-10.05870	-4.65522
1566.40625	7.27637	-6.57521	-10.86476	1.34110
1570.31250	12.17532	1.88623	-9.65614	4.59007
1574.21875	11.99446	2.28911	-12.47680	4.62995
1578.12500	11.67706	-6.17253	-15.70045	7.58389
1582.03125	15.68167	-8.99313	-8.04495	8.59779
1585.93750	17.46239	-8.18733	-4.82167	7.81658
1589.84375	15.44610	-6.97861	-7.64240	9.76340
1593.75000	15.53857	-7.78464	-5.22501	12.08561
1597.65625	18.42288	-5.77002	-0.79294	19.20264
1601.56250	22.13960	-0.93499	-0.79307	22.18508
1605.46875	26.03426	-4.56154	-6.03128	21.51056
1609.37500	28.80501	-8.59096	-10.86660	20.62338
1613.28125	26.34820	-3.75587	-11.67261	22.42686
1617.18750	28.38600	-0.12961	-6.03171	30.41662
1621.09375	28.17769	-2.14432	-5.22601	32.88549
1625.00000	28.55694	-3.35321	-9.25548	30.72932
1628.90625	29.28345	-2.95035	-6.43516	31.92365
1632.81250	33.54557	0.27299	-5.22656	41.29776
1636.71875	36.33048	-3.75646	-9.25601	42.04204
1640.62500	28.96067	-5.77127	-7.64441	34.65890
1644.53125	25.02767	-0.93630	-6.03281	29.42099
1648.43750	22.52021	-2.54824	-5.22716	25.92575
1652.34375	28.66980	-4.16010	-0.39218	26.39172
1656.25000	29.76778	-5.77192	2.42820	27.89831
1660.15625	21.66868	-2.14572	-1.19842	24.69025
1664.06250	19.47437	3.89805	-0.39278	19.99714
1667.96875	16.17010	2.28619	1.21877	21.96132
1671.87500	15.75211	-1.34033	-5.22831	20.82293
1675.78125	18.77447	-0.93749	-5.63147	18.61812
1679.68750	18.39081	-1.34060	-1.60237	15.87995
1683.59375	13.90946	-0.93782	-2.00546	10.91390
1687.50000	11.43919	-2.95263	-0.39393	7.93223
1691.40625	9.29770	-5.37036	0.81471	8.87530
1695.31250	6.17265	-4.96751	-8.04992	8.16657
1699.21875	7.44277	-5.77346	-11.67651	7.42969
1703.12500	9.13714	-3.35600	-4.02098	6.59985
1707.03125	7.92243	-0.53556	2.02282	6.39255
1710.93750	11.32187	-1.34149	6.05197	9.48392
1714.84375	11.70895	-5.37087	4.84304	7.83399
1718.75000	8.16715	-9.40021	-3.21566	4.58617
1722.65625	7.97675	-5.77389	-7.64805	4.23144
1726.56250	8.03507	1.88163	-2.81297	11.28743
1730.46875	9.33322	-0.13312	-0.39553	16.59966
1734.37500	5.16545	-3.75958	2.02188	14.00069
1738.28125	1.62756	-1.74504	4.03629	9.77561
1742.18750	3.98005	1.88117	2.42430	7.03103
1746.09375	2.91001	1.47809	-3.21702	8.90749
1750.00000	2.92821	2.28377	-1.20254	10.07067
1753.90625	7.89931	6.31295	4.43840	10.95891
1757.81250	1.92849	1.07477	-1.20277	1.65320
1761.71875	-2.85369	-3.76046	-2.81461	-2.32639
1765.62500	-2.21695	-3.35765	-1.60608	6.49635
1769.53125	-0.64105	-2.95478	2.42308	8.02235
1773.43750	0.97540	-6.17831	8.06390	7.57833
1777.34375	1.01402	-13.02824	6.04906	6.82255
1781.25000	5.20447	-9.40194	7.25768	7.58976
1785.15625	4.73966	0.67120	6.45169	9.28330
1789.06250	-6.21112	0.26819	0.00466	3.59668
1792.96875	-11.17311	-6.17884	-1.60726	0.63851
1796.87500	-3.93441	-5.37312	-1.20452	1.52081
1800.78125	3.17246	-1.74686	1.21288	5.35416
1804.68750	9.67480	0.26763	1.61560	5.17220
1808.59375	7.97459	-2.15009	-2.81671	-1.20065
1812.50000	4.49567	0.26740	-0.80224	-2.20271
1816.40625	2.80004	3.89366	-2.81712	-2.55691
1820.31250	-2.90518	3.49068	-8.45834	-3.79020
1824.21875	-2.72488	1.47592	-5.63799	2.61790
1828.12500	-6.03432	-3.35944	-7.24988	4.90318
1832.03125	-5.20425	1.07263	-5.63838	9.12847
1835.93750	-0.94149	3.08710	2.82305	9.91073
1839.84375	-3.76077	-2.15112	2.01705	3.53274
1843.75000	-5.86820	-0.94244	-2.01244	2.82344
1847.65625	-7.14100	0.66910	-0.80383	1.75162
1851.56250	-4.00819	-5.37498	1.61352	-2.43841
1855.46875	0.96133	-6.18096	0.80750	-2.16556
1859.37500	0.20503	-1.74887	0.00149	3.96097
1863.28125	1.45279	-0.94318	3.22481	8.20270
1867.18750	3.84709	-4.16675	2.01587	12.30216
1871.09375	-1.18280	-6.58447	-4.02822	6.20829
1875.00000	-0.35349	-3.36113	-1.61084	0.30716
1878.90625	3.35199	-3.76413	0.40368	1.12875
1882.81250	1.50714	-5.37600	2.01519	1.02320
1886.71875	1.94529	-7.39078	0.00037	1.48884
1890.62500	6.49417	-4.57043	-0.80564	5.24668
1894.53125	5.59144	1.47341	-0.40293	5.24751
1898.43750	-4.39241	0.66734	-3.22359	-2.94116
1902.34375	-0.87208	1.47310	-0.00027	0.22033
1906.25000	7.29688	1.47297	3.22300	5.16176
1910.15625	2.90482	0.26405	0.80519	-1.29942
1914.06250	1.47233	1.87562	-0.00084	0.97716
1917.96875	2.35859	1.06966	-2.82154	3.04331
1921.87500	1.16456	1.47254	-6.85102	1.36238
1925.78125	4.99171	5.90461	-9.67176	3.16537
1929.68750	9.80714	8.72503	-8.86607	7.11349
1933.59375	11.06462	5.50146	-0.80758	11.27477
1937.50000	8.69933	-2.55736	1.20690	5.79603
1941.40625	3.58760	-5.78093	2.81845	1.22778
1945.31250	4.29464	-4.57231	4.43000	1.13181
1949.21875	7.05341	-5.37827	0.80337	0.66101
1953.12500	8.98494	0.66553	4.42958	6.32720
1957.03125	10.60215	6.70935	6.84693	8.95319
1960.93750	5.18775	2.67994	-0.00304	5.45997
1964.84375	-0.43779	3.08276	0.80262	2.67877
1968.75000	-2.13445	1.06800	2.01123	-0.51926
1972.65625	-2.34741	1.06788	2.01106	-1.77520
1976.56250	1.22022	5.09702	4.02560	1.64596
1980.46875	2.74224	6.30569	1.60793	3.99049
1984.37500	1.26865	6.70846	-4.03321	-3.07982
1988.28125	-1.64074	6.70835	-3.22754	-6.10650
1992.18750	-4.39657	3.08193	0.39869	-3.76384
1996.09375	-5.34172	0.66423	1.60725	-5.63929
2000.00000	-7.77789	0.66412	-2.82512	-6.80150
2003.90625	-9.12310	-2.96233	-6.45169	-10.91216
2007.81250	-5.97312	-2.15664	-3.22841	-11.27566
2011.71875	-2.40010	3.88714	-9.27254	-6.89207
2015.62500	0.18624	3.48408	-15.71961	-5.64047
2019.53125	0.22164	0.66337	-7.25822	-5.55370
2023.43750	-1.79815	-3.36610	-0.00568	-6.72036
2027.34375	-0.22562	-6.18675	8.05271	-3.14305
2031.25000	-1.19302	-2.96347	10.06715	-0.68576
2035.15625	-1.13164	2.27445	6.84350	-2.37828
2039.06250	-2.26922	5.90062	3.21696	-6.36099
2042.96875	-4.56047	5.49756	-2.02132	-7.02820
2046.87500	-1.72629	4.28861	-5.64790	-4.28314
2050.78125	3.65720	6.30307	-4.43928	0.74891
2054.68750	6.82464	6.30291	0.79871	7.37868
2058.59375	0.86872	1.87048	1.60443	4.48516
2062.50000	-4.92027	0.66148	-2.82799	-0.15290
2066.40625	-4.43394	-1.35336	-1.61949	3.02276
2070.31250	-2.35541	-0.14475	0.79793	2.24241
2074.21875	-4.95385	5.89903	-0.81394	1.47636
2078.12500	-3.65953	8.31647	3.21519	5.23605
2082.03125	-6.90771	1.46646	0.79738	-2.21168
2085.93750	-11.97678	-3.77180	-10.08191	-7.42514
2089.84375	-5.93451	-2.96604	-9.27622	-2.65785
2093.75000	-7.05083	-3.77198	-0.81483	1.27608
2097.65625	-0.13718	1.46605	5.63184	6.37840
2101.56250	10.02637	2.67467	1.19953	2.10806
2105.46875	9.48885	-6.18991	0.79648	1.03060
2109.37500	13.06546	-0.54905	7.64619	11.82844
2113.28125	6.98227	3.88306	4.42258	7.99088
2117.18750	-6.69428	-3.36981	-0.81568	-3.36005
2121.09375	-4.88800	-0.14646	-0.00994	-2.50299
2125.00000	-1.68836	3.88266	4.01926	-1.03286
2128.90625	-0.55897	3.47958	2.81036	1.77320
2132.81250	2.89733	3.47946	2.00441	1.47703
2136.71875	6.89110	3.88226	2.00426	0.20679
2140.62500	12.01212	4.28512	0.79528	4.10586
2144.53125	12.51151	5.49377	2.80972	5.31487
2148.43750	6.78067	6.29949	2.40665	5.44615
2152.34375	8.90103	4.28475	-0.01113	4.30050
2156.25000	9.99898	3.47877	-0.41432	-1.04279
2160.15625	-2.93526	1.46396	-7.66730	-5.05675
2164.06250	-7.95012	-2.96845	-14.51731	-7.33226
2167.96875	-2.38985	-0.95392	-3.63840	-3.75633
2171.87500	0.01273	1.46355	4.42006	-0.86541
2175.78125	-4.21756	3.07510	3.21108	-0.65257
2179.68750	-8.63037	3.88080	-0.41550	-3.39072
2183.59375	-7.47052	-1.35745	-0.81859	-3.52149
2187.50000	-7.12017	-2.96928	-1.62466	-4.08550
2191.40625	-4.02343	1.46285	-8.87755	-9.99219
2195.31250	1.31325	0.65683	-2.43083	-6.67167
2199.21875	1.77760	-0.14916	5.62758	-2.97627
2203.12500	-1.76603	5.89463	0.79222	-3.40318
2207.03125	-4.18953	0.25349	-2.43146	-4.41623
2210.93750	-3.61061	-11.43164	2.00058	-9.78633
2214.84375	-4.02937	-9.82007	0.38875	-6.19809
2218.75000	-1.52723	-2.16452	-3.64081	2.23908
2222.65625	3.92346	4.68512	4.82051	7.12254
2226.56250	-1.65918	1.05866	4.01447	0.07611
2230.46875	-10.03141	-6.59715	-2.83548	-9.11713
2234.37500	-9.36408	-4.58262	-1.62688	-8.49265
2238.28125	-3.63457	-2.56812	-1.62702	-5.06204
2242.18750	13.62641	1.05810	-0.01542	10.32522
2246.09375	17.39152	-1.76259	1.99905	15.82800
2250.00000	1.29248	-7.00080	10.46049	5.30622
2253.90625	3.04019	-7.00090	12.07211	6.59727
2257.81250	8.75417	-7.00106	8.44559	12.19973
2261.71875	4.37482	-4.98654	6.02776	10.63764
2265.62500	2.19092	-2.56913	8.04216	8.58113
2269.53125	6.99024	-0.95756	9.65369	10.10685
2273.43750	9.00949	-1.36072	4.41536	10.46847
2277.34375	9.85391	-1.36092	5.22095	10.11546
2281.25000	8.00022	-6.59921	4.01193	8.86785
2285.15625	5.52067	-8.21109	-4.04682	3.30851
2289.06250	3.03139	-2.16733	-5.25579	4.06866
2292.96875	0.08396	1.05596	-4.04719	6.75136
2296.87500	-0.73608	-0.95882	-10.09133	2.39539
2300.78125	4.75887	-0.15312	-3.64469	3.40806
2304.68750	8.03766	5.08483	8.44310	10.47875
2308.59375	0.29330	-0.55637	-0.82446	6.12045
2312.50000	-1.17102	-7.80930	-6.06276	-1.32865
2316.40625	0.75952	-5.79479	1.59272	-0.07124
2320.31250	1.50100	-0.95982	4.41310	0.70998
2324.21875	1.68136	1.86053	-1.63107	-2.14941
2328.12500	-2.03098	0.65159	-6.86927	-3.08770
2332.03125	-6.84186	-2.97487	-6.06354	-5.71222
2335.93750	-5.39963	-2.57212	-1.63146	1.51691
2339.84375	-4.59260	-2.97521	-2.84038	-0.42902
2343.75000	-9.52069	-6.19888	-6.86989	-8.79421
2347.65625	-7.97310	-6.60200	-1.63206	-2.61350
2351.56250	-4.03449	-7.40799	-1.63226	-0.75972
2355.46875	-2.28851	-5.39352	-2.03533	-2.90473
2359.37500	-3.44787	-3.78195	-1.22966	-2.41954
2363.28125	-0.58860	-2.97627	0.78482	2.22485
2367.18750	3.82002	0.24699	5.61984	4.71232
2371.09375	-2.41894	-4.99130	1.99338	1.84160
2375.00000	-5.61920	-4.99143	-1.63320	1.58124
2378.90625	-3.92861	-0.96222	-7.27437	1.99958
2382.81250	-0.53550	0.24645	-14.93027	2.29680
2386.71875	-0.90330	-2.17129	-2.43959	-0.46114
2390.62500	-3.20424	-7.81249	11.25994	-1.13554
2394.53125	-4.91284	-7.81266	6.82755	-1.53764
2398.43750	-6.03222	-4.18638	-2.84287	-8.92050
2402.34375	-1.70595	-1.36598	-2.84302	-6.56484
2406.25000	1.22495	2.66315	7.23001	5.22647
2410.15625	0.86218	2.66296	10.05027	10.45025
2414.06250	-6.21127	-2.97820	2.79728	-0.16700
2417.96875	-4.11625	-3.38133	2.79707	0.28741
2421.87500	5.97166	-0.96396	5.21447	8.27670
2425.78125	6.57528	-0.56131	-0.82968	8.87086
2429.68750	2.52627	1.45320	-2.84452	9.99843
2433.59375	-1.45432	-3.38219	-2.03886	1.66883
2437.50000	2.62730	-2.97944	3.60195	2.63699
2441.40625	0.33612	1.85549	2.39304	5.72433
2445.31250	-8.22429	-2.97983	-1.63650	-0.81853
2449.21875	-8.68895	-3.38296	0.78088	-2.09529
2453.12500	-9.98079	-1.36852	-0.02515	-3.68187
2457.03125	-8.76636	-0.96572	0.37767	-2.26459
2460.93750	-8.13678	0.64582	-2.44300	-1.72849
2464.84375	-10.13595	-1.36896	-4.86067	-3.70379
2468.75000	-7.80326	-0.16026	1.58601	-3.27532
2472.65625	-1.16635	0.24257	-0.83173	-3.32247
2476.56250	2.80416	-0.16053	-6.07003	-1.51299
2480.46875	3.52034	3.86867	3.19724	0.02570
2484.37500	-4.40005	0.24222	4.00295	-6.64157
2488.28125	-8.51824	-2.17553	-2.84700	-10.47406
2492.18750	-4.82721	-0.96689	-3.65302	-10.54890
2496.09375	-0.13127	3.86812	-0.83262	-4.76862
2500.00000	-1.35861	5.88267	-3.25039	0.51618
2503.90625	-6.73303	0.24157	-6.07105	-4.40021
2507.81250	-3.58306	-2.17616	-3.25072	-6.37540
2511.71875	5.63100	0.24130	5.21068	1.23161
2515.62500	9.82908	1.85284	3.19588	2.48318
2519.53125	7.44704	-0.56489	-4.45997	-2.66812
2523.43750	1.80098	-3.78836	-2.84835	-4.23753
2527.34375	11.43227	-2.98262	-0.02801	1.35453
2531.25000	17.31474	3.06123	-0.43110	-4.64962
2535.15625	6.90002	9.91095	-3.25177	-17.22117
2539.06250	10.19478	13.53728	-5.26664	-15.15978
2542.96875	6.29188	11.11961	-0.83456	-14.61810
2546.87500	-1.75311	8.29902	3.19457	-15.09640
2550.78125	-1.20470	6.68716	3.59728	-9.25843
2554.68750	-1.26057	3.46371	3.59705	-5.04607
2558.59375	4.87154	4.26949	3.19396	-1.89548
2562.50000	4.72373	7.89573	2.38796	2.73406
2566.40625	-0.43072	9.10438	-1.23862	-0.93990
2570.31250	0.43902	5.88076	-4.86509	-2.92891
2574.21875	0.25824	-2.17801	-6.07401	-4.50066
2578.12500	0.74679	-3.78988	0.37276	-2.75549
2582.03125	0.31917	1.04509	-0.03032	-2.54744
2585.93750	-3.13823	1.44786	-1.64224	-6.55216
2589.84375	-1.93118	2.25353	-6.07459	-2.59075
2593.75000	4.20527	4.26802	-9.29823	3.76073
2597.65625	3.86607	1.44737	-1.23983	3.62488
2601.56250	1.94166	-0.56752	1.58051	-3.06312
2605.46875	4.22462	0.23823	2.78913	-6.15531
2609.37500	-0.66030	-3.79120	3.59487	-6.63957
2613.28125	-0.69953	-3.38847	2.78892	-2.82145
2617.18750	3.35290	2.25243	6.81802	5.97414
2621.09375	0.32412	3.86400	7.22077	7.23420
2625.00000	-0.10250	-0.16545	4.80301	3.46625
2628.90625	-1.79363	-4.19489	2.78826	3.85470
2632.81250	-3.17248	-2.58332	-0.03234	5.57316
2636.71875	0.01538	-1.37465	-3.25591	4.30269
2640.62500	-0.10160	1.84869	-3.25606	-0.25991
2644.53125	0.39776	7.08668	2.38482	-1.06558
2648.43750	-3.31839	3.46019	-1.24175	-4.56087
2652.34375	-3.21269	1.04243	-5.27120	-2.88620
2656.25000	0.70575	0.23641	-2.45087	1.03781
2660.15625	1.06812	-1.37553	-3.65987	1.45606
2664.06250	2.09714	-2.58450	-8.49525	0.38924
2667.96875	4.43382	-0.16706	-2.45149	0.74168
2671.87500	4.01576	2.25036	-0.03404	3.22949
2675.78125	0.99410	0.23555	-4.46644	1.42750
2679.68750	-0.59833	-0.97336	-1.24312	3.92732
2683.59375	0.96438	-3.79399	1.17434	7.82575
2687.50000	2.92635	-5.00291	1.98000	8.06748
2691.40625	4.81425	-3.79421	-0.43782	6.99580
2695.31250	10.55370	0.23497	-4.87022	3.46646
2699.21875	14.64430	10.71099	-8.49681	4.34109
2703.12500	8.68291	10.71079	-11.31748	3.51103
2707.03125	4.24481	3.86078	-12.52646	-2.74033
2710.93750	-0.41436	1.04017	-6.48271	-4.48415
2714.84375	-0.83320	3.45767	1.57571	-8.55184
2718.75000	-0.74881	3.45756	3.99315	-8.97937
2722.65625	-4.16276	0.23398	1.17248	-2.88740
2726.56250	-0.47826	1.84557	0.36645	-1.87561
2730.46875	-4.82149	-3.39261	-9.70698	-8.24865
2734.37500	-10.60138	-5.40739	-14.13935	-9.23634
2738.28125	-2.05166	2.24814	-7.69263	-4.59732
2742.18750	0.70349	5.87440	-10.51327	-6.93929
2746.09375	-6.41071	3.45678	-10.11044	-8.28665
2750.00000	-6.39274	6.27714	-4.46967	-0.67681
2753.90625	-6.25703	7.08284	-0.03768	-0.59482
2757.81250	-8.19893	1.44167	1.17088	-3.05115
2761.71875	-4.92276	0.63554	6.00578	-0.98710
2765.62500	-1.46582	-1.37932	5.19970	0.17970
2769.53125	3.73622	-1.78238	2.78189	1.30243
2773.43750	4.94944	-0.57382	2.78164	1.26094
2777.34375	6.59954	-4.20036	1.97550	3.72827
2781.25000	9.58098	-4.60350	-1.24820	5.30108
2785.15625	4.68387	-0.57436	-4.47183	7.39732
2789.06250	-2.23762	-0.57457	-4.06903	7.75452
2792.96875	-5.99080	-5.00705	-0.03994	0.36407
2796.87500	-1.97543	-2.18684	0.76566	1.64931
2800.78125	6.34050	1.84217	-0.04047	11.52681
2804.68750	7.20220	-2.18738	2.37683	12.55382
2808.59375	3.08473	-5.41110	8.01751	6.58420
2812.50000	3.23255	-5.00845	9.22599	0.34436
2816.40625	0.32859	-6.21752	6.80810	0.79639
2820.31250	-2.55575	-4.60607	5.59902	2.38400
2824.21875	4.87787	1.84056	-1.25105	7.58371
2828.12500	4.79234	2.24327	-11.72751	4.22832
2832.03125	-0.42099	-5.00964	-7.29554	-2.42510
2835.93750	-5.82809	-9.03911	-0.44602	-8.49221
2839.84375	-6.22937	-9.44229	2.77723	-9.22890
2843.75000	-1.08388	-12.66592	3.58284	-5.10290
2847.65625	3.28442	-11.05430	1.16509	-3.35422
2851.56250	4.40267	-5.81638	-2.86441	-1.50031
2855.46875	2.52227	-4.20487	-4.07341	-4.85407
2859.37500	-1.05471	-1.78748	-2.05895	-3.96597
2863.28125	0.19282	0.62986	-0.85032	3.90177
2867.18750	3.79557	1.03272	-1.25338	5.98634
2871.09375	8.43562	5.06192	-2.46229	9.56244
2875.00000	9.26463	5.86767	-3.67119	6.48152
2878.90625	-1.13278	-2.99687	-4.47713	-7.60574
2882.81250	-7.00724	-9.44393	-2.46263	-12.54684
2886.71875	-8.98699	-11.86169	-7.70087	-14.09620
2890.62500	-2.02081	-11.05592	-6.49217	-13.56208
2894.53125	5.13494	-4.20624	-1.25419	-5.90589
2898.43750	3.61239	4.25519	2.77502	0.41061
2902.34375	1.89439	5.86676	5.19255	-2.87506
2906.25000	-3.23360	2.64317	-0.44859	-5.58956
2910.15625	-1.98491	1.43431	3.17771	0.84272
2914.06250	-3.41752	-2.19219	6.40106	2.31319
2917.96875	-6.96375	-2.19230	-0.04595	2.76736
2921.87500	-2.11414	-1.78949	-2.06066	2.29487
2925.78125	-1.91368	-4.61018	-1.25487	-3.96104
2929.68750	-0.32194	-0.98390	-2.86663	-1.62502
2933.59375	3.35279	-0.17815	-7.29896	1.32707
2937.50000	4.61362	-1.78997	-6.09030	-2.54030
2941.40625	-0.49836	-2.19308	-4.07574	-3.07952
2945.31250	-1.40321	0.22437	-2.46411	-0.75812
2949.21875	3.36994	4.65640	1.96809	-3.24382
2953.12500	3.28661	4.65622	1.96802	-8.45707
2957.03125	1.68020	3.44731	0.35625	-6.23424
2960.93750	5.93581	4.65592	2.77368	2.36013
2964.84375	6.75688	4.65580	2.37067	6.02553
2968.75000	11.50684	5.86446	2.37057	6.45362
2972.65625	12.09943	4.25261	1.96751	6.40611
2976.56250	2.77293	-0.17981	-10.12049	-1.45514
2980.46875	4.69760	0.22300	-8.91191	-3.14025
2984.37500	9.26781	2.64045	5.59338	3.48877
2988.28125	9.17866	0.62570	9.62256	2.47651
2992.18750	3.60195	-5.82127	7.60773	-0.82213
2996.09375	5.47707	-8.23902	8.01045	-5.11544
