 	TP9	AF7	AF8	TP10	
-1000.00000	2.01690	8.53378	3.54751	-7.83103
-996.09375	5.64328	10.14544	5.96538	-3.13808
-992.18750	-1.60949	5.71321	8.38322	-10.48714
-988.28125	-5.63882	-2.34549	6.77170	-8.38704
-984.37500	-1.60959	-1.53960	5.96607	-6.34195
-980.46875	0.80796	4.50441	1.13114	-9.22794
-976.56250	2.82261	4.50452	-4.10670	-4.74791
-972.65625	-2.01260	1.68413	-4.10648	-1.03304
-968.75000	-7.25073	0.47541	0.32597	-1.28452
-964.84375	-5.63899	1.68433	5.56422	-3.00600
-960.93750	-2.81849	7.72838	8.38498	1.47187
-957.03125	-2.41554	6.51967	5.96759	4.15238
-953.12500	-2.81848	4.10216	2.74435	-2.04058
-949.21875	-4.83312	1.28173	1.13284	-6.29367
-945.31250	-3.22143	-2.34459	1.93887	-6.14721
-941.40625	-1.20681	-3.95626	4.35661	-3.53921
-937.50000	-1.60971	-4.76213	-0.88134	-5.44965
-933.59375	8.06065	7.32580	-0.88113	-5.44745
-929.68750	5.24016	13.36986	-0.47802	-6.08515
-925.78125	-4.83307	7.72897	-5.71594	-6.50027
-921.87500	-4.83312	1.28211	-2.08936	0.31265
-917.96875	1.61372	0.47629	5.56645	4.72316
-914.06250	8.46350	6.92324	7.98429	7.68820
-910.15625	8.46345	10.54964	2.74641	10.22438
-906.25000	4.83702	6.11742	3.14956	5.60422
-902.34375	-2.81871	-5.56744	5.16446	-1.07984
-898.43750	1.21053	-1.53812	3.95588	2.43408
-894.53125	4.83686	10.95267	3.15022	7.55293
-890.62500	-1.61008	7.72921	1.94166	2.74934
-886.71875	-5.63939	-0.32939	1.94191	-8.11263
-882.81250	-6.44531	-2.74703	3.55380	-10.94517
-878.90625	-5.63956	-3.95580	3.55400	-6.67874
-875.00000	-7.65426	-5.16453	0.73370	-5.04442
-871.09375	-4.43083	-5.97030	4.36033	-8.76186
-867.18750	1.61314	-3.95555	7.98692	-4.93989
-863.28125	0.80738	0.87972	3.55490	-0.27677
-859.37500	4.03087	1.28277	4.76390	2.36312
-855.46875	1.61339	-1.53768	10.00221	-0.28471
-851.56250	-1.20707	3.29753	10.00246	-8.58979
-847.65625	-0.80402	3.70057	6.37632	-4.61975
-843.75000	-4.43029	-0.32863	2.75006	-1.31303
-839.84375	2.82253	1.68612	1.94441	-0.66385
-835.93750	-5.23610	-2.74608	1.94463	-1.13323
-832.03125	-4.43022	-4.35776	7.58589	0.44981
-828.12500	8.06064	-1.94005	1.54207	2.92260
-824.21875	3.22547	2.89517	-6.91923	2.46216
-820.31250	1.61379	6.52165	-2.08391	0.75595
-816.40625	1.61378	0.47775	-3.69551	-6.78363
-812.50000	1.21081	-2.34280	-1.68069	-7.82885
-808.59375	0.80796	-4.76028	1.54301	-5.27754
-804.68750	2.01677	-4.35730	3.15502	-4.66856
-800.78125	4.03144	-4.35722	5.57279	-1.84334
-796.87500	-1.20671	-7.98347	0.73783	-3.93855
-792.96875	2.41963	-0.73065	3.55853	-0.78325
-789.06250	5.64302	3.29871	4.76752	-1.01209
-785.15625	-2.01277	0.88122	4.36478	-2.56191
-781.25000	0.80780	-0.73035	5.17088	-0.81168
-777.34375	1.21068	-6.77420	-2.08160	-10.73137
-773.43750	4.03112	-10.40053	-3.69316	-15.88227
-769.53125	4.83702	-8.38577	-3.69297	-9.25935
-765.62500	0.40480	0.07590	-8.12492	-7.73964
-761.71875	-1.60983	2.09063	-5.30420	-13.88216
-757.81250	-4.43030	0.88191	-0.06585	-17.89502
-753.90625	-0.40104	0.88199	1.54610	-15.24547
-750.00000	1.61358	3.29969	2.75512	-9.86813
-746.09375	3.22526	5.31438	4.36709	-9.32373
-742.18750	1.21058	4.10553	3.15851	-9.63119
-738.28125	3.62820	7.73198	-2.48228	-6.89689
-734.37500	6.85172	10.14964	-2.48203	-3.70468
-730.46875	-0.80395	2.09112	-4.89940	-5.65476
-726.56250	-7.25087	-1.93810	-4.89920	-6.91210
-722.65625	-4.02747	1.68838	-1.67560	-11.83660
-718.75000	0.40470	1.28549	-7.31641	-12.39174
-714.84375	16.11895	5.71780	-3.28696	5.04328
-710.93750	8.46319	2.49438	-0.86917	-1.04704
-707.03125	-10.07167	-5.56420	-3.28654	-10.98112
-703.12500	-10.47468	-1.13197	2.75764	-8.41532
-699.21875	-6.44530	6.12084	5.57835	-8.19236
-695.31250	-5.63938	7.73264	7.59327	-5.92189
-691.40625	-7.65401	4.10626	5.98173	-10.54539
-687.50000	-8.45991	2.49461	8.80241	-5.00938
-683.59375	-11.28043	0.47998	7.19086	-6.62412
-679.68750	-11.28044	-7.98151	0.34125	-13.64294
-675.78125	-7.25108	-14.02533	-0.46442	-5.97585
-671.87500	0.40464	-2.74323	2.35638	0.10412
-667.96875	-4.02763	2.09190	-2.88146	-6.32180
-664.06250	-6.44519	4.10656	-2.88125	-8.07885
-660.15625	-8.05697	4.50954	-0.06056	-11.42163
-656.25000	-11.68336	2.09197	-1.67209	-14.45787
-652.34375	-8.86292	4.91257	-0.06011	-11.40094
-648.43750	-3.62480	4.91270	0.74592	-9.27465
-644.53125	-0.40134	5.31572	1.14902	-5.52987
-640.62500	-2.01314	-3.54868	6.38729	-3.14476
-636.71875	-1.20732	-9.18966	13.64025	2.07537
-632.81250	3.22491	-5.16032	10.81989	1.28058
-628.90625	2.41901	-1.53386	5.17912	-0.56918
-625.00000	2.01602	0.07791	5.98520	1.01905
-621.09375	8.06006	7.73364	2.35907	3.52680
-617.18750	4.03075	9.34534	-2.47594	1.31572
-613.28125	-2.41604	5.31610	3.56822	0.68110
-609.37500	-10.87753	0.48105	5.98606	0.45800
-605.46875	-19.33905	-2.33945	3.16578	-4.95355
-601.56250	-10.07165	-4.75696	6.79233	0.53029
-597.65625	1.21039	-8.38336	9.61310	3.81220
-593.75000	2.82210	-1.13061	4.77805	5.74288
-589.84375	0.00152	6.52514	1.95775	6.30172
-585.93750	1.21031	5.71935	0.74923	-0.07944
-582.03125	-2.81900	3.70471	3.97296	-2.46910
-578.12500	-12.08636	0.88417	-0.45904	-13.00129
-574.21875	-9.26590	-1.53335	-3.68228	-16.97397
-570.31250	-2.01324	0.07837	4.77950	-12.85108
-566.40625	-4.43081	4.51067	11.62958	-12.16214
-562.50000	-7.25137	7.33121	11.62980	-9.10313
-558.59375	-3.22212	3.30191	8.40655	-7.22297
-554.68750	-3.22214	-0.32438	2.36279	-7.83267
-550.78125	-7.25146	4.10791	0.34836	-12.27042
-546.87500	0.40415	8.54018	1.15438	-8.96740
-542.96875	6.85098	9.74899	3.16919	1.17297
-539.06250	12.08908	11.36073	7.19869	6.23595
-535.15625	13.70080	6.12265	3.16960	-0.27384
-531.25000	14.10376	-0.32419	-1.26238	-4.84550
-527.34375	21.75942	4.10807	-2.47089	2.65567
-523.43750	18.53593	5.71996	-6.09699	6.19388
-519.53125	10.88023	-5.15909	-0.05284	4.80806
-515.62500	7.65679	-11.60594	1.96202	0.46691
-511.71875	6.44804	-4.35316	2.36522	2.98230
-507.81250	1.61293	-1.53258	7.20065	2.15920
-503.90625	8.05982	4.51139	11.23012	13.20836
-500.00000	12.08912	14.98758	9.21560	21.93262
-496.09375	-2.81925	14.98762	2.36603	0.43500
-492.18750	-8.05719	9.34669	-0.85714	-5.70514
-488.28125	-4.02777	2.89991	-6.90080	-2.79907
-484.37500	-4.43061	0.07952	-7.70645	-8.40955
-480.46875	3.22506	3.30304	-0.45347	-5.25158
-476.56250	6.85151	3.70605	1.96432	-3.18921
-472.65625	3.22514	3.30321	-1.25895	-3.10075
-468.75000	-1.20714	3.30333	-2.46757	-6.17291
-464.84375	-3.62474	7.33276	3.57657	-5.47697
-460.93750	-0.40133	10.15337	6.39734	-3.81982
-457.03125	-1.61017	2.49780	1.96527	-11.21279
-453.12500	-0.80432	-0.72557	-2.46682	-11.36200
-449.21875	0.00155	-1.12840	-4.07834	-7.15358
-445.31250	-1.20723	-1.12830	-1.66061	-0.96326
-441.40625	1.21041	-2.73995	1.56304	0.43590
-437.50000	1.21045	-2.73987	-2.46607	-5.90677
-433.59375	-6.44513	4.11004	-6.49517	-3.48713
-429.68750	-8.45983	2.49849	-8.91255	1.11313
-425.78125	-1.60999	1.28981	-5.68889	2.71251
-421.87500	-3.22173	2.49872	5.59336	-4.98012
-417.96875	-5.63928	0.88705	6.39947	-12.65764
-414.06250	3.22514	3.30471	2.37040	-8.48392
-410.15625	10.07501	1.69311	0.35602	-5.14190
-406.25000	0.00170	-0.32146	-2.86720	-7.34462
-402.34375	-4.02764	-0.72438	-3.26996	-7.58197
-398.43750	1.61343	1.29033	-4.88147	-2.45640
-394.53125	-0.40117	8.94607	-4.07542	1.05061
-390.62500	-2.41585	6.12550	-2.46354	2.29083
-386.71875	-0.80413	-0.32132	-2.86622	-1.72139
-382.81250	1.21060	4.51393	3.17796	-1.33053
-378.90625	0.80777	-2.73869	-3.26867	-3.51092
-375.00000	1.61368	-10.39429	-8.50651	-7.51763
-371.09375	3.22548	-2.73844	-4.07402	-5.59397
-367.18750	-4.02716	-3.54415	-7.29722	-10.63647
-363.28125	-4.02711	0.08223	-8.10286	-8.39101
-359.37500	1.61393	6.12622	-8.10263	2.71038
-355.46875	4.43438	8.54390	-8.90827	2.88299
-351.56250	6.44902	10.15569	-2.46109	0.21882
-347.65625	3.62854	6.12649	1.56848	0.96537
-343.75000	0.00215	4.51493	1.56875	0.24261
-339.84375	8.46368	4.91792	3.58366	2.10048
-335.93750	9.67240	0.48576	0.36050	-0.78670
-332.03125	-2.41560	-5.15521	-5.68329	-8.47132
-328.12500	0.80772	-3.54335	-0.04203	-7.61043
-324.21875	-0.80419	1.29191	7.21093	-4.84762
-320.31250	-6.04248	6.12714	3.18184	-3.73355
-316.40625	3.22466	10.15645	7.61429	3.63497
-312.50000	4.83619	10.15648	12.85256	6.61880
-308.59375	-3.62556	5.72437	10.43524	-2.91818
-304.68750	0.40359	2.09806	6.00325	-4.72706
-300.78125	5.23870	-2.73695	-4.47265	-3.51375
-296.87500	4.02985	-8.37783	-10.91931	-1.98280
-292.96875	-0.80540	-9.98936	-14.94842	-6.08045
-289.06250	-6.04362	-5.15410	-15.75408	-11.95043
-285.15625	-5.23791	-1.52757	-9.30695	-12.69452
-281.25000	0.00012	2.09892	0.36366	-9.73565
-277.34375	8.86456	5.32249	8.42251	4.11739
-273.43750	-0.40291	-0.72137	10.03444	-1.43654
-269.53125	-12.89384	-6.36234	10.84053	-12.13973
-265.62500	-8.05880	-4.34757	10.84078	-4.17331
-261.71875	-0.80619	-0.72102	10.43818	-1.45157
-257.81250	-6.85028	0.08494	2.78280	-9.09096
-253.90625	-10.87975	-2.73545	-3.66381	-11.67970
-250.00000	-1.61256	-2.33246	-3.26056	-7.10823
-246.09375	-0.00105	0.48816	-6.08079	-6.16103
-242.18750	-6.44798	-1.52638	-8.09517	-12.91549
-238.28125	-12.08910	-6.36146	-4.06557	-15.82238
-234.37500	-10.47748	-10.79357	-1.64772	-17.06256
-230.46875	-7.25413	-11.19646	-3.66210	-16.59521
-226.56250	-5.64251	-4.74950	0.36750	-13.42050
-222.65625	-7.25435	4.92086	8.42634	-3.83959
-218.75000	-8.06025	3.30924	6.81487	0.44032
-214.84375	2.01287	0.48880	6.00933	-1.46549
-210.93750	10.87722	8.54746	10.03893	8.15836
-207.03125	2.81850	4.51825	2.78648	4.26818
-203.12500	-5.24028	2.50371	0.36923	0.78983
-199.21875	-0.80815	2.90665	-0.83931	7.45947
-195.31250	0.40054	-1.12260	-2.45079	4.08864
-191.40625	4.42973	4.11562	6.41401	1.47972
-187.50000	6.04125	2.50398	4.80249	-1.04308
-183.59375	2.81766	-1.92822	3.99685	2.58012
-179.68750	4.42924	2.50414	6.41467	4.02274
-175.78125	4.83213	6.13057	7.22071	-4.83047
-171.87500	-3.62946	3.71309	5.60920	-9.62976
-167.96875	-4.03245	0.89264	3.59485	-3.56493
-164.06250	3.22029	2.90737	5.60979	1.52777
-160.15625	-0.40606	2.90744	-0.83676	-3.42690
-156.25000	-8.46471	0.89286	-2.44825	-8.47793
-152.34375	-5.64415	2.90756	0.77542	-5.42116
-148.43750	3.22024	4.92223	-0.83608	-0.47449
-144.53125	8.45833	4.92232	5.61100	3.67308
-140.62500	6.44367	-0.31558	8.02886	-0.79164
-136.71875	4.02602	-6.76241	4.80561	-2.42144
-132.81250	9.26412	-2.33014	4.40292	6.45407
-128.90625	7.24949	4.92272	5.61189	6.61894
-125.00000	4.02601	7.74337	3.19456	-1.86616
-121.09375	4.02589	1.29653	1.98597	-4.59670
-117.18750	8.45811	1.69956	6.41845	4.47414
-113.28125	6.04060	0.89373	1.98640	7.06287
-109.37500	3.22020	0.08793	-1.23684	6.43671
-105.46875	-0.40601	0.49090	-4.46005	6.26322
-101.56250	-0.40588	-1.12086	-4.86275	6.91188
-97.65625	8.86172	-1.12078	3.19601	13.82023
-93.75000	6.04139	-4.74695	1.58444	9.70701
-89.84375	8.45919	4.52057	4.80807	9.46006
-85.93750	11.68287	14.59392	6.01704	13.95808
-82.03125	2.41570	5.72958	-4.86187	3.91285
-78.12500	-0.00170	0.89444	-7.27922	0.63345
-74.21875	-0.00149	5.72969	-3.65257	3.91369
-70.31250	-4.03065	4.11794	-2.84639	1.99280
-66.40625	-5.23941	0.49156	-0.83152	-0.13881
-62.50000	-0.80709	-1.52312	5.61552	2.92021
-58.59375	8.46040	2.50624	8.43631	11.65029
-54.68750	14.90736	6.53565	8.83945	15.47279
-50.78125	14.90742	7.34157	7.63099	16.67614
-46.87500	7.25176	4.11822	4.40786	10.71198
-42.96875	7.25178	6.53595	4.40815	2.72065
-39.06250	9.26647	7.34188	2.79664	5.76913
-35.15625	2.41676	2.90970	-4.05289	6.91502
-31.25000	-0.80664	2.50687	-0.42630	7.58149
-27.34375	-2.82123	0.08934	6.02087	3.80062
-23.43750	2.81990	1.29827	4.40946	7.74181
-19.53125	4.43161	4.52181	3.20092	13.20580
-15.62500	3.62576	6.13353	1.99237	9.26751
-11.71875	8.05803	7.34240	6.82776	10.57397
-7.81250	6.04330	5.32785	8.43972	14.18300
-3.90625	2.01401	-1.11893	-0.82747	12.33844
0.00000	-6.85044	-6.35695	-8.88590	3.33373
3.90625	-10.07388	-3.53633	-8.07975	-0.43508
7.81250	-3.22407	-3.13333	-2.43851	3.90078
11.71875	-2.82116	-1.11861	2.39691	4.38900
15.62500	-0.00067	7.34307	3.20297	6.03110
19.53125	5.23747	7.34324	3.60609	5.56264
23.43750	14.50492	2.91110	4.81514	7.22197
27.34375	17.32547	6.53755	6.83003	17.78651
31.25000	10.07266	6.13461	4.81560	14.71429
35.15625	9.66967	4.11998	-2.43691	4.93400
39.06250	8.86377	6.53765	-5.25712	1.75597
42.96875	6.84910	6.13478	0.38419	8.06271
46.87500	3.62562	3.31439	1.19026	11.13703
50.78125	0.40218	-2.32650	-4.04758	6.88393
54.68750	4.02861	-3.13218	0.38491	7.03029
58.59375	1.20817	0.89724	1.59388	6.41481
62.50000	7.65515	6.53838	3.20584	12.96585
66.40625	15.71381	1.70332	3.20602	12.16211
70.31250	9.66989	1.70342	-1.62900	10.31550
74.21875	6.84940	8.15034	-1.62874	15.94420
78.12500	6.84940	2.50943	-1.62844	11.07207
82.03125	0.40254	0.89780	-3.23989	9.03549
85.93750	2.82017	7.74777	-6.86604	10.38869
89.84375	8.46111	5.73318	-4.44834	9.29840
93.75000	8.86407	-0.31068	0.38706	7.90154
97.65625	8.46115	-2.32535	-2.03032	7.26135
101.56250	10.07302	-0.31060	-5.65647	10.77521
105.46875	9.26725	2.91290	-4.44739	14.28228
109.37500	2.01459	0.89836	-5.25300	11.09029
113.28125	-4.02929	-4.74254	-3.23814	1.03398
117.18750	-4.43209	-1.92196	4.82067	1.02186
121.09375	0.40316	3.71922	7.23855	11.33221
125.00000	4.43243	4.92813	6.83588	10.54893
128.90625	3.62648	4.52536	4.41862	1.59328
132.81250	3.62643	2.10783	-0.41627	0.17701
136.71875	7.65570	1.30209	3.21042	10.48100
140.62500	7.25275	0.89929	-0.41572	16.74719
144.53125	-2.01463	-5.54743	-11.29454	4.83189
148.43750	-0.80586	-1.51806	-1.22104	3.37645
152.34375	-0.80584	2.51132	5.22615	3.72002
156.25000	-6.04385	-4.33843	2.80891	-1.43486
160.15625	-8.05839	-5.94998	2.00342	-2.80042
164.06250	-10.47597	-2.32349	-0.41387	-0.85233
167.96875	-6.44666	1.30304	2.00399	11.20666
171.87500	-1.20864	0.90019	2.40720	14.08222
175.78125	3.62658	-1.51732	-2.83068	11.20407
179.68750	7.25297	-0.30845	-5.65098	13.12402
183.59375	4.02954	0.49752	-2.42725	9.21070
187.50000	4.02952	-1.91994	-4.44169	5.74777
191.40625	3.62660	2.10950	-3.23269	5.47831
195.31250	1.20901	2.91546	2.40860	6.89295
199.21875	4.02954	1.70687	-2.02337	5.28574
203.12500	4.02960	-0.71055	-3.23186	6.41392
207.03125	-2.01430	-3.93383	1.20067	8.36037
210.93750	-3.22303	-2.72486	1.60383	5.31105
214.84375	7.25332	3.72220	2.41000	8.19361
218.75000	14.10325	6.94576	2.81312	10.74966
222.65625	6.85050	9.36340	-2.02181	4.05330
226.56250	6.85052	14.19873	-2.42449	0.51406
230.46875	14.10327	16.61642	0.79924	2.30176
234.37500	8.86513	10.57264	-0.00638	-3.83437
238.28125	3.62702	1.30543	1.20267	-8.36531
242.18750	4.83579	0.90260	2.41171	-4.31981
246.09375	2.41810	-3.12662	-2.82615	-6.50567
250.00000	-0.40253	-3.12653	-2.02010	0.08035
253.90625	-2.82026	-0.30586	0.39769	7.87721
257.81250	-5.64090	-9.57321	-3.63146	5.95774
261.71875	-2.82055	-12.79647	-2.82531	5.46829
265.62500	-0.00019	-5.14072	-5.64561	6.24258
269.53125	-1.61201	0.90331	-13.70398	5.90400
273.43750	1.20836	3.32101	-4.83926	-0.59173
277.34375	3.22293	1.70941	6.04002	-1.48710
281.25000	6.84929	2.91822	2.81673	4.00153
285.15625	12.08736	7.75354	-1.61535	8.54265
289.06250	6.84927	5.73900	-2.42098	6.88437
292.96875	9.66977	4.93319	-0.00317	11.05275
296.87500	13.69910	1.30698	2.41465	17.64776
300.78125	12.49032	-0.30456	-0.40569	15.05013
304.68750	18.13137	9.36588	3.22089	17.72329
308.59375	13.69916	6.14260	3.62399	15.92021
312.50000	9.26694	-4.33348	-2.82262	11.38285
316.40625	10.47574	-1.91578	-1.21073	10.97684
320.31250	10.47578	1.71069	3.22165	7.98721
324.21875	5.23777	1.71075	6.84809	8.40139
328.12500	1.61149	3.32254	6.44536	10.04893
332.03125	0.40270	0.09920	2.01332	1.60821
335.93750	2.82031	-1.51239	4.02818	2.67156
339.84375	0.40270	-0.70646	2.41667	6.58125
343.75000	0.40266	2.11410	4.43150	5.55942
347.65625	4.43189	0.90537	5.64041	4.58678
351.56250	-2.01508	-8.36197	-1.20923	-4.16633
355.46875	-1.61217	-4.33261	-0.00026	0.38409
359.37500	6.44638	5.33783	4.83508	10.02186
363.28125	6.44640	-7.15292	2.41775	3.95987
367.18750	4.02878	-13.59973	-3.22311	-2.07305
371.09375	6.84928	-1.10882	0.40349	2.92683
375.00000	7.65513	2.11471	4.83591	8.94719
378.90625	2.41708	-3.92911	5.23910	13.46953
382.81250	4.02878	-1.10850	7.25398	14.48186
386.71875	8.86397	9.77073	6.85122	13.84712
390.62500	-1.20932	5.74153	1.21045	9.19164
394.53125	-4.83570	1.71232	1.61354	4.98871
398.43750	2.41701	2.11530	4.83719	7.65184
402.34375	-2.01524	0.90661	4.03161	2.47208
406.25000	-4.43275	3.32434	5.24068	-2.04437
410.15625	0.40241	6.14497	4.03211	-2.69444
414.06250	-0.40345	5.74224	-0.39994	-6.65827
417.96875	-1.61226	-0.70450	2.01788	-3.00414
421.87500	-2.01523	0.90728	2.01812	-4.26920
425.78125	-4.02989	4.13080	0.00370	-9.45085
429.68750	-2.41816	4.53382	1.61562	-6.93986
433.59375	-2.01537	6.54849	0.00411	-7.45998
437.50000	-0.00078	6.54853	-1.60746	-6.01286
441.40625	0.40212	2.51931	-5.63654	-4.13284
445.31250	3.62551	1.31059	-5.23337	0.09244
449.21875	12.08697	-1.10695	-0.80089	10.16007
453.12500	12.08683	1.31069	1.61688	9.03081
457.03125	10.47494	7.75766	-1.20336	7.08317
460.93750	12.89248	3.72848	-10.47051	6.90801
464.84375	14.10127	-0.70366	-10.47026	6.44209
468.75000	18.93641	-2.31532	-3.21726	13.15240
472.65625	21.75686	-3.52398	-0.39654	13.80357
476.56250	20.95096	0.10242	3.23009	18.95340
480.46875	23.36852	2.52006	6.45380	22.80557
484.37500	15.30985	-1.91219	2.82766	14.03209
488.28125	11.68336	-7.95613	-0.79850	11.30914
492.18750	10.47453	-7.95606	-3.21594	16.12692
496.09375	12.89213	-0.70322	-2.40993	22.34089
500.00000	21.75656	2.52033	4.03716	23.81234
503.90625	20.14492	0.50579	10.08133	20.84946
507.81250	14.50398	-1.91170	12.09620	21.55895
511.71875	6.04255	-3.52331	10.08178	18.82382
515.62500	5.23679	-0.70273	5.24686	13.21324
519.53125	10.47500	-0.70265	-1.19980	12.34185
523.43750	10.87808	-2.31432	-7.24350	11.58365
527.34375	16.11634	2.52100	-3.61694	10.06030
531.25000	18.13114	4.13276	1.62137	11.82338
535.15625	11.28140	4.93868	3.63623	9.69880
539.06250	7.25224	4.93882	1.21893	9.34135
542.96875	11.28167	5.74489	0.81625	14.43932
546.87500	14.90817	9.37137	6.05460	17.91655
550.78125	14.10240	8.16265	7.26363	16.48391
554.68750	17.32594	4.13337	3.23456	13.40684
558.59375	21.75824	1.71585	2.83183	18.83525
562.50000	23.77297	9.37153	6.45845	24.58039
566.40625	12.08810	6.14812	0.41471	18.94138
570.31250	0.40321	-7.95435	-2.80856	11.85672
574.21875	3.22389	-4.73079	15.32347	4.59175
578.12500	7.25339	3.32790	20.96471	5.36079
582.03125	8.05953	5.74557	0.01249	17.02412
585.93750	4.83631	4.13389	-10.46354	15.95989
589.84375	2.01594	2.52228	-10.86631	11.24341
593.75000	2.41910	6.14876	-8.44847	10.65260
597.65625	3.22515	5.34302	-3.21013	5.98328
601.56250	0.80781	1.31374	1.62522	3.05033
605.46875	-8.05648	-2.71550	1.22255	0.91648
609.37500	-6.44458	-7.95357	-0.79187	-2.67834
613.28125	-2.01230	-7.95359	0.82003	-7.09353
617.18750	-4.83268	-5.53596	-2.40318	-7.50853
621.09375	-2.01204	-1.10373	-2.80585	-4.85381
625.00000	-3.22072	-3.92414	0.82072	-2.81660
628.90625	-3.22061	-3.92402	-1.59664	0.31573
632.81250	-2.81756	0.91129	-2.80513	0.10837
636.71875	-0.39989	4.13490	-0.38736	0.33916
640.62500	6.04698	5.34377	-2.80467	2.97898
644.53125	6.85284	6.55259	-5.22209	2.34560
648.43750	13.29961	11.79077	6.06017	6.93397
652.34375	16.12008	4.53814	10.49266	7.68037
656.25000	11.28479	-1.10280	2.43426	1.71944
660.15625	12.09063	5.74716	3.64321	2.36829
664.06250	10.47879	8.56777	4.44936	2.30150
667.96875	6.85237	10.98550	2.83788	3.48129
671.87500	8.46398	15.01489	6.06161	9.98303
675.78125	12.09027	16.22382	7.67378	11.53694
679.68750	10.07556	8.16536	1.63014	4.59245
683.59375	7.25492	4.94207	0.82442	1.88789
687.50000	4.83726	2.92752	2.43630	2.05123
691.40625	11.68700	0.91301	1.22769	11.85490
695.31250	21.35729	5.74834	4.04850	20.11921
699.21875	0.00188	5.34549	1.63122	-0.02292
703.12500	-13.69779	2.92801	0.01970	-14.60917
707.03125	-16.11539	1.31643	2.84034	-15.48336
710.93750	-22.56236	2.92826	3.64639	-20.14452
714.84375	-23.36827	6.15188	6.87005	-24.51498
718.75000	-30.62109	8.56961	10.49665	-26.39129
722.65625	-39.08269	0.91400	5.66163	-34.29653
726.56250	-40.29150	-8.75615	-0.38213	-39.04464
730.46875	-40.69442	-6.33848	-2.79949	-35.64537
734.37500	-37.06816	-9.15886	-4.00811	-33.32004
738.28125	-24.98032	-13.18804	-1.99328	-27.77793
742.18750	-26.59207	-10.36744	-1.18727	-24.53828
746.09375	-22.15991	-5.53212	3.24514	-19.47142
750.00000	-17.72779	-3.11445	-0.38107	-12.48247
753.90625	-21.75714	-7.54653	-1.99257	-9.92362
757.81250	-15.71325	-7.14355	2.84275	-7.81371
761.71875	-6.84881	-0.29360	2.84292	-3.46803
765.62500	-6.04303	0.51232	-1.58915	-4.30544
769.53125	-12.08704	1.31819	-6.42409	-4.24107
773.43750	-8.05783	8.16805	-1.18580	-2.67823
777.34375	-9.66962	4.54184	-1.58857	-12.43811
781.25000	-18.13123	-0.69618	-5.61771	-14.60528
785.15625	-12.08736	1.31855	-0.37948	-6.84088
789.06250	-6.84938	2.93036	0.02374	-1.24651
792.96875	-15.31102	-2.30763	-3.60236	2.51878
796.87500	-14.50519	-9.15733	-4.81091	-2.57124
800.78125	-4.02900	-7.94842	-3.19907	-3.15437
804.68750	-8.05828	-2.71021	-1.99014	-2.89875
808.59375	-14.50518	0.51337	0.42761	-6.71653
812.50000	-10.47593	2.12517	3.65113	-1.98658
816.40625	-6.44663	-1.09820	0.83074	-1.18389
820.31250	-4.43198	-5.93321	-2.39258	-4.17350
824.21875	-1.61149	-3.91843	2.84570	-4.16230
828.12500	-1.61148	-0.29189	8.48690	-3.32060
832.03125	-9.26715	-5.52981	4.45772	-7.73207
835.93750	-18.93740	-14.79713	2.44322	-14.72737
839.84375	-18.13157	-17.21462	0.83162	-10.41479
843.75000	-15.71408	-15.19992	-6.01803	-7.00449
847.65625	-18.13169	-13.58813	-1.98853	-9.18588
851.56250	-19.74349	-7.14108	4.86148	-10.68623
855.46875	-15.71422	-1.90277	-1.98811	-11.37398
859.37500	-11.68489	-4.72310	-6.82311	-11.80949
863.28125	-12.89368	-10.76692	-3.19665	-9.81291
867.18750	-4.83506	-10.76679	-2.39064	-5.77259
871.09375	-4.02915	-1.49928	0.02713	-8.42837
875.00000	-8.05834	1.32134	1.23612	-10.06366
878.90625	-2.41721	0.51556	1.63920	-5.94427
882.81250	3.62680	4.14196	8.89210	-0.90274
886.71875	-4.02882	1.72453	5.66884	-2.74624
890.62500	-10.07264	-1.90176	0.83393	-9.41628
894.53125	-10.87831	-5.12507	-4.00102	-9.18682
898.43750	-8.46060	-10.76595	-8.43306	-9.34393
902.34375	-3.62519	-9.55717	-4.40351	-7.67371
906.25000	-4.83378	-5.12489	0.43191	-2.11669
910.15625	0.00158	-0.28964	2.04375	-1.55791
914.06250	1.21063	2.93385	1.64094	-3.50689
917.96875	-2.41546	3.73985	-0.37355	-0.65851
921.87500	-0.40061	-1.09534	-6.01439	1.70302
925.78125	2.01711	-4.31875	-3.59664	4.98311
929.68750	5.64367	-3.51273	2.85050	4.67385
933.59375	4.83792	-1.90095	-0.37275	-0.68127
937.50000	-4.42945	-4.31853	-6.01358	-1.24868
941.40625	-7.25003	-5.93023	-4.80464	2.24319
945.31250	-1.60897	-8.34780	-3.19281	-0.38132
949.21875	0.80871	-10.76529	0.83660	-4.41617
953.12500	4.83805	-4.31837	4.06017	-0.71021
957.03125	4.03213	-2.30364	-1.98369	-0.24019
960.93750	7.65852	-2.70647	-0.77478	4.01684
964.84375	13.70248	1.72587	0.83711	12.01247
968.75000	6.85272	-2.30338	-9.23590	3.81440
972.65625	8.86742	-6.33259	-8.42986	7.28617
976.56250	6.44988	-3.91487	2.44951	11.63019
980.46875	1.21183	-0.69131	-0.37084	3.39455
984.37500	1.21186	1.32345	-5.20579	-5.78180
988.28125	2.82371	1.32362	-2.78802	-2.46065
992.18750	6.85308	2.53257	-3.99668	6.78943
996.09375	10.88239	2.53266	-8.02586	4.94479
1000.00000	14.10589	0.11514	-11.24920	-1.23952
1003.90625	18.53811	3.74160	-4.80219	-2.59083
1007.81250	23.77629	4.95043	-2.38449	0.93912
1011.71875	22.97053	3.33883	-7.62242	8.68015
1015.62500	9.67394	1.32429	-4.80175	10.72516
1019.53125	-4.42845	-3.51071	-1.17531	-0.62249
1023.43750	-3.62249	3.33924	1.64534	-1.78368
1027.34375	-4.83118	2.13056	0.03382	0.72229
1031.25000	-5.23408	-1.89866	0.43690	4.90286
1035.15625	-1.20479	1.72787	0.83998	10.83679
1039.06250	-4.42809	-1.09252	-4.80080	6.45002
1042.96875	-8.05439	0.51937	-5.60656	7.51859
1046.87500	-4.83083	2.13123	-4.80053	13.01047
1050.78125	6.85426	3.34022	-1.57700	16.01000
1054.68750	12.89826	3.34034	-1.57685	9.70932
1058.59375	8.46608	3.34046	-5.20304	1.03515
1062.50000	7.66026	1.72889	-4.39707	5.16853
1066.40625	7.25729	-3.50909	-9.23208	11.61735
1070.31250	4.43684	2.53500	-9.63481	12.99417
1074.21875	9.67502	2.93803	-7.21695	13.38486
1078.12500	11.28675	2.13231	-7.21673	10.52734
1082.03125	10.48095	9.78809	-5.20190	8.49081
1085.93750	6.04872	8.98234	-3.18710	9.44098
1089.84375	8.06342	12.20586	5.67746	16.40923
1093.75000	8.06347	9.38546	1.64827	13.80348
1097.65625	3.22830	-1.09063	-7.61904	4.70168
1101.56250	2.82546	-5.52269	-5.20133	0.55980
1105.46875	-6.84482	-12.37246	-6.00707	-10.43863
1109.37500	-13.29168	-15.59584	-5.60409	-14.03360
1113.28125	-10.06816	-4.71655	-0.76877	-8.77857
1117.18750	-8.85930	2.93924	1.24603	-11.61123
1121.09375	-5.63581	2.53647	-3.99189	-12.18004
1125.00000	-1.20355	2.93948	-6.81222	-5.30773
1128.90625	1.21415	2.13374	-3.58866	-1.77252
1132.81250	4.43764	2.53682	-2.37972	2.04933
1136.71875	4.84063	3.34276	-3.58844	2.28009
1140.62500	2.42306	2.13404	-3.18540	6.12866
1144.53125	6.45239	2.13413	1.24696	5.89828
1148.43750	-5.23250	-4.71555	-6.81148	-7.64515
1152.34375	-12.88808	-10.75937	-10.84069	-11.73383
1156.25000	-5.63535	-5.92413	-6.00538	-8.02444
1160.15625	-3.62071	-1.49181	-3.58774	-6.56962
1164.06250	0.00574	-0.28291	2.45642	-1.39817
1167.96875	-4.02341	-1.49158	0.84484	-1.42697
1171.87500	-2.81449	0.12025	1.24799	3.46334
1175.78125	0.40909	0.92628	1.24818	5.01753
1179.68750	2.82684	0.12064	0.03949	-0.31517
1183.59375	4.03568	-5.52026	0.84544	1.00970
1187.50000	-3.21699	-9.14662	-4.39253	-0.43850
1191.40625	-3.61980	-5.11723	-5.19819	-1.91667
1195.31250	-4.82853	-3.10247	-3.18334	-4.93415
1199.21875	0.40965	-0.28178	0.84613	-0.90018
1203.12500	4.43901	2.13592	0.84628	-2.59253
1207.03125	-1.20204	-1.08737	-3.58580	-8.70459
1210.93750	-9.26068	-5.11653	-0.76508	-8.93340
1214.84375	-12.88706	-7.13108	-2.77959	-10.08032
1218.75000	-8.05196	-2.69875	-1.97363	-4.30089
1222.65625	-2.00804	1.73357	2.45877	-0.11806
1226.56250	-0.39622	-1.48981	1.65302	-1.64263
1230.46875	-0.39612	-0.68395	2.05612	-1.46665
1234.37500	-1.60491	-3.50449	0.04159	-0.75294
1238.28125	-6.03714	-11.56312	-0.36122	-3.67217
1242.18750	-4.02244	-9.14543	0.84776	-1.23825
1246.09375	-3.61940	0.52502	0.04208	-1.00640
1250.00000	-6.03697	8.58370	-1.16663	-1.27018
1253.90625	-13.69269	4.55448	-7.61343	-5.56115
1257.81250	-12.48390	1.33111	-9.62797	-9.89811
1261.71875	-6.43985	1.33120	-0.36049	-7.16401
1265.62500	-8.45460	4.55470	5.28066	-10.82194
1269.53125	-12.08104	2.13712	-1.97196	-23.24841
1273.43750	-12.48405	-3.10094	-4.79232	-24.50597
1277.34375	-7.64892	0.92840	-0.76288	-14.11931
1281.25000	-10.06659	-3.10084	-1.16569	-8.22782
1285.15625	-10.46961	-9.54766	-5.59775	-9.73077
1289.06250	-6.03744	-3.90652	-10.43270	-13.40377
1292.96875	-6.44044	4.55509	-5.59739	-13.26482
1296.87500	-14.49918	3.74933	-0.35911	-11.90808
1300.78125	-6.44061	3.34647	0.84985	-11.68540
1304.68750	9.27350	9.39052	2.46170	-4.98304
1308.59375	0.81193	7.37600	-3.58221	0.06349
1312.50000	-11.27605	1.73514	-6.40256	1.97292
1316.40625	-11.27606	-3.50280	-3.17894	8.81968
1320.31250	-3.21746	-1.08512	-0.76115	8.24755
1324.21875	5.24405	4.95886	-1.56686	0.60301
1328.12500	6.45279	0.12376	-1.96958	3.86227
1332.03125	-4.42634	-7.12891	-1.56657	3.07712
1335.93750	-4.02342	-1.89071	-3.58110	-5.12700
1339.84375	5.24398	6.97389	-1.56633	-2.42608
1343.75000	2.82649	7.77984	0.44850	2.59604
1347.65625	-1.20284	6.16820	-2.77481	-0.39121
1351.56250	-7.24687	6.16829	-3.17765	-3.10036
1355.46875	-3.21763	6.57135	-0.75993	-0.16168
1359.37500	7.25855	4.55676	-2.37159	-2.20900
1363.28125	0.81171	-2.29302	-10.43006	-3.43593
1367.18750	-1.60590	1.73642	-10.02700	7.45410
1371.09375	6.45269	6.16869	2.06097	13.66275
1375.00000	9.27330	-7.93370	2.46407	4.77473
1378.90625	11.69102	-10.35114	0.44958	-1.98496
1382.81250	12.49691	1.33400	5.28481	8.29472
1386.71875	10.48229	3.34876	6.09073	10.88340
1390.62500	10.48232	3.75182	6.49375	7.03369
1394.53125	6.05020	0.52851	8.10556	10.48641
1398.43750	-0.39662	-1.48606	8.50862	12.34370
1402.34375	-2.81424	-2.29193	6.49403	8.77557
1406.25000	11.28837	-2.69471	2.86770	9.49725
1410.15625	10.07969	-2.29178	6.09119	17.71160
1414.06250	-2.00821	-5.51515	7.70300	22.61231
1417.96875	10.48269	-4.30631	3.67377	29.89284
1421.87500	19.34725	-6.72377	10.92660	41.52163
1425.78125	7.66234	-6.32079	13.74718	33.51957
1429.68750	7.25945	5.36436	4.07685	16.28707
1433.59375	12.90051	8.58800	-0.35530	8.11135
1437.50000	2.42435	3.35007	0.85367	8.34971
1441.40625	0.40976	1.73846	1.65966	15.46781
1445.31250	-1.20197	0.12679	-0.75777	17.67843
1449.21875	8.87137	2.54452	1.25702	25.73143
1453.12500	9.67732	0.93289	1.66010	24.19928
1457.03125	-1.60459	-5.11093	-8.41295	9.35805
1460.93750	2.82779	-5.51370	-10.83039	9.58588
1464.84375	3.63371	-3.09605	-1.96571	17.17860
1468.75000	3.23082	-6.72228	5.28721	19.05383
1472.65625	7.26017	-12.36324	8.91369	8.42301
1476.56250	0.81340	-8.73676	6.09330	6.32013
1480.46875	-2.00706	-0.27514	4.48168	8.96355
1484.37500	3.23102	4.15712	7.70520	4.21931
1488.28125	-0.39535	2.54549	9.71999	3.10803
1492.18750	-2.00710	-1.08091	4.48200	9.53747
1496.09375	6.05156	0.53083	2.06448	6.08109
1500.00000	6.45473	4.56018	7.70566	-2.52059
1503.90625	8.46961	5.36607	1.66179	-3.87165
1507.81250	8.87276	5.76902	-0.75564	1.27010
1511.71875	2.82903	2.54562	5.69129	12.23470
1515.62500	9.67904	-7.12464	-2.36720	8.63879
1519.53125	0.41186	-11.15385	-6.79929	8.17047
1523.43750	-2.40842	-2.28930	-2.36704	3.78597
1527.34375	2.42688	1.74016	3.67696	4.27728
1531.25000	1.62116	4.15779	0.45364	-0.80948
1535.15625	-3.61679	4.56083	-1.15800	-0.11350
1539.06250	-0.79617	-0.27425	2.06557	12.01984
1542.96875	15.72419	0.53174	-3.57536	-0.20811
1546.87500	13.30680	6.17293	-0.75465	0.04578
1550.78125	3.23367	8.59067	2.46890	5.86591
1554.68750	-4.01893	2.94977	1.66304	6.81809
1558.59375	3.23396	0.12943	-3.17203	6.60551
1562.50000	12.09860	7.78524	-3.17194	3.48620
1566.40625	0.41374	2.14427	-2.36603	-4.97328
1570.31250	-5.22718	-7.12304	-2.36593	-3.99935
1574.21875	-8.04759	-0.67608	-1.96284	-0.38527
1578.12500	-2.40647	5.36790	0.05191	-9.28677
1582.03125	3.63759	5.36796	0.85784	-8.50280
1585.93750	3.23474	3.75638	-3.97721	-2.31450
1589.84375	2.02605	2.54774	-6.39470	-4.61361
1593.75000	0.01154	-0.27258	-1.96238	-3.59287
1597.65625	0.41453	-1.07836	-0.75352	-2.21847
1601.56250	-0.39138	1.74229	-1.55933	-7.97217
1605.46875	5.65252	5.36871	-2.76797	-13.32975
1609.37500	12.90519	11.00982	0.45562	-2.82233
1613.28125	4.84645	9.39812	2.06743	-2.40266
1617.18750	2.83162	4.96591	-3.97649	-9.66783
1621.09375	-3.61550	2.14545	0.05285	-3.79003
1625.00000	-3.61569	-4.30135	5.29104	-0.94731
1628.90625	3.23394	1.33984	5.29110	-1.44165
1632.81250	-9.25716	6.17515	-2.36462	-5.67871
1636.71875	-6.03393	1.74315	-2.36463	-2.62765
1640.62500	-2.00472	4.96670	4.08232	-3.61443
1644.53125	-3.61646	4.56391	-2.76741	-14.72406
1648.43750	-1.60186	-1.88292	-4.37908	-15.37376
1652.34375	-1.19901	-1.07699	3.27674	-7.37462
1656.25000	1.62157	5.77295	2.06802	3.18457
1660.15625	-6.03404	-0.27089	-2.76708	-1.40454
1664.06250	-2.00471	-4.30013	0.85935	-5.50054
1667.96875	0.41286	-1.07662	1.66523	-6.33535
1671.87500	-5.63114	6.57912	4.08280	3.38986
1675.78125	-6.43702	11.01143	4.88863	6.95853
1679.68750	-8.85459	7.38512	4.88861	-2.00062
1683.59375	2.02455	4.96762	6.09742	-5.91402
1687.50000	-1.60174	4.16188	0.45647	-4.54176
1691.40625	-9.66030	-2.68781	2.47114	-1.58778
1695.31250	-3.21338	0.13283	5.29168	0.63269
1699.21875	-6.03377	6.17692	-0.34933	-4.60095
1703.12500	-11.27181	0.53603	0.85949	-8.71098
1707.03125	-17.31569	-7.92545	1.66540	-12.40560
1710.93750	-26.98593	-10.34297	2.06839	-23.51356
1714.84375	-26.98585	-7.92532	4.48600	-27.07804
1718.75000	-20.13589	-8.32820	2.87431	-18.07520
1722.65625	-11.27133	-6.31343	0.45684	-16.30993
1726.56250	-4.82434	-4.29876	-1.55781	-29.11653
1730.46875	-13.28581	-5.10459	3.68033	-15.24087
1734.37500	-14.49453	-4.29861	6.50096	-9.69195
1738.28125	-9.25628	-1.88084	5.29221	-20.66979
1742.18750	-9.65899	-3.89536	7.70984	-6.55094
1746.09375	-6.43538	-5.90991	9.32158	0.12779
1750.00000	-3.21186	-3.49221	6.90402	-13.83557
1753.90625	-14.49380	-3.08919	4.08355	-19.33526
1757.81250	-23.35815	-3.49198	3.68058	-4.33146
1761.71875	-5.62912	2.14910	2.87474	8.47591
1765.62500	0.41492	3.76094	4.88940	16.10008
1769.53125	-28.99899	-5.50640	7.71000	29.46129
1773.43750	-32.62529	-10.34148	5.29250	27.80094
1777.34375	-11.67283	-8.72962	2.87496	14.01180
1781.25000	-6.83763	-4.29734	7.30721	19.50038
1785.15625	0.01227	0.13503	9.32190	33.30889
1789.06250	-1.19645	-2.28249	3.68088	29.23300
1792.96875	-6.43439	-2.28239	0.86042	16.07541
1796.87500	-2.80794	0.53831	1.26339	16.62646
1800.78125	-7.24013	-1.87915	2.06922	19.26685
1804.68750	-13.28403	-4.29665	4.08389	23.14877
1808.59375	-16.91022	-5.90825	7.71035	29.00142
1812.50000	-16.91005	-7.11698	6.50156	22.04647
1816.40625	-11.67187	-5.50517	2.47225	15.59654
1820.31250	-3.61320	-0.66996	6.90439	19.45679
1824.21875	2.83377	-0.66987	8.51612	13.02113
1828.12500	-9.65701	-8.32544	0.86045	0.96917
1832.03125	-10.46284	-9.93703	6.09859	11.46624
1835.93750	-4.41877	-9.93692	7.71041	20.18542
1839.84375	-4.01583	-8.72802	0.05482	14.82784
1843.75000	-4.41862	-9.53388	-1.15386	9.37396
1847.65625	-2.40382	-12.35432	8.11364	6.38676
1851.56250	3.64023	-9.13084	14.15765	13.34806
1855.46875	-6.83587	-5.90734	11.74013	19.51033
1859.37500	-12.07388	-4.69846	10.93426	3.36063
1863.28125	-0.79184	-3.48966	7.30790	-12.77469
1867.18750	-4.01529	-3.08675	9.72547	-7.52559
1871.09375	-14.89433	-3.89251	3.68150	-1.31692
1875.00000	-6.83569	-2.28072	0.05519	-0.13172
1878.90625	0.82013	3.76337	16.57536	4.79344
1882.81250	-6.43249	1.34582	17.78416	-2.25290
1886.71875	-6.83537	-8.72736	9.72557	-16.58730
1890.62500	2.83512	-6.71260	11.33727	-9.96074
1894.53125	5.25279	-2.68321	10.53138	-4.49325
1898.43750	-1.59689	-2.28025	5.29324	-15.12668
1902.34375	-6.43195	2.55501	5.29324	-9.02438
1906.25000	-8.44661	0.54041	3.27859	-6.28799
1910.15625	6.86487	-3.08588	2.06981	-5.32625
1914.06250	3.64153	-2.68276	4.89035	-5.66346
1917.96875	-12.07265	-6.30907	4.89040	-20.54401
1921.87500	0.41827	-5.90607	6.50219	-22.61470
1925.78125	0.82132	-1.47373	6.90514	-12.88782
1929.68750	-2.80496	-0.26484	9.32278	-9.16782
1933.59375	0.82156	2.15280	8.51697	-10.49353
1937.50000	0.41879	1.75002	3.68180	-7.83741
1941.40625	11.70101	1.34712	-2.36214	-3.53960
1945.31250	10.08943	0.94415	2.87595	-5.76109
1949.21875	-0.38665	0.54130	12.94923	-9.79588
1953.12500	2.83688	5.77945	12.94925	-0.44887
1957.03125	2.43405	11.01761	4.08481	2.03587
1960.93750	-3.20686	6.18250	-2.76497	-10.22714
1964.84375	-7.23603	-1.47302	0.45850	-15.52814
1968.75000	-1.99783	0.54176	4.08488	-22.92036
1972.65625	0.82276	3.76530	6.09956	-23.07484
1976.56250	-11.66802	-3.08450	12.54649	2.22164
1980.46875	-8.84748	-6.30792	8.51723	0.02998
1984.37500	14.52246	4.16831	2.87616	-10.35507
1988.28125	12.10497	9.00360	4.08490	-2.60170
1992.18750	-0.78884	3.36262	-0.75025	-13.09517
1996.09375	-10.05625	-0.26364	0.45858	-20.17781
2000.00000	-8.84741	0.94519	-1.55612	-20.31805
2003.90625	3.64349	1.34817	-4.37658	-18.04277
2007.81250	2.43484	1.34819	-3.97355	-18.13908
2011.71875	-4.41477	0.54236	-3.57059	-15.63605
2015.62500	-3.20583	2.15412	-3.97345	-11.57628
2019.53125	-8.84657	0.94542	-8.40569	-15.67100
2023.43750	-19.72551	-3.08381	-8.00273	-25.69657
2027.34375	-13.27843	-3.48663	-8.00274	-22.78763
2031.25000	0.42141	-5.50116	-7.59984	-20.21866
2035.15625	-0.78722	-3.88935	-5.98809	-31.61059
2039.06250	-7.63686	1.75180	0.86164	-20.68593
2042.96875	-3.20454	4.97528	1.26459	-5.11172
2046.87500	5.66014	3.76668	0.05582	-4.45492
2050.78125	6.06325	1.75220	0.05583	-14.75201
2054.68750	-6.42735	-4.69452	-5.58521	-21.05250
2058.59375	-0.78615	-1.87388	-1.15289	-15.62395
2062.50000	18.95760	3.36432	1.66767	-12.29629
2066.40625	14.52544	-4.29129	-5.98793	-12.29422
2070.31250	-9.65034	-7.91756	-7.59968	-12.12624
2074.21875	-12.87377	-5.90284	-1.55574	-13.34735
2078.12500	-5.21802	-6.70852	-1.95861	-17.01065
2082.03125	0.42316	-5.49952	-1.95859	-15.01793
2085.93750	10.09361	-3.08186	-0.34696	-7.21790
2089.84375	4.85560	0.14171	-2.76453	-9.51700
2093.75000	-8.44104	-1.06697	-4.77917	-8.89918
2097.65625	-12.47023	-2.27574	-1.55582	-6.31591
2101.56250	-9.64960	-3.48446	-1.95872	-12.06950
2105.46875	-8.44082	-4.69325	-4.37635	-15.41216
2109.37500	-0.38214	-2.27566	-2.76463	-9.73966
2113.28125	2.43838	-5.90198	-11.22625	-14.96081
2117.18750	1.22962	-5.49901	-10.42049	-14.57001
2121.09375	2.84143	-5.90189	-3.57073	-7.88607
2125.00000	2.43852	-10.33407	-2.76485	-7.86359
2128.90625	-12.06696	-5.49876	4.48788	-8.35763
2132.81250	-11.66393	-0.66348	5.69663	-12.59432
2136.71875	2.84169	0.54540	1.26443	-16.79579
2140.62500	6.87106	-1.46920	1.26441	-11.73843
2144.53125	6.87110	-6.30432	-0.34734	-7.93947
2148.43750	16.13853	-4.28959	-0.75029	-12.21545
2152.34375	27.42066	1.75449	-0.34742	-8.64845
2156.25000	14.92997	9.00732	2.07020	6.74611
2160.15625	-7.23106	2.96339	4.08487	6.58935
2164.06250	-10.85723	-0.66289	3.27901	-10.80320
2167.96875	-3.20140	3.76943	6.09948	-14.05540
2171.87500	-6.82752	-3.48315	3.27900	-9.97083
2175.78125	-8.03612	-6.70646	-1.15325	-5.99902
2179.68750	3.64903	0.54635	1.26430	-3.27308
2183.59375	14.52826	4.17278	-1.15337	-11.61858
2187.50000	2.44056	-2.67689	-7.19738	-15.08143
2191.40625	-8.84127	-8.31776	-5.18275	-18.17123
2195.31250	-6.02059	-7.91466	-0.34767	-19.17406
2199.21875	-0.78231	-2.27355	3.27866	-16.75192
2203.12500	-1.18501	0.14422	1.26405	-20.05594
2207.03125	-8.84044	-2.27325	-3.16816	-13.27421
2210.93750	-6.01983	-4.69072	0.05529	-9.07078
2214.84375	2.84482	-0.25834	1.26409	-14.64983
2218.75000	3.24789	1.75642	-1.15355	-10.48203
2222.65625	6.47143	-0.25816	1.66689	-7.91088
2226.56250	16.94771	0.54776	7.71083	-7.42076
2230.46875	19.36548	0.54786	5.69606	-13.69155
2234.37500	12.11288	-0.25787	-3.16842	-19.02166
2238.28125	-4.00422	-5.09296	0.45796	-8.64408
2242.18750	-10.04798	-6.70457	6.09894	-12.65702
2246.09375	-6.01854	-5.09280	0.45795	-15.64853
2250.00000	-8.03297	-2.67504	-2.76551	-8.65936
2253.90625	-4.80925	2.16028	2.06961	-9.72659
2257.81250	-5.61489	-1.46602	1.26375	-13.66034
2261.71875	-0.77955	-7.50997	0.45790	-9.71728
2265.62500	2.44410	-5.09243	1.26373	-9.74849
2269.53125	1.23549	-2.27190	0.45783	-8.47491
2273.43750	0.02686	-1.86889	0.45775	-8.12049
2277.34375	-7.62859	-5.49518	-3.97460	-19.08887
2281.25000	-7.22549	-4.68927	-1.55714	-19.24112
2285.15625	-1.18133	-4.28632	-4.37773	-11.87935
2289.06250	5.26582	-4.68911	-10.01883	-11.92569
2292.96875	7.28071	-4.68896	-4.37793	-16.21865
2296.87500	0.02819	-11.13573	4.88938	-10.42935
2300.78125	-6.82143	-14.76206	3.27762	-8.59472
2304.68750	-1.58317	-5.49453	-0.75172	-9.14487
2308.59375	0.43163	0.54946	2.06869	-7.72445
2312.50000	-5.20934	-2.67397	3.27740	-7.02371
2316.40625	-6.41801	-4.68857	4.48612	-6.22082
2320.31250	3.25241	2.96716	8.91821	-0.74882
2324.21875	6.07297	6.19070	6.50056	-0.33463
2328.12500	4.05827	-1.86779	-3.57287	-5.93984
2332.03125	-6.82090	-9.52336	-3.17005	0.12489
2335.93750	-12.46202	-9.92614	-2.76727	-6.87045
2339.84375	-8.83563	-10.32899	-0.75275	-10.61645
2343.75000	-6.41802	-5.49369	5.29112	-1.56501
2347.65625	4.05812	-2.27024	3.67929	-7.77564
2351.56250	2.04343	-6.70239	1.26165	-7.66417
2355.46875	0.83465	-2.27012	-0.35023	-4.72552
2359.37500	7.68446	8.20619	2.06722	-6.77276
2363.28125	-8.02978	-0.25523	6.09637	0.05900
2367.18750	-10.04436	-5.09039	7.70799	-0.73579
2371.09375	1.23776	-1.06101	6.90199	-7.82374
2375.00000	-3.59735	-3.07556	3.27553	-13.08549
2378.90625	-4.80611	-2.26965	2.46951	-13.80133
2382.81250	-12.86460	-5.49298	-0.75411	-13.59495
2386.71875	-7.22352	-5.49286	-8.40994	-16.24440
2390.62500	-4.80587	-4.68687	-10.02174	-15.25890
2394.53125	-0.37354	-1.86625	-2.36619	-9.38865
2398.43750	8.08811	1.35726	0.85717	-4.30788
2402.34375	-3.99974	0.55143	-2.76927	-3.04074
2406.25000	-1.58206	-0.25439	-2.76937	-3.52792
2410.15625	6.07367	-1.86608	-1.96364	-6.19264
2414.06250	-1.98485	-2.26894	2.46852	-5.72412
2417.96875	3.25335	0.95454	4.08014	-8.51682
2421.87500	13.72968	2.56630	-1.56097	-17.03447
2425.78125	8.89470	0.55169	-0.35223	-14.96319
2429.68750	7.68605	-4.68634	6.09458	-3.18460
2433.59375	9.29784	-9.52148	9.72086	3.95108
2437.50000	0.03062	-12.74481	-4.38182	-3.46613
2441.40625	0.43376	-13.95352	-10.82875	-10.45040
2445.31250	6.88079	-10.32708	-3.57606	-12.26897
2449.21875	11.71609	2.56683	2.87077	-6.23046
2453.12500	3.25472	2.56692	0.85610	-2.52430
2457.03125	-0.77440	-1.86523	-1.15860	-6.08343
2460.93750	10.10487	0.95537	0.05009	-3.43806
2464.84375	0.83758	-0.25326	-1.15881	1.73713
2468.75000	0.43479	0.95561	-1.56185	0.38896
2472.65625	10.10530	2.56749	1.25859	2.24910
2476.56250	16.95520	3.37343	8.10826	4.98149
2480.46875	18.56701	4.58230	7.30233	2.78987
2484.37500	12.12025	1.76184	-0.75635	-5.17771
2488.28125	10.91151	-1.05867	-1.15941	-6.28892
2492.18750	7.68818	-8.71423	-2.36830	0.14060
2496.09375	3.25608	-7.10248	-1.96539	7.16052
2500.00000	2.45037	0.55326	-0.35376	11.45254
2503.90625	1.64467	1.35912	-4.38312	6.07217
2507.81250	1.64474	1.76208	-6.39783	2.34941
2511.71875	-0.36985	-1.46134	-1.56278	8.88167
2515.62500	3.25662	-2.26714	0.04887	10.52371
2519.53125	7.68899	2.16523	-4.78635	4.41415
2523.43750	2.45097	0.95646	-7.60701	2.04418
2527.34375	1.24224	1.35943	-5.59249	6.16173
2531.25000	-1.17525	5.38878	-0.35445	9.93939
2535.15625	-7.62198	-6.29612	1.25730	7.41187
2539.06250	-7.62195	-15.56347	-1.96618	4.23388
2542.96875	0.83963	-7.50479	-3.17501	3.69075
2546.87500	1.64556	0.15092	0.45136	6.36213
2550.78125	0.03390	2.16566	3.27179	8.15292
2554.68750	2.04866	-3.07237	2.06297	8.70217
2558.59375	6.88401	-1.46054	-2.77216	6.47497
2562.50000	8.09296	4.58344	-5.59276	3.75855
2566.40625	2.45207	0.95711	-4.78692	2.14881
2570.31250	3.66104	1.36017	-1.56359	1.91394
2574.21875	4.46700	4.98656	-0.35485	-2.53060
2578.12500	0.43784	3.77780	-6.80178	-4.17928
2582.03125	2.04971	-0.25147	-2.77256	-0.17175
2585.93750	3.66157	-3.47484	-0.35508	-0.83321
2589.84375	3.25862	-0.65429	-11.63723	-2.72950
2593.75000	5.27329	2.56924	-10.42856	-5.73815
2597.65625	3.66165	-0.65409	-0.75831	-7.58713
2601.56250	-0.36764	-5.08626	2.46499	-7.29676
2605.46875	-10.03802	-9.92137	-2.37037	-6.20734
2609.37500	-2.38230	-2.66853	-2.37048	-2.14664
2613.28125	10.51148	7.00195	2.46465	5.52600
2617.18750	4.87052	5.39024	3.67335	6.72264
2621.09375	0.91832	-2.26541	2.46460	1.14139
2625.00000	4.00790	-0.65353	1.65865	3.05245
2628.90625	-0.62281	3.77883	-2.77370	6.05812
2632.81250	-1.41975	7.00236	0.85251	11.67253
2636.71875	-0.67234	2.97306	2.06120	10.13711
2640.62500	0.21688	-1.45906	0.85227	5.77364
2644.53125	3.54632	1.36157	2.06096	4.91996
2648.43750	-1.57213	-0.65297	0.85208	6.15856
2652.34375	-3.47200	-0.24993	-1.56555	4.35987
2656.25000	3.07269	2.16768	-4.38610	5.56085
2660.15625	8.39355	3.77949	-4.78906	5.19894
2664.06250	2.29908	2.57078	-2.77451	2.79897
2667.96875	5.94023	-0.24965	-1.56591	8.27017
2671.87500	15.81124	1.76501	-1.56598	7.88310
2675.78125	11.63955	3.77966	0.04574	3.77947
2679.68750	4.49332	3.37671	-4.38657	4.65027
2683.59375	6.71369	-0.65262	-8.81888	6.76521
2687.50000	15.87340	-5.48778	-3.58083	12.80282
2691.40625	10.09446	-1.05556	-2.37205	2.09883
2695.31250	-3.58130	-2.26430	-4.78960	-11.73110
2699.21875	-4.63566	-3.87589	-5.99839	-11.18840
2703.12500	-0.93715	1.36227	-3.98373	-0.90809
2707.03125	4.45863	-5.08457	-2.77492	2.84066
2710.93750	6.77934	-8.30791	-3.58084	3.53030
2714.84375	4.14806	-0.65212	2.46313	8.18183
2718.75000	4.37292	2.97434	3.67185	7.63968
2722.65625	5.93891	0.55694	-0.76037	7.58071
2726.56250	1.51435	-4.27818	-3.17806	1.35586
2730.46875	2.24020	0.95995	-2.37230	-0.71338
2734.37500	7.42572	2.16883	-3.17819	1.46229
2738.28125	8.95106	-1.45738	-1.96942	1.09070
2742.18750	7.19402	1.76620	-1.96947	-0.40711
2746.09375	3.81940	-1.86006	-7.61059	-0.10768
2750.00000	6.14943	-7.50089	-5.19307	4.68343
2753.90625	5.44462	-3.06860	0.04492	7.59450
2757.81250	10.30443	9.42235	4.47708	11.86846
2761.71875	14.51251	10.22830	-0.76109	7.36135
2765.62500	8.95907	2.97567	-7.61102	-4.36499
2769.53125	4.81041	0.15529	-1.97006	-8.47936
2773.43750	-0.98964	-1.45627	1.65620	-1.62879
2777.34375	-0.43399	0.15552	3.26786	1.28524
2781.25000	-1.11760	-0.65029	0.85013	0.26105
2785.15625	-2.00203	-4.67953	-4.38804	4.70641
2789.06250	-0.56502	-8.70877	1.25298	7.75352
2792.96875	9.88084	-2.66477	5.28224	10.86170
2796.87500	12.99596	2.57344	0.04412	6.40480
2800.78125	3.01181	-1.45567	-7.61160	-0.35556
2804.68750	-1.66346	-1.05262	-8.82043	4.94978
2808.59375	-0.30441	-2.66418	-5.59697	3.02191
2812.50000	-2.64058	-5.08170	-1.56761	-6.91204
2816.40625	-9.04275	-3.87286	-1.56758	-5.81959
2820.31250	-2.11285	-1.05236	-0.35881	-0.13397
2824.21875	5.94636	4.18581	-1.16468	3.21801
2828.12500	6.40102	2.17122	-10.43212	3.11932
2832.03125	4.15777	-3.46974	-11.23806	-2.56882
2835.93750	3.15486	1.36552	-7.20884	0.46668
2839.84375	4.45959	3.38032	-7.20895	3.33841
2843.75000	5.11577	0.96287	-4.38856	3.54308
2847.65625	2.63324	-1.05163	-2.77687	6.84403
2851.56250	6.90857	1.36608	-3.58281	4.95649
2855.46875	11.71199	5.39544	-7.20921	4.70980
2859.37500	9.83309	3.78384	-7.20924	11.26579
2863.28125	11.55966	0.15753	-4.79167	12.37422
2867.18750	15.79378	1.76940	-1.16532	15.41178
2871.09375	13.26807	-0.24516	1.25225	17.68113
2875.00000	8.56706	-8.30373	-10.83574	12.14278
2878.90625	1.11008	-7.90064	-15.67087	2.68928
2882.81250	0.29562	-1.05072	-7.61231	6.34131
2886.71875	4.38354	1.36699	-4.79179	15.93438
2890.62500	-0.93772	-0.64758	-4.38891	17.47633
2894.53125	-1.44646	0.15833	-1.56847	20.34374
2898.43750	5.28381	4.18767	6.08713	25.55104
2902.34375	3.55751	2.57603	3.66945	20.90191
2906.25000	1.44520	-7.90006	-2.77744	15.26771
2910.15625	3.78025	-11.92926	-3.98629	11.59934
2914.06250	3.42803	-14.74980	-2.37465	10.37198
2917.96875	6.63680	-10.31754	0.04291	9.73507
2921.87500	11.27142	-0.24422	-3.58354	10.52406
2925.78125	12.21968	1.36748	-9.62754	11.80616
2929.68750	20.57488	6.60566	-16.47733	18.99320
2933.59375	27.62216	11.03803	-10.43338	24.93607
2937.50000	14.83632	6.60583	-4.38947	15.67431
2941.40625	6.51306	4.99414	-9.62762	9.45461
2945.31250	10.92195	4.99423	-8.41884	13.21063
2949.21875	10.76805	-1.85551	-13.25404	13.87601
2953.12500	6.26421	-6.69061	-21.31274	9.23611
2957.03125	4.49539	-8.30231	-19.29804	4.27805
2960.93750	8.62209	-6.69051	-20.90983	2.78196
2964.84375	2.79246	-5.48166	-23.73036	-0.25845
2968.75000	1.35936	0.96524	-19.70108	-1.73151
2972.65625	2.21155	4.99464	-17.28345	1.55035
2976.56250	-1.82489	3.38308	-13.65708	6.16292
2980.46875	1.88199	3.78614	-6.80723	12.26081
2984.37500	3.94972	0.96568	-8.01604	11.69624
2988.28125	-3.61906	-9.10747	-13.65712	6.42623
2992.18750	-5.08502	-10.31618	-12.85131	3.08815
2996.09375	-1.30705	-13.13659	-14.06011	0.37047
