 	TP9	AF7	AF8	TP10	
-1000.00000	4.45423	-0.18948	5.88884	10.19170
-996.09375	-6.82780	-1.80086	-4.18387	-2.11650
-992.18750	-8.84243	1.82595	-1.76577	-1.57198
-988.28125	-0.78381	-0.18832	-0.95938	-6.23908
-984.37500	5.66306	-0.59095	0.65287	-7.75547
-980.46875	4.85710	1.02111	5.89146	-3.68897
-976.56250	4.85710	0.61848	3.47436	-5.22143
-972.65625	0.42490	-2.20169	3.47487	2.31992
-968.75000	0.82783	-0.18673	5.49006	4.70499
-964.84375	4.45425	4.64872	1.86424	0.89188
-960.93750	9.69230	7.06664	5.49108	1.34251
-957.03125	11.70689	6.26112	7.10335	-1.10958
-953.12500	2.03647	6.66437	1.05987	-3.45709
-949.21875	-1.99292	9.88816	0.25452	-4.46046
-945.31250	-7.23106	11.90314	2.26966	-4.94274
-941.40625	-7.23109	13.51523	8.71702	-2.91458
-937.50000	-8.84278	14.72431	8.71756	-6.70586
-933.59375	-20.12489	13.51588	-4.57858	-21.72931
-929.68750	-27.37768	16.33670	-9.81619	-27.69357
-925.78125	-31.40700	19.15752	-5.38348	-27.67250
-921.87500	-44.70374	18.75489	-1.35375	-38.61625
-917.96875	-54.77701	19.56107	0.66134	-42.96354
-914.06250	-47.92724	23.99368	-0.94995	-44.44386
-910.15625	-47.52438	23.18812	-9.41100	-48.07442
-906.25000	-51.55378	16.74164	-9.81357	-49.16216
-902.34375	-47.12164	10.69802	2.67769	-40.48256
-898.43750	-35.03384	11.50430	6.70746	-32.52008
-894.53125	-35.83976	16.33977	6.70794	-36.95411
-890.62500	-39.46621	17.14597	-1.75313	-39.01307
-886.71875	-22.94611	17.95215	-7.39366	-31.93611
-882.81250	-20.12563	11.90850	-1.75216	-28.25148
-878.90625	-20.52855	7.87950	-2.96045	-24.12906
-875.00000	-9.24654	9.49160	1.47234	-11.75556
-871.09375	-2.39674	7.88023	11.54612	-0.91618
-867.18750	2.03554	7.07477	3.48805	-0.97313
-863.28125	2.84142	5.46337	0.26515	4.53021
-859.37500	6.06488	3.44905	11.54768	14.04290
-855.46875	4.85604	0.62888	11.54812	13.82107
-851.56250	1.63256	-5.41471	5.50462	10.20381
-847.65625	9.28813	-5.41436	7.51978	14.31337
-843.75000	5.66176	-5.81699	5.90860	8.70960
-839.84375	-6.02327	-13.06936	-3.76121	0.20245
-835.93750	-3.20280	-12.66597	-5.77533	0.68698
-832.03125	-0.38233	-9.84506	-1.34261	-5.25548
-828.12500	3.64700	-11.05347	0.67250	-7.83395
-824.21875	1.63230	-18.30581	-0.13287	-2.81341
-820.31250	-8.03813	-21.93177	0.27050	-2.78964
-816.40625	-4.41187	-15.08160	2.68857	-4.01824
-812.50000	0.02035	-12.66359	2.68905	2.26095
-808.59375	-0.38260	-11.45443	-0.53394	5.51488
-804.68750	7.27315	-8.63359	-2.95109	14.28840
-800.78125	12.91427	-6.21560	-1.33885	18.76974
-796.87500	13.31722	-5.81229	4.70561	22.66974
-792.96875	19.36121	-6.61773	5.51198	22.27151
-789.06250	21.77878	-6.21439	4.70668	18.49844
-785.15625	16.94356	-6.61698	6.72186	22.54791
-781.25000	25.40505	-2.58732	4.30475	25.80114
-777.34375	28.22549	3.45698	7.52866	32.80029
-773.43750	22.18149	2.24861	9.14087	32.20623
-769.53125	20.16681	-0.97444	5.91792	25.07055
-765.62500	22.18141	-4.19751	9.94770	25.19281
-761.71875	16.54031	-9.43524	11.15695	24.75603
-757.81250	11.30219	-5.80849	10.35156	25.96930
-753.90625	16.94326	0.63880	10.75493	25.61265
-750.00000	18.95798	3.05679	7.93490	15.96135
-746.09375	21.77852	5.47472	6.72652	16.98885
-742.18750	7.67604	-0.16587	0.68305	13.62524
-738.28125	-10.05282	-6.61234	-2.13688	7.41477
-734.37500	-10.85869	-2.98558	-1.73344	6.91781
-730.46875	-6.42655	-4.19404	-0.92709	0.43511
-726.56250	-6.02360	-7.41713	5.11742	1.96895
-722.65625	-3.20313	-6.61094	9.55006	8.12867
-718.75000	-0.78556	-5.40180	6.73001	-1.10483
-714.84375	5.66133	-5.40144	7.53631	-1.72256
-710.93750	24.59896	-2.17762	4.31335	9.51318
-707.03125	17.34615	-3.38608	-1.73010	13.17544
-703.12500	11.70511	-6.20624	4.71729	11.09209
-699.21875	14.92843	-2.17659	13.17933	8.06751
-695.31250	12.91359	-2.57922	9.55337	4.11888
-691.40625	13.71930	-2.98177	9.15092	6.52424
-687.50000	4.85472	-0.16089	13.98655	19.18138
-683.59375	-4.00981	-4.99565	9.55481	19.29783
-679.68750	-4.41284	-7.81579	5.92893	13.17555
-675.78125	-8.03924	-4.18900	8.34686	15.17047
-671.87500	-8.84518	-3.38279	10.76483	18.05689
-667.96875	-6.02476	-0.96483	5.52714	5.48250
-664.06250	-2.39845	1.05017	5.12468	9.38191
-660.15625	0.82502	-0.56119	12.78079	21.87822
-656.25000	0.01924	3.46852	8.34901	12.89407
-652.34375	-6.02469	2.66309	3.91731	15.09502
-648.43750	-12.06870	-0.96290	3.91779	14.78946
-644.53125	-12.06876	-3.38019	-0.11104	-3.33920
-640.62500	-22.54493	-7.40913	3.91874	1.54161
-636.71875	-24.15668	-7.81173	4.72498	8.16560
-632.81250	-8.03951	2.26192	7.14293	18.98786
-628.90625	6.06297	7.09745	5.12873	24.53721
-625.00000	-4.41329	-6.60184	-5.34698	9.74761
-621.09375	-9.65146	-13.45132	-0.51137	11.40047
-617.18750	-8.84560	-9.42170	6.33889	15.08529
-613.28125	-10.86025	-8.21257	6.33936	22.07427
-609.37500	2.03351	-8.61513	7.54860	25.45679
-605.46875	7.67455	-4.98835	5.53435	12.38335
-601.56250	-4.01055	-1.76467	5.53481	11.56977
-597.65625	-7.23413	-3.37605	8.75876	13.10258
-593.75000	0.01847	-4.98742	8.75925	9.44034
-589.84375	-0.78751	-3.77833	9.56557	9.48734
-585.93750	-3.20518	-1.76330	7.14851	5.78080
-582.03125	-3.20525	-3.37465	6.74602	11.32176
-578.12500	1.62986	0.25206	8.76113	19.13970
-574.21875	3.24144	-0.95629	7.95578	14.52342
-570.31250	-10.05541	-5.38819	9.16506	11.27750
-566.40625	-3.20580	-1.35859	7.15083	6.46347
-562.50000	2.03221	-2.16412	2.71901	0.58849
-558.59375	-10.45863	-2.96959	1.91365	14.25891
-554.68750	-15.69672	-1.35753	5.54046	20.79809
-550.78125	-20.93484	-5.38648	11.18192	8.66240
-546.87500	-29.39643	-13.04180	4.73548	-8.53293
-542.96875	-11.66751	-9.01212	3.93011	-3.29819
-539.06250	-4.81774	-1.75900	9.57156	8.53481
-535.15625	-10.05595	-4.98199	11.58667	15.76856
-531.25000	-2.80328	-5.78750	14.81064	18.96357
-527.34375	2.43477	-1.35485	18.03466	11.96580
-523.43750	6.06107	-2.16034	20.04993	18.20230
-519.53125	10.89622	0.25750	18.03585	26.54818
-515.62500	6.46394	2.67540	18.43934	27.63607
-511.71875	0.41992	-0.95065	18.43986	28.47706
-507.81250	3.64328	-0.95036	16.82861	32.50322
-503.90625	-8.84766	-1.75599	17.63498	42.12855
-500.00000	-8.44488	-0.54694	17.23246	40.09613
-496.09375	-6.02739	2.67677	16.82998	31.01122
-492.18750	-6.83336	1.46828	17.23342	38.40544
-488.28125	0.82217	-0.94894	20.86021	50.25831
-484.37500	-3.20718	1.06606	19.65192	53.17416
-480.46875	-1.19258	2.67815	16.02600	47.57039
-476.56250	4.04546	1.06682	15.62347	56.51408
-472.65625	10.49229	1.47002	19.65323	62.04076
-468.75000	6.46293	-3.76777	18.44490	59.18776
-464.84375	-10.05723	-4.57328	17.23659	61.82151
-460.93750	-8.44552	-1.34951	19.65466	70.33067
-457.03125	-2.80450	-2.96087	16.43166	77.95181
-453.12500	2.83652	1.47169	18.44677	91.72148
-449.21875	10.49225	3.48673	23.28244	99.17971
-445.31250	-8.44551	-5.78031	18.04480	91.84766
-441.40625	-18.51878	-7.79460	12.80713	93.47280
-437.50000	-10.86312	-4.57079	14.41935	100.96349
-433.59375	-4.41631	-1.74998	16.43446	103.26591
-429.68750	1.22474	-2.15257	17.24080	100.52510
-425.78125	0.41888	-2.95809	18.04714	104.17257
-421.87500	0.41887	-0.13722	17.24172	102.09328
-417.96875	2.03052	2.28076	14.42162	94.11960
-414.06250	5.25392	1.87816	9.98979	88.60991
-410.15625	1.22458	0.26676	10.39324	96.66434
-406.25000	-0.79011	-0.13579	11.19958	95.97948
-402.34375	-2.40193	0.67041	12.40891	89.75065
-398.43750	-9.25181	-2.14975	16.43875	93.68385
-394.53125	-1.59618	-2.14939	15.63337	86.42922
-390.62500	18.95323	3.08906	14.82806	82.35561
-386.71875	6.46234	-5.77513	9.99344	63.64504
-382.81250	-5.62558	-5.77478	8.38220	50.00368
-378.90625	6.86521	3.49298	11.20322	49.29087
-375.00000	8.47695	0.67282	12.00952	39.10022
-371.09375	13.71499	2.68777	12.41297	37.04572
-367.18750	4.44750	-1.74420	1.93731	24.09473
-363.28125	-12.07273	-4.56441	1.53484	13.88370
-359.37500	4.44735	6.31509	7.98221	11.30843
-355.46875	15.72932	7.92716	3.95341	1.41623
-351.56250	7.67062	4.30120	-2.89596	-3.81281
-347.65625	11.69980	8.33085	-1.68672	-10.17953
-343.75000	4.04399	7.12241	-1.28335	-10.94817
-339.84375	-5.22348	4.30229	-2.08873	-8.17326
-335.93750	-2.80599	6.72017	-4.90880	-20.98556
-332.03125	-11.26768	10.34685	-2.08773	-19.27239
-328.12500	-9.65611	11.55594	2.74798	-7.74840
-324.21875	-6.02985	5.10934	-4.10131	-22.06860
-320.31250	-6.03000	2.28913	-3.69797	-31.71515
-316.40625	4.04311	3.09527	-3.69757	-30.52614
-312.50000	-5.62731	2.69262	-6.92062	-35.93191
-308.59375	-22.95345	1.08127	-8.53181	-33.08084
-304.68750	-12.47731	-1.33599	-7.72542	-23.50146
-300.78125	0.81936	0.27604	-7.72487	-24.66108
-296.87500	9.28086	4.70862	-6.11267	-25.59621
-292.96875	11.29543	5.11189	-8.93268	-23.17394
-289.06250	7.66904	1.08293	-13.76734	-26.14113
-285.15625	5.25140	-0.52847	-11.75219	-28.53841
-281.25000	10.48947	0.27773	-10.54287	-26.89688
-277.34375	5.25135	-2.94531	-10.54237	-23.52405
-273.43750	4.04253	-2.54207	-10.54189	-20.89474
-269.53125	11.69819	-0.92995	-10.94439	-22.38948
-265.62500	15.72740	-0.12373	-5.30295	-25.08774
-261.71875	23.38306	-0.12334	-8.52599	-24.71860
-257.81250	8.47456	-5.36100	-14.97242	-25.92295
-253.90625	-6.83688	-5.36058	-8.12219	-22.65326
-250.00000	9.68317	-3.34554	-6.91301	-23.03729
-246.09375	29.42669	-0.52466	-4.09206	-15.56293
-242.18750	26.60607	4.31095	2.35525	-4.42117
-238.28125	2.02725	-4.15020	-2.47941	-17.07866
-234.37500	-8.44907	-10.19380	-7.31411	-23.61963
-230.46875	2.83287	-4.14949	-11.34307	-16.80575
-226.56250	18.14418	-4.14914	-6.10458	-11.24263
-222.65625	22.97922	-4.95467	-1.67191	-15.96215
-218.75000	26.20252	1.49244	-4.08902	-23.98691
-214.84375	15.32322	2.29866	-4.49149	-21.78413
-210.93750	-4.01756	-2.93910	-8.52027	-25.05380
-207.03125	-6.43537	1.09047	-5.69930	-22.19749
-203.12500	0.41431	1.09079	-2.87837	-23.07204
-199.21875	10.08451	-4.14694	-5.69839	-29.32000
-195.31250	3.23464	-5.75832	-8.11553	-27.22458
-191.40625	-3.61521	-6.96677	-9.72678	-28.44552
-187.50000	4.84628	-1.32538	-5.69702	-21.42941
-183.59375	6.05509	0.28663	-6.50240	-15.67187
-179.68750	-0.79471	-4.95106	-9.72539	-14.13848
-175.78125	6.05509	-4.54778	-9.72494	-18.99333
-171.87500	12.90488	1.09363	-4.88940	-16.50987
-167.96875	14.51649	2.70568	-4.48608	-11.35547
-164.06250	11.29302	0.69145	-10.12669	-23.97636
-160.15625	0.01091	-2.12866	-9.32026	-22.35921
-156.25000	-7.64483	-2.93414	-5.29051	-16.03212
-152.34375	0.01093	-2.12789	-7.30472	-18.26349
-148.43750	6.45792	-1.32159	-9.72184	-9.30159
-144.53125	1.62284	-0.51528	-4.48326	-8.89549
-140.62500	5.65215	5.12617	-0.05058	-10.05866
-136.71875	6.45797	6.33536	-4.07952	-12.70215
-132.81250	5.65207	-0.51410	-6.89971	-17.99714
-128.90625	10.48716	-4.54300	-8.91393	-16.88008
-125.00000	7.66658	-7.36312	-8.10764	-13.13493
-121.09375	7.66647	-1.72178	-3.67496	-7.45280
-117.18750	10.08391	1.50203	-0.85403	1.06719
-113.28125	13.71020	-3.33274	0.35522	2.01217
-109.37500	26.60386	-2.92942	-1.25598	8.61808
-105.46875	15.72474	0.29437	-0.04667	8.43835
-101.56250	-3.21307	1.50357	-0.04621	-7.28370
-97.65625	-6.83950	1.10100	-8.91023	-29.52373
-93.75000	-13.68945	1.50420	-7.29795	-40.84174
-89.84375	-15.70420	2.31040	-4.87989	-38.37716
-85.93750	-16.51014	2.31069	-6.08822	-33.62220
-82.03125	-20.94247	-0.50956	-6.49068	-30.49883
-78.12500	-17.71909	-0.91208	-8.10193	-37.99215
-74.21875	-16.10739	-0.91170	-10.11606	-40.19070
-70.31250	-12.48107	-3.73189	-9.71261	-33.76615
-66.40625	-3.61659	3.52122	-2.45939	-28.90979
-62.50000	-10.86938	9.16260	3.58496	-18.66746
-58.59375	-22.95734	-0.91029	-2.45859	-19.90545
-54.68750	-18.52504	-3.73045	-6.48744	-25.45412
-50.78125	-12.88401	-1.71540	-4.06936	-26.30775
-46.87500	-9.66056	-0.90913	-1.24843	-20.13313
-42.96875	-6.03420	-2.52053	-1.24801	-17.31591
-39.06250	-4.82541	-3.32597	-3.66515	-22.00301
-35.15625	-6.84005	-1.31090	-6.08230	-21.21601
-31.25000	-9.25763	-0.90752	-2.45546	-17.21514
-27.34375	-6.03420	0.70459	1.57430	-12.12506
-23.43750	5.65080	4.33139	-2.45455	-11.93255
-19.53125	18.94752	7.95811	-3.25997	-10.83955
-15.62500	14.51523	3.52623	-1.24491	-10.15460
-11.71875	-6.43722	-4.12906	1.97896	-10.11949
-7.81250	-6.84018	-3.32284	8.02333	-8.51094
-3.90625	-4.01980	-5.33713	3.99444	-13.39111
0.00000	-5.63156	-2.91916	0.77145	-15.42345
3.90625	0.81522	-2.51584	1.17482	-20.07616
7.81250	6.05317	-6.54473	-0.03349	-18.72595
11.71875	6.85891	-2.91798	0.36985	-12.91701
15.62500	16.12626	4.33509	2.38496	-15.64221
19.53125	14.51432	5.54417	1.98252	-17.21693
23.43750	0.41156	1.11235	1.57992	-11.09393
27.34375	-2.81211	-0.90194	1.58028	-8.38805
31.25000	-2.81236	0.71010	1.98368	-11.64427
35.15625	5.64883	2.72507	1.58119	-14.65187
39.06250	6.45430	2.72538	-0.83599	-13.79863
42.96875	9.27446	8.36677	-0.02968	-5.77485
46.87500	8.87125	6.75536	-4.86447	-2.88462
50.78125	-2.41111	-3.31753	-4.86405	-5.09696
54.68750	-4.42594	0.30919	4.80671	-4.77362
58.59375	-4.02321	2.32422	6.41882	-4.76037
62.50000	-4.02343	3.13036	4.00171	-4.11968
66.40625	-6.84410	1.51892	1.98753	-6.24959
70.31250	-7.65020	-2.51007	-0.02663	-12.21400
74.21875	2.01997	1.11664	4.00314	-12.99892
78.12500	4.84028	-2.50940	1.18302	-11.85490
82.03125	-0.39799	-1.70317	-4.05459	-13.38179
85.93750	-1.60690	3.53530	-0.02486	-16.47407
89.84375	6.04856	5.14744	4.00486	-16.47840
93.75000	7.66020	5.14785	5.21407	-9.50765
97.65625	4.03371	-1.70157	4.00570	-11.70725
101.56250	2.82475	-2.50702	4.00613	-8.98297
105.46875	2.01874	1.52267	5.61826	-2.13517
109.37500	4.43620	-0.49157	3.20114	-10.64111
113.28125	2.82431	0.31467	0.38099	-8.39951
117.18750	6.45057	5.95609	4.41070	3.34348
121.09375	14.50898	5.95642	1.99354	-3.01055
125.00000	14.91175	7.56841	-6.87058	-8.36631
128.90625	9.27051	7.16584	-4.85553	-8.80929
132.81250	3.22638	-2.10125	-3.64632	-15.31348
136.71875	12.09062	2.33130	-0.01949	-5.78105
140.62500	10.07569	5.15208	4.41310	0.50793
144.53125	-6.44470	-0.08574	5.62232	-5.75808
148.43750	-2.81854	1.52626	4.41395	-6.55504
152.34375	2.82223	0.72072	1.19091	-4.05738
156.25000	11.28355	0.31809	0.38547	-10.46719
160.15625	15.71559	5.95946	1.59469	-6.88661
164.06250	6.85089	4.34809	1.59510	4.87981
167.96875	6.44782	0.72201	3.20725	0.14598
171.87500	7.65645	-0.08350	8.84869	0.38786
175.78125	6.85035	-3.30660	10.05800	5.40829
179.68750	4.83551	-2.90330	10.05847	7.44663
183.59375	6.44707	-1.29130	8.04425	8.63555
187.50000	6.04390	-2.49982	5.22417	5.24425
191.40625	8.46130	-3.30535	4.82162	2.45411
195.31250	9.26700	-3.30499	5.22498	1.55721
199.21875	5.64055	-1.69294	5.62833	3.21792
203.12500	7.65511	1.93380	9.25520	5.90892
207.03125	-0.00068	-3.70692	0.79410	0.67536
210.93750	-3.62719	-8.13881	-5.24945	-4.30670
214.84375	5.23704	-1.69171	3.61536	-6.70426
218.75000	6.04276	-0.07958	4.42161	-9.49517
222.65625	4.83390	1.12965	4.42203	-6.92825
226.56250	8.86316	3.95050	4.42246	-0.67263
230.46875	6.44537	4.75663	2.81117	0.65309
234.37500	1.61003	6.77154	6.03503	-0.43352
238.28125	4.43043	5.56304	5.22962	-2.07915
242.18750	2.01269	-1.68942	-3.23151	-8.52169
246.09375	2.41545	-0.48035	-4.03690	-5.25204
250.00000	9.26508	4.75803	2.00752	12.09286
253.90625	10.87666	1.53488	-2.82727	10.29984
257.81250	3.22077	-1.28531	-3.22974	-5.15182
261.71875	-4.83802	-0.07620	2.81466	-5.31861
265.62500	-0.80889	-2.89635	-0.00541	1.03416
269.53125	11.27886	-1.68728	-2.42269	-0.61351
273.43750	10.87585	1.53648	4.02457	-2.30328
277.34375	6.84635	-0.88074	2.81618	-7.02291
281.25000	4.02569	-0.47755	4.02539	-5.78028
285.15625	3.21975	3.95504	10.87565	-1.56295
289.06250	4.02551	0.32898	5.63800	-8.86209
292.96875	-0.00389	-1.68532	2.01211	-11.24390
296.87500	-6.85375	0.32971	1.60960	-15.34201
300.78125	-3.22742	-6.11672	-3.22511	-16.35200
304.68750	0.80182	-8.93688	-3.62766	-13.85377
308.59375	-2.82464	-2.89256	-4.43314	-16.68650
312.50000	-8.86871	-2.89225	-0.00051	-15.71448
316.40625	-4.83955	-1.68320	2.01455	-20.03041
320.31250	2.81590	0.33178	-3.62609	-25.34703
324.21875	0.39825	0.33214	-4.83449	-23.75512
328.12500	-7.25742	-1.27921	-6.84871	-17.24227
332.03125	-10.07782	-4.09933	-5.63946	-15.31119
335.93750	-12.49531	-8.12822	-3.22146	-20.27626
339.84375	-12.09222	-11.35130	-2.81822	-14.62959
343.75000	0.80172	-7.32165	1.61440	-6.69057
347.65625	3.21950	-7.32132	0.00307	-5.69828
351.56250	3.21966	-8.52984	4.03271	-4.79485
355.46875	7.65211	-7.32073	6.45063	-6.40310
359.37500	6.04056	-2.88815	2.01887	-5.14846
363.28125	5.23494	2.75317	3.63103	0.66995
367.18750	6.84688	5.97697	5.24325	3.03099
371.09375	0.40025	1.54504	-5.63550	-7.13376
375.00000	-5.64355	1.54535	-10.47030	-11.84993
378.90625	-2.01709	5.57497	0.81209	-9.39105
382.81250	-3.62870	1.14314	5.24474	-9.33244
386.71875	-7.65802	-1.27407	2.02177	-6.77564
390.62500	0.40064	1.94972	2.82811	-5.81065
394.53125	4.42990	-0.06461	6.05198	-5.99040
398.43750	-3.62875	-4.49652	6.05238	-6.40112
402.34375	-8.46402	0.33896	5.24696	-6.48005
406.25000	-3.62885	2.35402	4.84444	-11.35115
410.15625	-2.01719	1.95139	1.21845	-14.52769
414.06250	-4.03186	6.78685	-1.60166	-15.01089
417.96875	-1.21138	6.38431	5.65147	-14.30512
421.87500	-2.01726	1.54952	5.65189	-13.74003
425.78125	-4.83782	-0.06178	1.62302	-19.16212
429.68750	-6.04667	-3.28487	0.41466	-23.61691
433.59375	-2.82328	-3.68749	1.22092	-19.16368
437.50000	-0.40584	-0.06073	4.44477	-13.75665
441.40625	6.04102	0.34257	7.26577	-10.15953
445.31250	2.01170	-2.88042	0.01345	-16.51419
449.21875	-4.43528	-5.29767	-7.23892	-20.59134
453.12500	-2.82363	-6.90908	-2.40342	-18.44601
457.03125	3.62322	-3.68533	2.02920	-18.04645
460.93750	6.84657	0.34428	3.23835	-13.06331
464.84375	-10.88239	-5.29635	-1.59651	-16.30578
468.75000	-16.12052	-9.72824	-7.64006	-16.33425
472.65625	2.81720	-10.13078	-0.38689	-4.79724
476.56250	6.44366	-9.72750	3.64282	-6.61933
480.46875	5.23487	-2.07147	-3.20656	-9.95837
484.37500	15.30808	1.55515	-3.60910	1.20280
488.28125	26.59014	2.36139	-1.59400	12.52007
492.18750	37.46935	3.16761	0.82407	23.79910
496.09375	39.88699	-0.05549	2.43619	27.78352
500.00000	43.11053	0.34777	3.24256	31.39239
503.90625	42.70767	1.15404	0.82540	31.17216
507.81250	36.66379	-0.86025	-1.99471	26.47871
511.71875	38.67853	-0.05401	-4.41191	23.82632
515.62500	41.09617	2.36399	-1.99391	25.53351
519.53125	38.27571	2.36434	4.05040	27.98836
523.43750	33.44057	2.76752	3.64780	28.87345
527.34375	33.44055	3.97663	-0.38114	29.56502
531.25000	36.26104	6.39457	-0.38076	28.32376
535.15625	29.41127	6.39490	-0.38035	28.53997
539.06250	25.78489	5.58932	0.02301	26.97596
542.96875	26.99374	8.00726	-1.18542	22.10640
546.87500	19.33812	3.97830	-8.03489	14.52086
550.78125	18.12945	-0.45363	-11.66081	11.90583
554.68750	16.51777	-3.27379	-9.64577	11.42362
558.59375	18.93546	-2.46755	-5.21313	7.81084
562.50000	19.33845	0.35335	-0.78052	5.63131
566.40625	17.32386	0.35373	2.44335	7.53093
570.31250	19.33851	-0.04881	2.04087	8.81946
574.21875	17.72680	-2.06311	-1.98801	6.82590
578.12500	14.90628	-1.65986	-3.19640	1.92614
582.03125	12.08565	-2.86826	-3.59897	-0.80945
585.93750	9.26509	-1.25625	-9.64256	4.96286
589.84375	10.87681	5.99677	-7.22459	13.82318
593.75000	6.44448	2.77360	2.04316	5.07975
597.65625	1.60928	-4.07588	1.64060	-4.37251
601.56250	7.25023	-2.46384	-4.80585	-6.08031
605.46875	8.45891	-1.65769	-4.80545	-3.26162
609.37500	8.05585	-1.25443	0.43297	0.72334
613.28125	14.90566	2.77519	5.67137	4.97975
617.18750	14.09967	-0.85084	3.65704	5.03793
621.09375	1.20586	-5.68568	-5.60995	-1.31600
625.00000	-0.80886	-4.07354	-6.01246	-2.23931
628.90625	3.22036	-3.67023	-5.20612	-2.68213
632.81250	4.42902	-4.07273	-3.19113	-3.54520
636.71875	4.42887	-2.05777	-0.37034	-3.68310
640.62500	4.42877	1.97187	0.43581	-3.03506
644.53125	2.01109	1.97224	-2.38438	-4.46584
648.43750	7.24915	2.77850	-2.78700	-1.23342
652.34375	7.24908	1.57009	-6.41300	-3.57092
656.25000	4.83144	-0.04119	-6.00975	-0.71320
660.15625	2.01089	1.97387	-2.78592	-0.35597
664.06250	-9.27122	-3.66684	-6.41191	-6.72136
667.96875	-4.43611	-6.08405	-7.21739	1.43875
671.87500	-0.00395	-8.50128	-5.20238	0.06903
675.78125	0.39888	-12.53022	-1.17277	-2.56622
679.68750	7.65148	-10.11232	2.45388	2.69560
683.59375	13.29238	-6.08268	4.87182	1.46699
687.50000	12.88949	-3.66476	-4.79819	0.49340
691.40625	8.86023	-0.44098	-10.43886	-0.68486
695.31250	13.29242	3.18572	1.24642	0.83592
699.21875	14.50117	7.21529	11.32010	4.91434
703.12500	3.62204	-0.44012	6.08240	1.56150
707.03125	2.81610	-4.87200	0.84467	2.37192
710.93750	6.03948	-1.64824	2.45673	3.43399
714.84375	6.03944	-1.24491	2.45712	5.06586
718.75000	16.51568	1.97885	-2.37770	15.97483
722.65625	10.87475	6.00843	-3.98909	10.08033
726.56250	-8.46594	6.41165	0.44346	-12.67489
730.46875	-18.53909	5.60604	0.84676	-22.22806
734.37500	-29.41807	1.17415	-3.58513	-27.34361
738.28125	-38.28245	-2.04904	-4.39058	-36.24176
742.18750	-39.89417	6.81565	-2.37550	-35.02843
746.09375	-43.52068	10.84524	-1.97217	-36.19098
750.00000	-59.63800	1.57821	-3.98646	-47.85707
753.90625	-63.26459	-0.83897	-5.59788	-52.47067
757.81250	-51.57988	2.78769	-1.16535	-46.56720
761.71875	-47.55091	1.57918	-6.40316	-44.71949
765.62500	-43.92489	0.77364	-10.83509	-43.60499
769.53125	-37.47829	0.37100	-10.43180	-39.20892
773.43750	-30.62876	2.38598	-8.81979	-31.22854
777.34375	-26.19691	4.80379	-5.99898	-23.86041
781.25000	-22.57082	0.77479	-5.19274	-24.22975
785.15625	-20.95946	-1.23960	-5.19244	-27.66831
789.06250	-13.30408	1.98414	-4.38627	-23.28259
792.96875	-1.21641	6.81962	3.67270	-12.77071
796.87500	-4.44010	4.40240	-0.35624	-16.46595
800.78125	-9.67846	0.77626	-10.42919	-25.13181
804.68750	-10.48459	0.77655	-7.60841	-25.45423
808.59375	-8.06730	-0.83484	-8.01102	-18.61668
812.50000	1.60276	3.19473	-6.39892	-8.37735
816.40625	-0.41218	5.20965	1.25706	-7.85813
820.31250	-10.08268	-0.02815	0.04869	-13.57766
824.21875	-9.67997	-2.04249	-2.36851	-15.61218
828.12500	-4.03907	1.98712	1.25817	-9.90534
832.03125	-6.45686	0.77861	-1.96489	-10.79499
835.93750	-7.26292	-2.04160	-1.15864	-11.32799
839.84375	-5.24844	1.18212	6.09452	-8.90508
843.75000	-4.03978	3.19705	2.46847	-9.83073
847.65625	-2.42817	2.39152	-3.97805	-10.04758
851.56250	-2.83110	3.60061	-4.38064	-12.77074
855.46875	-1.62233	4.80977	-1.15680	-9.54419
859.37500	-4.04003	1.98960	0.45520	-7.88702
863.28125	-10.88988	-2.03938	-4.37964	-11.73937
867.18750	-9.68113	-1.63613	-4.37931	-11.39332
871.09375	-0.41372	5.21411	-3.57311	-7.05283
875.00000	-6.05473	1.18520	-5.18447	-12.97805
878.90625	-14.91929	-10.49941	-5.58710	-21.80146
882.81250	-10.08416	-10.49904	-5.18383	-12.47567
886.71875	-1.62273	-5.66362	-1.55719	-4.68099
890.62500	0.39180	-0.82814	2.87538	-5.73086
894.53125	1.60052	-2.43957	4.89038	-5.91074
898.43750	11.27073	1.99302	4.08484	-1.88930
902.34375	7.64431	3.20216	-1.55591	-1.56532
906.25000	0.79442	0.78493	-10.82297	-0.39253
910.15625	10.86771	4.81462	-11.62845	5.29543
914.06250	10.06172	3.20328	-7.59882	1.99173
917.96875	4.01759	1.59185	-2.76338	-0.52609
921.87500	4.42032	0.78629	0.86331	-0.76689
925.78125	8.44940	-0.82512	-3.97155	0.25773
929.68750	10.46388	-1.63073	-5.58302	-0.97370
933.59375	4.41983	-6.46554	-5.58271	-7.39959
937.50000	5.22558	-4.85342	-3.56773	-5.61894
941.40625	12.47826	2.39966	0.05901	-1.61887
945.31250	16.10464	6.02635	-3.96998	-0.72082
949.21875	16.91041	6.02668	-2.35796	1.64887
953.12500	12.47799	3.20647	-2.35765	-0.63818
957.03125	10.46327	1.59504	-8.80429	-9.50610
960.93750	12.47791	3.61009	-8.40110	-6.94055
964.84375	10.86613	4.01340	0.06071	0.69614
968.75000	6.83667	4.01374	-0.74492	-3.36172
972.65625	2.80727	-0.01517	-7.59440	-13.18015
976.56250	-1.22216	-2.83527	-1.14719	-15.00243
980.46875	-1.62519	-2.43201	2.07653	-11.89491
984.37500	1.59815	1.59766	-1.95250	-7.98661
988.28125	1.59805	2.80684	-3.96686	-8.75751
992.18750	-0.01382	4.41893	-7.59295	-9.96959
996.09375	-2.43163	10.46317	-5.98094	-4.77654
1000.00000	-2.83469	10.46346	-3.56303	-1.57092
1003.90625	-14.51983	-2.83294	-15.65057	-5.01476
1007.81250	-17.74338	-10.08534	-13.23266	-9.30552
1011.71875	-0.41747	-2.42933	4.49665	-3.09360
1015.62500	-0.41756	-5.24947	-2.35277	-2.99829
1019.53125	-3.23819	-8.47259	-5.97883	-3.76710
1023.43750	1.19394	-0.81658	0.46840	1.95308
1027.34375	-0.41791	0.79542	-5.17223	-0.98192
1031.25000	-2.02972	0.39278	-4.76899	-2.62636
1035.15625	0.38775	3.21363	-2.75404	-0.39572
1039.06250	3.61117	2.81095	-6.78306	2.87520
1042.96875	2.80527	-2.42684	-6.37980	-0.38291
1046.87500	-0.82111	-2.82939	-0.33551	-5.95414
1050.78125	-2.03000	-1.21736	0.47066	-8.16644
1054.68750	0.38746	-5.64930	-3.96124	-10.66359
1058.59375	2.80486	-1.61970	-0.73754	-6.21816
1062.50000	0.38712	-0.00766	-1.94596	-3.15993
1066.40625	-3.64240	-1.61915	-5.97501	-4.88702
1070.31250	-4.44853	1.60456	-4.36294	-3.19590
1074.21875	-1.62821	0.79900	-3.15384	-6.39853
1078.12500	-2.03139	-1.21534	-1.94471	-7.67216
1082.03125	-2.83746	-2.02092	-3.15319	-9.60206
1085.93750	-2.03187	-3.63238	-3.15293	-10.67979
1089.84375	-7.67315	-8.87018	-4.36146	-4.23738
1093.75000	0.38531	-7.25815	-4.76408	3.13621
1097.65625	6.42901	-7.25788	-9.59888	5.36872
1101.56250	4.41416	-6.45173	-13.22497	4.06355
1105.46875	1.99640	-2.82505	-3.15141	1.24094
1109.37500	9.65193	-1.61605	1.28106	4.82280
1113.28125	17.30746	1.60771	-0.33029	6.66159
1117.18750	0.78721	2.81676	-0.32998	-6.57701
1121.09375	-13.31551	-0.00353	3.69959	-20.98968
1125.00000	-15.73329	-3.62972	5.71455	-25.94245
1128.90625	-12.91301	-0.00310	4.50610	-25.17661
1132.81250	-10.09271	4.42937	2.08890	-18.78703
1136.71875	-16.53984	-0.00265	-0.32838	-16.50743
1140.62500	-20.56932	-2.82288	-1.53683	-19.08288
1144.53125	-16.54021	-0.00211	-2.74532	-14.06678
1148.43750	-5.25835	1.60985	-2.74502	-7.61093
1152.34375	-0.42336	5.63941	-3.55058	-3.09859
1156.25000	-0.42348	3.22215	-4.35614	-0.64386
1160.15625	-0.82645	-4.83615	-8.78810	-5.52478
1164.06250	-4.45292	-4.43300	-12.81707	-11.89025
1167.96875	-6.46765	-3.62688	-12.41381	-15.01230
1171.87500	-7.67650	-1.20900	-4.75790	-15.17338
1175.78125	-4.45313	3.22351	-0.72835	-15.39105
1179.68750	-3.64732	2.01499	-5.96618	-16.17329
1183.59375	-7.67679	-2.01401	-7.17464	-12.56682
1187.50000	-1.23001	1.61264	0.88421	0.96505
1191.40625	3.20213	2.82174	0.48151	5.02470
1195.31250	-6.06540	-1.61023	-7.57685	-6.34841
1199.21875	-8.88603	-2.01283	-4.75613	-10.73163
1203.12500	-2.43933	-1.60965	2.89981	-4.41422
1207.03125	-1.63355	-6.44453	4.51175	-3.60381
1210.93750	-1.23081	-5.23546	3.30326	-3.75061
1214.84375	-2.84263	-2.41470	-4.75513	-5.74514
1218.75000	-4.85739	-2.41443	-8.78415	-10.95350
1222.65625	-1.23114	2.82396	-3.14282	-8.78951
1226.56250	0.78353	4.43602	0.08094	-6.16016
1230.46875	2.79826	3.22756	-1.53047	-8.86359
1234.37500	3.60417	6.04840	1.29031	-8.74137
1238.28125	-1.23109	3.22825	2.49939	-7.16355
1242.18750	-4.45456	-1.20364	-1.52957	-10.38259
1246.09375	-0.02236	3.22894	-1.93217	-9.12757
1250.00000	-2.03711	2.42337	-3.14072	-9.51168
1253.90625	-9.28996	-7.24666	-7.16973	-21.37803
1257.81250	-10.90178	-6.44051	-6.36360	-23.53306
1261.71875	-13.72251	-2.81386	-5.15459	-18.05887
1265.62500	-7.67870	0.00688	-2.73681	-10.09447
1269.53125	0.37986	1.21597	-4.34815	-9.72752
1273.43750	-2.44079	-0.39549	-6.36250	-13.02900
1277.34375	-6.06720	2.42536	-1.93003	-6.86949
1281.25000	-4.85848	2.02266	-1.12397	-8.04443
1285.15625	-4.85856	-0.79759	0.48792	-11.07987
1289.06250	-2.03814	-2.00614	2.50277	-11.93215
1292.96875	2.79691	0.81461	0.08548	-13.91106
1296.87500	4.40860	3.23248	-1.92890	-7.93585
1300.78125	-0.02370	-3.21417	-7.16680	-4.91661
1304.68750	-7.27653	-13.28719	-12.80766	-9.67123
1308.59375	-6.06777	-9.66055	-6.36055	-8.47466
1312.50000	-4.85897	-0.39282	-2.73400	-7.09959
1316.40625	-7.27661	-0.39251	-3.13666	-3.35689
1320.31250	-12.11180	-0.79509	-8.37452	-2.22653
1324.21875	-8.48551	-1.60069	-7.97137	-3.45512
1328.12500	-2.84456	-4.01797	0.89338	-0.97171
1332.03125	-2.03879	-2.00304	-3.13569	-0.24962
1335.93750	4.00514	5.25005	-8.37350	-2.79726
1339.84375	12.46668	11.29438	-7.16440	-1.58312
1343.75000	12.06366	8.87711	-1.12023	-0.89714
1347.65625	2.39325	-3.21050	-2.73175	-14.41080
1351.56250	-2.44206	-10.46296	-7.16370	-22.37219
1355.46875	1.18431	-0.38939	-3.53714	-17.53396
1359.37500	-3.65083	3.23734	-3.13394	-11.84746
1363.28125	-16.94764	-1.19462	-8.37181	-13.68519
1367.18750	-12.11254	2.43204	-6.35694	-10.51874
1371.09375	-6.06870	4.44702	-3.93905	-2.14905
1375.00000	-4.05418	4.44732	-2.73006	-1.22448
1378.90625	1.18380	4.44757	-1.52105	-3.60102
1382.81250	4.00418	5.25367	-1.52079	-1.52803
1386.71875	10.45100	10.08911	1.29998	5.46080
1390.62500	9.24208	7.67176	-1.52031	3.60504
1394.53125	1.98919	0.01634	-4.74353	-2.61882
1398.43750	-4.45777	-3.60979	-7.16079	-6.65596
1402.34375	-8.49018	-4.41536	-11.99573	-18.55278
1406.25000	-3.77358	-1.59465	-7.56322	-18.31533
1410.15625	-5.61416	-0.78848	-5.95126	-13.22341
1414.06250	-4.44129	0.01764	-8.36861	-10.07242
1417.96875	-1.67915	-4.01141	-9.17433	-3.65027
1421.87500	-10.40715	-6.02577	-8.77127	-11.10088
1425.78125	-14.96081	-3.60789	-4.74179	-14.02939
1429.68750	-14.51340	-4.01049	1.70528	-12.84348
1433.59375	-7.38086	-1.59267	2.51131	-8.72967
1437.50000	0.69221	-1.18940	-0.30895	-5.01417
1441.40625	-4.27607	-4.41254	0.90010	-6.90410
1445.31250	-6.39507	-5.62105	0.90033	-5.69982
1449.21875	-7.68126	-3.60607	0.09473	-7.58741
1453.12500	-6.28919	-4.00858	0.90085	-6.56804
1457.03125	-1.78788	-4.81402	0.09521	-8.42545
1460.93750	-1.38198	-3.20195	-0.30760	-7.17517
1464.84375	0.96811	-2.39571	3.72186	-1.79445
1468.75000	-2.44427	-4.81284	-1.11310	-4.30573
1472.65625	-4.79071	-4.00658	-5.54514	-5.19413
1476.56250	-3.47689	-1.99153	-3.93314	-3.00101
1480.46875	-3.74079	-4.00578	-3.53001	-2.64930
1484.37500	5.11184	-1.58782	-2.72396	-1.51311
1488.28125	6.83888	2.44197	-5.94722	-1.38769
1492.18750	0.34084	2.84527	-14.00565	-1.78190
1496.09375	1.67081	-6.42177	-10.37906	-2.83850
1500.00000	1.54011	-12.06248	-5.54368	-8.23677
1503.90625	-0.00980	-2.79461	-2.72295	-10.50259
1507.81250	0.42494	1.23509	-2.31984	-7.69945
1511.71875	3.06469	0.83254	-6.34899	-0.75833
1515.62500	6.80853	3.65339	-3.52828	0.12683
1519.53125	7.61105	3.25082	0.50130	-1.37363
1523.43750	11.79184	6.07163	0.90453	3.86922
1527.34375	8.53335	2.44560	-3.52750	1.33547
1531.25000	4.59161	-2.79223	-7.95959	-2.52208
1535.15625	12.34107	4.46077	0.09924	4.28874
1539.06250	12.85951	0.83463	-0.30352	4.23984
1542.96875	10.29436	-6.41786	-3.12382	0.09437
1546.87500	14.24007	-3.59712	0.09981	6.37249
1550.78125	14.59408	2.85003	-6.74991	6.62991
1554.68750	4.16858	2.85031	-8.76440	-0.01710
1558.59375	0.76521	2.44770	-0.70563	-1.06586
1562.50000	4.76268	3.25383	2.51798	3.14932
1566.40625	11.09664	4.46296	3.72698	6.60154
1570.31250	10.91234	4.46327	2.51838	5.34467
1574.21875	10.49817	5.26939	3.32442	7.76464
1578.12500	11.21792	2.44911	3.72741	2.85717
1582.03125	0.83496	-6.81823	2.51874	-7.52087
1585.93750	-0.89946	-10.44445	-1.51044	-6.84733
1589.84375	1.60518	-3.99737	-6.74837	-6.37668
1593.75000	5.94712	6.47902	-5.53931	-1.77444
1597.65625	2.71586	2.44995	-6.34492	-2.92702
1601.56250	2.94092	3.65895	-1.10660	-4.92435
1605.46875	0.81419	6.88262	0.90825	-4.56515
1609.37500	-9.29671	-3.19042	-5.13550	-12.41544
1613.28125	-9.88441	-4.39905	-0.30015	-13.31638
1617.18750	-10.63707	-1.98125	-0.29995	-13.98231
1621.09375	-11.48516	-1.98099	-3.92609	-14.44926
1625.00000	-6.32869	-0.36900	-0.70253	-11.94244
1628.90625	-1.24341	1.64588	-3.11989	-8.74267
1632.81250	0.07562	0.03440	-8.35775	-7.51531
1636.71875	3.39465	2.85515	-5.53699	-4.51778
1640.62500	6.71242	5.67587	-4.32801	-4.26761
1644.53125	8.69511	-0.77076	-3.11912	-9.64473
1648.43750	2.39521	-3.59110	-2.31318	-11.47667
1652.34375	-4.86652	-6.81429	-8.35697	-13.37698
1656.25000	-1.92756	-7.21690	-8.75975	-14.41911
1660.15625	0.71880	-4.79906	-5.53614	-9.83943
1664.06250	4.38089	-2.38126	-3.52129	-6.94533
1667.96875	1.21560	-1.97804	-1.90930	-3.69605
1671.87500	-2.54735	-2.38079	-0.29741	4.15855
1675.78125	0.39444	-1.57474	1.71744	4.26761
1679.68750	-0.45602	-0.36571	-2.31164	-2.15523
1683.59375	1.67880	1.24626	-2.71437	-5.05925
1687.50000	-2.36501	1.64937	2.52399	-2.32675
1691.40625	-4.24669	2.85843	-2.31092	0.37019
1695.31250	-2.12803	0.84400	-9.96645	-5.26536
1699.21875	-7.28891	-5.19974	-5.53404	-9.42070
1703.12500	-2.23438	-1.97605	1.31593	-8.42439
1707.03125	-1.09503	-1.57291	-0.29556	-6.96900
1710.93750	-3.91889	-1.16973	-0.29534	-1.36866
1714.84375	1.38633	0.44217	-0.69810	3.32477
1718.75000	3.18658	0.84530	-3.92129	7.04571
1722.65625	1.90616	4.87480	-5.12989	4.71151
1726.56250	2.60656	2.05455	-2.30922	0.90754
1730.46875	4.88464	-2.78032	0.91442	3.77998
1734.37500	2.07542	-2.78011	-5.12934	0.22689
1738.28125	1.15377	-1.97412	-4.32333	-1.91247
1742.18750	4.83075	-1.16807	4.54129	-1.11455
1746.09375	6.32074	0.84682	2.12394	3.16627
1750.00000	5.24210	3.26462	2.52702	8.56526
1753.90625	0.74763	0.44425	4.54187	10.02601
1757.81250	0.31251	0.04158	0.91571	10.44707
1761.71875	6.93985	3.66816	-1.50173	9.55081
1765.62500	6.41895	-4.39023	-4.32205	5.44309
1769.53125	4.00419	-9.62813	-1.90429	2.51212
1773.43750	6.67287	-3.58395	-0.69537	4.92580
1777.34375	8.31930	0.84855	-3.11270	8.66921
1781.25000	0.57570	-0.35997	-5.93305	7.28947
1785.15625	-6.77119	-6.40368	-8.35035	0.47961
1789.06250	-10.91627	-7.61229	-3.91784	-4.30576
1792.96875	-10.76898	-6.00033	2.52918	-2.17404
1796.87500	-4.64165	-3.58258	2.93226	0.81619
1800.78125	-3.38416	0.44695	3.33532	6.20081
1804.68750	-5.44964	-3.17918	4.94710	10.43127
1808.59375	5.60930	-2.77605	2.12671	14.30149
1812.50000	10.07335	4.87980	-1.09652	16.13144
1816.40625	9.38052	2.86539	4.14179	20.33603
1820.31250	11.17653	-5.19297	5.75364	21.99696
1824.21875	20.45509	-2.37225	2.53038	21.99560
1828.12500	31.42023	-1.16322	-1.09572	27.30703
1832.03125	30.92392	-5.59526	-3.91602	30.43323
1835.93750	31.85221	-3.17744	-0.69249	33.38697
1839.84375	31.36210	-1.16257	2.12823	34.52911
1843.75000	31.04922	-0.35658	1.32245	32.74849
1847.65625	28.63931	-0.75931	-1.90084	33.90211
1851.56250	30.02585	-0.35623	-5.12413	30.66244
1855.46875	27.31721	-0.35604	-6.73566	25.06627
1859.37500	19.69898	-2.37050	-3.10905	21.63564
1863.28125	21.49527	-5.19082	-1.49718	19.31428
1867.18750	22.24786	-5.19060	-3.51164	16.35499
1871.09375	23.49877	-2.36985	-1.09386	18.43480
1875.00000	17.13334	-6.39896	-3.51133	16.73499
1878.90625	7.21268	-9.62224	-3.91405	9.10412
1882.81250	7.50533	-6.80150	-0.69045	5.46037
1886.71875	11.84188	-3.57782	-3.10783	7.70213
1890.62500	8.12112	-8.41273	-0.69014	4.22963
1894.53125	8.95889	-7.20370	6.15983	3.56393
1898.43750	8.81173	-3.17421	2.13065	6.60581
1902.34375	1.97082	-4.78569	-3.10730	3.26919
1906.25000	4.67277	-4.78543	-2.30125	6.32713
1910.15625	7.66737	-6.39692	-3.10689	5.77793
1914.06250	11.66088	-6.79964	-1.49501	9.73486
1917.96875	13.61726	-2.77009	-4.71826	12.53061
1921.87500	11.33609	4.88572	-3.91217	12.33271
1925.78125	3.55898	-2.76974	-3.91199	6.18079
1929.68750	2.79765	-6.79892	-4.71771	1.72562
1933.59375	3.48323	-2.36648	-0.28530	5.83944
1937.50000	-1.33759	-8.00725	-0.68815	4.31682
1941.40625	2.96156	-6.39534	-3.50854	6.05323
1945.31250	6.08081	-5.58927	-6.73187	6.45178
1949.21875	8.82401	-4.38022	-2.29949	9.39952
1953.12500	11.02200	0.85810	0.92405	12.43362
1957.03125	8.67371	1.66417	-3.91095	8.56172
1960.93750	17.13842	7.30542	-5.52255	14.24444
1964.84375	20.29453	4.88805	-9.95464	13.17842
1968.75000	5.19742	-5.58783	-9.95444	3.81754
1972.65625	7.28355	-3.16995	5.35716	9.77921
1976.56250	14.23859	2.87423	10.19245	12.37550
1980.46875	4.30473	-3.57243	3.34272	2.25129
1984.37500	-4.57129	-5.98975	-1.08949	-9.10300
1988.28125	-6.47024	-2.76607	-5.92459	-12.60367
1992.18750	-1.68584	-5.98928	-5.11854	-6.14774
1996.09375	-4.78769	-4.37737	-3.90962	-7.60689
2000.00000	-3.30627	-1.55664	-6.32709	-13.00482
2003.90625	5.62023	0.86120	-3.90936	-7.21179
2007.81250	11.69617	4.08488	4.14936	-1.18500
2011.71875	19.17128	8.51742	5.35832	1.32405
2015.62500	18.08019	9.32354	-2.29724	0.19470
2019.53125	3.57160	6.10033	-3.90880	-9.36417
2023.43750	-14.40867	10.93569	-3.50576	-17.01496
2027.34375	-22.50219	14.15934	-0.28212	-18.74275
2031.25000	-20.39987	15.77131	1.73271	-14.54155
2035.15625	-30.37920	25.84477	-2.29644	-23.04207
2039.06250	-54.03654	27.85967	-2.29633	-47.66968
2042.96875	-65.06326	27.05407	-1.89331	-62.69423
2046.87500	-64.74396	32.69531	1.73314	-68.10110
2050.78125	-78.49255	31.88971	-1.49020	-78.72286
2054.68750	-94.55929	29.47237	-7.93700	-92.21973
2058.59375	-92.72472	35.11356	-4.71339	-95.28324
2062.50000	-94.36850	33.90494	-5.51906	-95.90340
2066.40625	-96.89922	33.90513	-7.53357	-97.28649
2070.31250	-92.65147	37.12876	-5.92173	-90.88787
2074.21875	-92.25993	29.47331	-9.95085	-86.85622
2078.12500	-83.48170	26.25010	-6.72723	-82.49637
2082.03125	-65.65965	33.90598	3.74908	-68.29570
2085.93750	-64.97658	28.26521	5.76383	-66.41348
2089.84375	-66.50142	19.40091	1.33167	-67.55475
2093.75000	-59.74198	16.17766	0.52592	-58.92341
2097.65625	-48.87085	6.50759	2.94359	-51.21170
2101.56250	-37.76686	-2.35671	1.73480	-44.34480
2105.46875	-32.64100	0.46397	-0.68278	-36.73311
2109.37500	-20.99383	9.73163	-0.27975	-24.43718
2113.28125	-12.31437	10.53763	-1.48844	-19.69744
2117.18750	-13.47033	5.70255	-2.29422	-17.54320
2121.09375	-8.67769	4.89691	0.12345	-9.14601
2125.00000	-1.50682	3.68835	-0.68239	-4.62477
2128.90625	-0.04812	2.47985	-3.90571	3.81289
2132.81250	-1.95275	-1.14628	-6.72616	-2.21269
2136.71875	1.76899	-5.98118	-7.12892	-2.43879
2140.62500	6.69820	-6.38393	-5.11419	6.67573
2144.53125	2.23379	-7.18959	-6.72589	0.08964
2148.43750	6.81284	-12.02462	-10.75511	3.09259
2152.34375	12.04178	-11.21853	-9.14323	11.26535
2156.25000	14.57758	-1.54807	4.95941	15.46111
2160.15625	18.83551	0.86971	10.19760	21.24935
2164.06250	12.82712	-5.97988	-1.48729	13.66712
2167.96875	10.06466	-3.96506	-3.09890	11.27521
2171.87500	15.56903	-2.35320	-0.27835	17.92091
2175.78125	16.49609	-6.38235	-5.11342	17.62686
2179.68750	12.82499	-8.39683	-3.09860	18.45659
2183.59375	11.73630	-11.62008	-2.69553	18.77587
2187.50000	16.55677	-13.23160	-5.91889	16.67301
2191.40625	19.51015	-11.21677	0.12522	17.75800
2195.31250	20.41993	-10.00784	8.98977	18.16628
2199.21875	16.06470	-12.42528	24.70414	9.98133
2203.12500	14.26938	-12.02217	16.64568	12.58917
2207.03125	25.88485	-4.76917	-8.73876	23.31190
2210.93750	29.91082	1.27498	-12.76791	21.65940
2214.84375	19.50172	-4.76874	-15.18545	19.09989
2218.75000	16.06387	-5.97737	-11.15607	18.38846
2222.65625	20.42453	-3.15672	-5.51491	18.47168
2226.56250	20.72200	-3.96241	-1.08251	14.66754
2230.46875	14.94144	-5.17108	-7.52927	7.86949
2234.37500	16.16153	-5.17097	-16.39356	7.13685
2238.28125	24.10426	-2.75324	-5.11136	8.62370
2242.18750	22.14007	-7.18537	-1.88783	7.40673
2246.09375	15.97433	-7.18521	-1.08194	7.65799
2250.00000	16.50738	-6.78210	3.35034	9.43039
2253.90625	15.63929	-10.00528	4.55914	10.89097
2257.81250	13.18948	-4.76698	6.97683	14.13239
2261.71875	14.57863	-1.14039	7.78278	16.45931
2265.62500	11.23732	-5.16947	2.94771	14.36609
2269.53125	8.41959	-5.97516	2.54482	14.65850
2273.43750	9.07350	-5.57213	5.36544	15.05734
2277.34375	13.94332	-5.16903	4.15674	13.56251
2281.25000	13.85548	-3.96008	0.93341	13.39159
2285.15625	12.55269	-3.15412	-0.27534	11.81988
2289.06250	14.85458	-0.73644	2.14231	12.67567
2292.96875	12.58453	-2.34809	3.35121	12.79287
2296.87500	9.84764	-5.97423	2.14254	11.35109
2300.78125	10.70244	-7.58578	4.96318	11.49776
2304.68750	8.23436	-4.36214	4.96331	12.10200
2308.59375	7.20561	-3.15314	-6.31863	13.95781
2312.50000	8.84926	-5.16761	-12.36253	10.54965
2316.40625	6.14185	-3.95859	-7.12438	6.69571
2320.31250	3.10286	-3.95836	-3.09497	5.93922
2324.21875	5.53176	-8.39039	-4.70666	1.10277
2328.12500	11.66189	-4.36088	-1.48314	3.59380
2332.03125	13.58334	2.08623	3.35212	2.28784
2335.93750	9.67668	3.29523	2.14336	2.82412
2339.84375	5.15747	-2.74851	-3.09470	2.35451
2343.75000	8.87415	-7.58353	-0.67714	8.63242
2347.65625	15.73175	-2.74816	7.38156	18.24759
2351.56250	11.07449	2.89301	7.78452	7.75518
2355.46875	-1.30438	4.10199	0.12895	-3.88497
2359.37500	-2.87853	4.10216	2.14371	-7.31558
2363.28125	-10.34951	-2.74746	2.54668	-12.05453
2367.18750	-23.29648	-10.80591	-10.34701	-20.65491
2371.09375	-17.21035	-6.37345	-8.73527	-17.36628
2375.00000	-9.87610	-1.53806	-0.67661	-5.76945
2378.90625	-3.27664	-3.14952	1.33809	-2.52123
2382.81250	-4.59576	-7.17864	0.12937	-2.13573
2386.71875	-1.87102	-2.34334	-2.28821	0.91178
2390.62500	6.49606	3.70075	-7.12334	2.27432
2394.53125	-5.55991	-5.16352	-6.72042	-6.45004
2398.43750	-8.52762	-5.96919	0.93530	-8.24343
2402.34375	-0.86314	-1.93973	2.94998	0.91070
2406.25000	6.27105	-1.93952	5.77053	10.81832
2410.15625	11.28026	4.91049	5.77058	13.89541
2414.06250	11.24448	7.73121	2.14434	7.77891
2417.96875	4.33648	3.29925	7.78541	6.14236
2421.87500	1.24952	2.09070	8.18843	5.94442
2425.78125	0.32232	2.09095	1.74160	1.00126
2429.68750	-0.43895	-2.34107	2.14462	1.78420
2433.59375	6.69355	-5.16134	3.75636	5.49514
2437.50000	9.93146	-5.56407	2.54758	5.58424
2441.40625	12.61896	-1.13158	4.96516	5.70900
2445.31250	15.33536	4.50964	4.15930	9.73387
2449.21875	8.00539	4.10684	0.93593	10.26400
2453.12500	6.17420	3.30120	-1.48152	9.26884
2457.03125	7.45226	2.09255	-6.71952	8.21743
2460.93750	7.05255	0.07804	-1.48135	7.45322
2464.84375	3.76179	1.68988	0.93634	8.80481
2468.75000	-0.85914	2.89885	-1.07822	7.09959
2472.65625	0.01817	3.30198	0.13061	8.62892
2476.56250	0.92926	0.88453	-2.68996	8.40463
2480.46875	1.06864	-2.33870	2.14527	5.93610
2484.37500	5.08646	-1.12962	8.18930	7.47555
2488.28125	5.60503	0.88523	2.95121	4.78066
2492.18750	5.15132	1.28833	-1.48110	2.37210
2496.09375	11.31676	1.69135	4.56283	7.35975
2500.00000	6.35113	-2.33782	-1.88398	4.37924
2503.90625	6.41304	-0.32301	-3.09273	3.72526
2507.81250	8.05665	4.91524	4.56298	6.12550
2511.71875	7.07005	3.30372	2.95135	3.39628
2515.62500	12.42573	2.49807	1.74262	5.89319
2519.53125	11.21379	2.09528	1.33968	6.81028
2523.43750	3.70969	-0.32216	-4.30126	-1.64654
2527.34375	0.85422	-0.72486	-5.50997	-7.00080
2531.25000	0.53886	1.28999	-5.10698	-6.42612
2535.15625	-5.81417	-0.32155	-2.68948	-4.04761
2539.06250	-8.51918	-8.37996	4.56321	-2.48488
2542.96875	-5.04045	-7.17098	5.77198	-3.00402
2546.87500	-3.51240	-0.32099	2.95146	-5.59054
2550.78125	-1.54674	2.09680	2.14559	-2.91578
2554.68750	1.72722	1.69403	0.93675	4.53956
2558.59375	2.75590	-0.72331	1.74259	4.69945
2562.50000	8.36497	0.08278	6.98073	4.48221
2566.40625	6.23718	-2.33461	5.36910	3.50199
2570.31250	2.02343	-5.55785	2.14566	4.25961
2574.21875	5.23559	0.48631	3.75736	8.69416
2578.12500	0.71712	1.29244	1.33981	4.59241
2582.03125	0.00434	-0.31911	-1.07769	0.25826
2585.93750	1.49334	-0.72186	5.36924	-2.29177
2589.84375	1.17725	2.90460	10.60735	0.59623
2593.75000	-4.55421	-0.31871	2.95172	-2.86030
2597.65625	-10.60609	-5.55663	-3.09214	-9.65405
2601.56250	-7.96361	-6.36230	-2.28624	-7.62231
2605.46875	-0.42005	0.48764	-2.28623	-0.01067
2609.37500	3.16862	8.54643	-2.28619	6.64437
2613.28125	-0.64258	6.53194	-0.67439	4.53440
2617.18750	-4.61868	3.71157	2.14625	1.04776
2621.09375	-1.84049	3.71170	1.74328	-0.22530
2625.00000	6.13645	6.93526	4.16086	2.68412
2628.90625	-1.26912	1.29443	0.93744	-0.16027
2632.81250	-8.41174	-6.36109	-5.10652	-4.17124
2636.71875	-6.30159	-4.34629	-3.09194	-1.97978
2640.62500	-7.01330	-2.33150	-3.89782	1.89661
2644.53125	1.01324	3.30971	-10.34474	7.80130
2648.43750	3.98069	0.08643	-8.33013	9.19261
2652.34375	1.95709	-4.74856	3.75773	8.90382
2656.25000	4.09016	-2.33084	6.57825	5.44390
2660.15625	-2.12801	-3.13653	4.16073	-4.48208
2664.06250	-5.31581	-4.74805	4.16074	-6.82627
2667.96875	-0.82548	-3.53916	0.93733	-2.36842
2671.87500	3.47004	4.11669	3.35495	3.87436
2675.78125	1.97952	2.50516	3.35494	1.16266
2679.68750	1.53183	-1.12111	-3.09202	-4.85751
2683.59375	3.66662	0.49075	-1.88331	-1.71770
2687.50000	8.48724	0.49093	4.96644	0.61176
2691.40625	7.41131	-2.73233	2.95174	-2.73552
2695.31250	3.08307	-5.55274	2.14587	-5.14782
2699.21875	5.98073	-0.31449	5.36934	-0.03602
2703.12500	2.57372	4.11791	5.77228	6.19818
2707.03125	-3.94269	1.29756	-1.88333	1.60946
2710.93750	-6.36366	0.08890	-3.09211	0.76280
2714.84375	-7.90837	2.10368	4.56353	5.05317
2718.75000	-8.92870	0.49204	5.77230	3.53586
2722.65625	-9.00032	1.29805	5.36939	1.20158
2726.56250	-7.49407	1.70103	2.54881	-1.79673
2730.46875	1.23078	5.73046	-0.27168	8.32843
2734.37500	5.27137	13.38626	2.95177	18.87782
2738.28125	-0.88840	6.93947	4.96645	9.88859
2742.18750	-5.27005	-4.34244	-4.30088	-0.59566
2746.09375	-1.76548	-4.74521	-4.70380	-0.34441
2750.00000	5.21446	-1.92460	4.96658	5.05442
2753.90625	0.71997	-0.31285	2.95191	0.06808
2757.81250	-6.56496	3.31362	2.14604	-3.13738
2761.71875	-4.77280	4.92546	-1.48036	1.20433
2765.62500	-1.26420	4.92569	-3.49503	1.52880
2769.53125	0.75345	4.52300	1.34007	1.01537
2773.43750	1.81039	6.53780	2.95182	3.42894
2777.34375	0.23335	5.32911	3.35483	4.35171
2781.25000	0.14540	6.94089	7.38416	7.00119
2785.15625	-1.15759	6.94095	7.38417	2.60869
2789.06250	-8.12329	-1.52050	2.95195	-8.62376
2792.96875	-5.96141	-1.92326	0.53435	-6.89517
2796.87500	-5.47531	-3.13194	-3.09202	-1.89048
2800.78125	-4.62096	-9.17577	-0.67448	-0.13250
2804.68750	0.56618	-3.13169	0.13143	2.48585
2808.59375	0.34291	5.32998	0.93727	1.52070
2812.50000	4.40371	10.16524	0.13140	2.94731
2816.40625	10.56040	12.18003	0.13140	4.33110
2820.31250	-1.34345	9.76261	3.75773	-0.85807
2824.21875	0.68203	11.37442	8.59279	1.15493
2828.12500	7.61759	11.77749	7.38396	4.85431
2832.03125	-8.19030	0.89845	-5.91284	-1.69004
2835.93750	-6.45626	-0.71314	-7.92752	-2.76583
2839.84375	3.52961	3.31625	-1.48063	-1.62396
2843.75000	-0.81256	1.30173	-1.88350	-2.19613
2847.65625	-6.44590	0.49597	-1.07766	-0.23684
2851.56250	-5.46233	2.51087	-0.67476	0.95544
2855.46875	-4.54465	4.12276	-0.67477	1.40302
2859.37500	-0.88091	-0.71226	-2.28647	3.21024
2863.28125	8.97395	0.09370	-2.68942	7.73840
2867.18750	5.69703	6.54071	-3.49525	1.55531
2871.09375	0.90388	6.54085	-2.68937	-0.39441
2875.00000	10.65559	5.73509	0.93705	8.38170
2878.90625	14.83742	4.92937	0.53410	14.04726
2882.81250	17.14468	2.51197	-0.27175	20.07361
2886.71875	17.45185	0.09448	0.93704	24.73277
2890.62500	18.16317	-3.12886	2.54873	26.09522
2894.53125	17.79202	-3.93456	4.56337	26.23515
2898.43750	15.22715	-4.33735	5.36928	24.44168
2902.34375	14.42992	-3.93428	5.77219	19.49312
2906.25000	19.95226	0.90097	6.17515	21.74504
2910.15625	23.75249	4.12453	2.54870	22.00152
2914.06250	21.70184	-0.30759	-1.48067	13.87028
2917.96875	18.01705	0.09554	-1.48079	14.24835
2921.87500	15.73587	4.93089	1.33964	13.24446
2925.78125	17.22615	-0.30706	-6.71897	10.71880
2929.68750	11.22665	-11.99192	-14.37468	11.50160
2933.59375	3.85367	-10.78294	-7.52495	7.55672
2937.50000	2.25641	-2.72408	-0.27221	4.01931
2941.40625	2.12335	0.49947	3.75708	3.33808
2945.31250	4.43663	2.11132	7.38344	6.55695
2949.21875	5.97099	0.90263	7.38338	8.29574
2953.12500	4.54264	-1.11188	4.56275	10.12092
2957.03125	4.61188	-2.72342	4.96565	9.47233
2960.93750	3.80914	-2.72325	5.36858	9.11101
2964.84375	3.74175	-2.32019	4.15974	10.46248
2968.75000	5.97052	-1.11130	3.35383	11.17464
2972.65625	11.28000	0.90342	3.75668	15.92725
2976.56250	10.98225	-1.91699	-1.88433	16.91163
2980.46875	8.70403	-1.91691	-2.69031	14.03999
2984.37500	5.46912	-1.51394	1.74184	9.53524
2988.28125	6.39056	-5.14021	2.14474	4.42261
2992.18750	11.17494	-3.52843	3.75638	8.46068
2996.09375	17.34035	2.11269	4.96508	16.26866
