 	TP9	AF7	AF8	TP10	
-1000.00000	-5.98638	-5.04328	3.65248	-1.73055
-996.09375	-11.22451	-9.07337	-1.98864	-9.78921
-992.18750	-8.40407	-11.49172	-7.22680	-14.22150
-988.28125	-6.38942	-15.11891	-1.58571	-14.22151
-984.37500	-3.97180	-9.07572	6.47286	-3.74528
-980.46875	-0.34550	1.39968	9.69618	3.10459
-976.56250	-3.56897	-0.61581	8.89027	-3.74528
-972.65625	-3.56900	-3.43708	9.29320	-2.13354
-968.75000	-5.58371	0.59147	-4.40645	-5.75987
-964.84375	-9.21014	3.81412	-14.88272	-12.20679
-960.93750	-5.18093	3.81330	0.42850	-4.14817
-957.03125	2.47472	3.00664	10.90467	6.73089
-953.12500	4.08629	2.60291	6.47238	1.89570
-949.21875	0.86270	2.19925	5.66644	4.71615
-945.31250	1.26553	2.19848	15.33677	10.76010
-941.40625	5.29473	4.61518	17.35145	3.10446
-937.50000	1.26534	4.21145	0.42830	-3.74542
-933.59375	-5.58465	-0.22160	-1.58644	-4.95424
-929.68750	-3.97301	-6.26632	3.65160	-0.92498
-925.78125	-5.98775	-1.83484	6.06922	2.70141
-921.87500	-3.57027	-3.04432	10.50142	6.73068
-917.96875	-0.34695	-6.67149	4.05455	10.75995
-914.06250	0.05590	1.38635	1.63697	6.32777
-910.15625	2.07049	2.99734	4.86044	1.08969
-906.25000	-0.75000	2.19077	5.26327	7.13358
-902.34375	-1.15300	1.78703	0.42800	5.92466
-898.43750	-4.77944	-1.84009	-4.40719	-7.77504
-894.53125	-1.55605	0.17387	-0.78083	-3.74576
-890.62500	5.29376	6.62006	7.27773	1.49221
-886.71875	-1.15324	6.21639	10.90405	-5.35772
-882.81250	-1.15330	7.02145	6.47177	-6.16364
-878.90625	8.51702	-0.23199	4.05420	2.29789
-875.00000	2.07008	-2.24731	1.23368	3.90952
-871.09375	-7.60036	0.57250	-6.42201	-2.53745
-867.18750	-7.60048	0.97474	-2.79574	-5.35803
-863.28125	-3.16831	2.18286	-1.18404	-4.14929
-859.37500	-3.16843	-3.45893	0.02465	-5.76109
-855.46875	-9.61547	-5.07137	-0.37834	-6.56704
-851.56250	-5.18332	-2.65456	2.44211	1.49144
-847.65625	-2.76585	-3.05818	2.03919	5.92354
-843.75000	4.08382	1.37325	0.02443	11.16150
-839.84375	5.69547	2.17840	5.26249	5.52042
-835.93750	3.68075	2.17764	4.85959	2.29698
-832.03125	6.09826	0.56506	2.03905	7.93787
-828.12500	2.06888	-1.45040	-2.79625	6.32619
-824.21875	1.66584	0.96638	-1.58751	3.90862
-820.31250	0.05410	0.15965	8.08281	2.29686
-816.40625	-1.15476	2.17354	11.70921	1.08801
-812.50000	-3.97531	2.57566	2.84486	2.69979
-808.59375	0.45689	2.57484	-4.00498	2.29687
-804.68750	6.90371	-6.29051	-6.01980	-2.13556
-800.78125	18.58861	-16.36466	3.65045	15.99610
-796.87500	25.84130	-7.50094	5.26216	18.41361
-792.96875	7.30637	5.39198	-12.46684	-2.13590
-789.06250	0.05350	5.79408	-14.88441	-7.37405
-785.15625	2.06805	3.77864	-12.06397	-4.95641
-781.25000	7.70891	15.05989	-12.86984	2.69926
-777.34375	13.34984	21.90892	-12.46697	5.92272
-773.43750	14.55853	20.69943	-8.84060	11.96666
-769.53125	17.37894	26.33967	-8.84060	11.96652
-765.62500	16.17010	30.36821	-20.52566	5.51952
-761.71875	12.14078	19.48840	-22.94326	6.32540
-757.81250	13.34960	15.45839	-10.85538	11.56348
-753.90625	13.34961	22.71038	-6.42311	9.14583
-750.00000	14.55841	19.48617	-9.24367	14.78677
-746.09375	14.55845	12.23267	-12.46717	16.39851
-742.18750	12.94670	17.47002	-3.60272	10.35454
-738.28125	13.34970	21.49861	-1.18515	6.32523
-734.37500	11.73808	19.88611	-9.24380	-2.94210
-730.46875	16.57334	21.89995	2.44119	4.71367
-726.56250	12.54425	18.27288	4.45586	7.13146
-722.65625	12.14148	12.22822	-6.42318	5.92288
-718.75000	15.76803	16.65972	-6.02017	13.17589
-714.84375	12.94756	23.10580	-1.99078	16.39955
-710.93750	13.35070	23.10510	5.26201	9.14707
-707.03125	9.72462	21.89568	8.48549	4.71519
-703.12500	3.68093	16.25402	-1.58775	10.75946
-699.21875	9.72519	15.44746	-4.00535	7.93924
-695.31250	11.33719	17.46133	-2.39357	2.70149
-691.40625	4.48778	17.05765	-1.18473	5.52240
-687.50000	8.51743	12.62471	-0.37885	12.77551
-683.59375	9.32360	8.19183	-1.58762	11.16415
-679.68750	2.87697	9.39994	-1.99051	-3.74397
-675.78125	2.47433	6.17577	-6.01974	-6.16128
-671.87500	8.51845	5.77208	-1.18450	0.68881
-667.96875	3.68340	7.78605	3.24771	1.49497
-664.06250	-4.37505	5.36779	-1.18443	2.30104
-660.15625	8.51899	12.61990	3.24786	4.31583
-656.25000	9.72799	17.85732	5.66548	1.89844
-652.34375	4.89291	13.02148	2.84496	11.16602
-648.43750	2.07253	5.36504	2.84496	11.56914
-644.53125	-2.76251	0.93211	-1.18431	2.30186
-640.62500	0.05805	3.75183	1.63620	4.71954
-636.71875	-0.34486	2.13932	6.06853	10.76363
-632.81250	-1.55357	6.16783	2.44226	10.36095
-628.90625	-4.37393	4.95825	4.45695	-5.75605
-625.00000	-0.34450	-1.48945	1.23351	-7.36757
-621.09375	2.87904	-0.28144	-4.81047	1.09409
-617.18750	-3.97073	-1.08810	1.23340	-4.14397
-613.28125	-5.58246	-3.50646	7.27730	-6.56159
-609.37500	-8.40290	-5.52183	0.02456	-1.32343
-605.46875	-3.16481	1.73019	-4.40765	-6.96442
-601.56250	4.49088	7.37043	-3.60179	-5.35259
-597.65625	5.69962	5.75795	1.23339	-2.53202
-593.75000	4.89376	8.98065	5.26264	-8.17296
-589.84375	0.05862	8.57694	-1.58711	-0.51736
-585.93750	2.87911	4.54691	-4.00461	3.10907
-582.03125	2.87903	5.35197	5.26280	-3.33783
-578.12500	-3.56799	6.96289	12.91856	1.09449
-574.21875	-6.38856	2.12693	8.08345	4.31803
-570.31250	-10.01494	-3.11188	2.03959	-0.51713
-566.40625	-9.20906	-1.09795	-0.37789	12.77966
-562.50000	-2.76214	-1.09870	-2.79540	13.58565
-558.59375	-3.97094	0.10930	-0.78074	-2.12857
-554.68750	-6.79150	2.92907	4.45738	5.93012
-550.78125	-4.37386	-3.11563	-1.18357	0.69213
-546.87500	-5.17958	-5.93691	-1.98937	-8.57510
-542.96875	-8.40297	-0.29655	6.06940	-0.11346
-539.06250	-6.38829	4.53784	3.65185	-9.78381
-535.15625	-4.77656	3.73122	-3.60091	-12.60421
-531.25000	-4.37368	3.73046	-7.63020	0.28967
-527.34375	-5.58254	6.14731	-4.80963	1.49856
-523.43750	-4.37378	0.90841	-4.00373	-6.15710
-519.53125	-3.56799	-6.74808	-4.00373	-2.93370
-515.62500	1.26718	-3.52542	6.47246	1.90146
-511.71875	2.87890	-3.12324	8.48710	-7.36595
-507.81250	3.28182	-0.30354	1.23439	-4.14253
-503.90625	1.26719	7.35138	0.83159	-1.72490
-500.00000	-2.76208	10.57409	4.45807	-8.17159
-496.09375	4.89350	8.96157	1.63765	-1.72472
-492.18750	3.68469	0.09625	-0.37692	-0.11292
-488.28125	-5.17972	-3.12790	0.42904	-5.75398
-484.37500	-2.76213	-3.12860	-1.98848	-5.35098
-480.46875	-0.34460	-1.92053	-6.01777	-12.20079
-476.56250	0.46125	6.54027	-6.01776	-21.87104
-472.65625	0.86423	7.74830	-4.80895	-21.46812
-468.75000	2.07312	4.52416	0.02629	-10.58891
-464.84375	3.68491	-2.32635	7.27914	-2.12722
-460.93750	-0.34434	-8.77399	1.23521	-4.54470
-457.03125	-5.17940	-1.52192	-1.58527	-8.57396
-453.12500	0.05871	0.89498	1.23530	-2.12705
-449.21875	-0.74730	-5.95562	-2.39103	-0.51545
-445.31250	-6.38855	-8.77684	4.45876	-1.32150
-441.40625	-1.15072	-7.97170	9.69684	3.51337
-437.50000	-5.98615	-3.94306	0.42944	5.12487
-433.59375	-3.97177	-0.31738	-3.19686	0.28940
-429.68750	-0.74860	1.69650	2.84714	3.51257
-425.78125	-0.34594	3.71044	5.26477	9.95922
-421.87500	-3.16671	-3.54307	-5.61426	0.28862
-417.96875	-6.39030	-5.55845	-1.98791	-6.56145
-414.06250	-1.55528	0.48475	4.05610	-2.12949
-410.15625	0.86215	2.49866	-1.98794	-1.32391
-406.25000	-2.76440	4.10960	-1.98800	-0.92119
-402.34375	-1.15291	2.49698	1.63839	-2.13015
-398.43750	-1.55604	-7.57714	0.02667	-3.74204
-394.53125	-2.36207	-8.78670	3.25014	0.69007
-390.62500	8.11396	-5.16102	3.65312	13.18081
-386.71875	9.32259	-5.96765	-1.98790	5.12215
-382.81250	-4.78016	-7.17719	-2.79368	-8.57758
-378.90625	-3.16856	3.29823	-5.21123	-6.96601
-375.00000	7.30756	16.19114	-3.59957	1.89839
-371.09375	-1.15404	3.29648	-4.40537	3.10710
-367.18750	-2.76575	-4.76288	-1.18179	-1.72815
-363.28125	4.88980	-1.54018	5.26515	1.09237
-359.37500	4.08387	-2.74974	-0.77875	2.30114
-355.46875	2.87500	0.07001	-3.59922	-1.32532
-351.56250	3.68083	6.51616	-0.37571	3.50981
-347.65625	2.87500	-0.33440	-5.21078	8.74792
-343.75000	1.26324	-10.81138	-9.64299	7.94203
-339.84375	-3.16911	-6.78285	-6.01662	3.50977
-335.93750	3.27769	-2.75431	-6.82239	-1.72829
-332.03125	4.08351	-4.76971	-3.19592	-0.92241
-328.12500	-3.57220	0.87062	4.05687	1.89806
-324.21875	-0.34890	2.07871	1.63932	2.70395
-320.31250	-1.15488	-0.74254	-3.59875	5.52444
-316.40625	-3.57258	-0.34029	-3.59867	3.10688
-312.50000	-1.15504	1.27064	1.23657	-4.14593
-308.59375	0.85954	0.06116	-2.38969	-7.36952
-304.68750	2.47130	1.67230	-6.41880	-4.54896
-300.78125	8.51521	9.32737	3.25164	1.49508
-296.87500	8.11217	7.71494	12.51906	4.71844
-292.96875	1.66518	-4.77659	4.05757	-1.72852
-289.06250	-0.34951	-6.38895	-8.83620	-9.38417
-285.15625	-0.34963	-3.16623	-3.19515	-0.92276
-281.25000	6.90302	-2.36118	6.87813	7.53863
-277.34375	4.08258	-7.19704	2.44600	3.91235
-273.43750	-5.18473	-6.79475	9.69879	4.71832
-269.53125	-3.97585	-6.79542	12.51939	9.55366
-265.62500	-7.19922	-13.24295	0.43161	3.91274
-261.71875	-13.24305	-8.81140	-0.77714	-0.92234
-257.81250	-10.42253	-3.17106	2.44632	-3.33993
-253.90625	-10.01954	-8.00702	0.83468	1.09239
-250.00000	-7.60194	-3.97843	4.46110	5.12175
-246.09375	6.09772	4.48243	12.51974	-2.93688
-242.18750	9.72411	2.06419	19.36963	3.91285
-238.28125	2.47138	-3.17460	6.87886	-0.51946
-234.37500	-3.16960	-5.59284	-5.20893	-8.17502
-230.46875	-2.76660	-1.56422	-3.19423	-0.51936
-226.56250	-3.16956	-5.59427	-5.20889	-2.93682
-222.65625	-3.57238	-4.38619	-2.79124	-2.13085
-218.75000	-0.75174	2.86581	3.65579	-5.75716
-214.84375	2.87453	1.65623	6.87932	-13.81582
-210.93750	-0.34915	1.65548	0.83547	-11.39840
-207.03125	-1.55820	8.10165	1.23847	-5.75764
-203.12500	2.47091	3.66863	5.26783	-1.32560
-199.21875	1.66476	-3.58495	-0.77604	3.10630
-195.31250	5.69376	1.24935	-5.61117	-2.13216
-191.40625	6.49942	0.84562	-2.79070	-6.16170
-187.50000	0.85813	-6.00500	2.04458	-7.77365
-183.59375	6.09595	-1.97648	-0.77593	-3.74461
-179.68750	4.48405	0.03737	-0.37295	3.50796
-175.78125	-2.36600	-8.42484	1.23882	-1.32728
-171.87500	-2.36619	-10.03738	-2.38742	-1.32740
-167.96875	-3.97797	-12.85863	-6.81957	0.28413
-164.06250	-0.35177	-10.84470	-0.37263	-4.14826
-160.15625	1.25991	-5.20439	4.86554	-0.52206
-156.25000	-2.76944	-8.02564	3.25386	14.38630
-152.34375	1.25980	-4.80295	-1.58123	15.19205
-148.43750	4.88607	-0.77436	-5.20750	0.68654
-144.53125	2.06544	0.83665	2.04536	2.70123
-140.62500	-8.81387	-5.61107	-5.61022	-4.55153
-136.71875	-8.41107	-9.64120	-4.80425	-2.53698
-132.81250	-2.36720	-2.79218	4.86619	5.52152
-128.90625	-5.18771	-6.41925	1.23994	-5.35752
-125.00000	-5.18772	-15.68734	3.25470	-6.56632
-121.09375	-4.38198	-10.85292	8.89584	2.29820
-117.18750	1.25895	-2.79510	9.29882	-0.92527
-113.28125	2.87056	-11.66032	0.43432	-10.19271
-109.37500	0.85588	-15.69035	-4.80371	-0.92531
-105.46875	0.45300	-6.02075	-4.80360	0.68637
-101.56250	5.69107	-1.18624	2.85222	-3.74592
-97.65625	8.10867	2.03655	2.04650	-2.53712
-93.75000	4.88521	0.02117	-7.22085	-3.34297
-89.84375	8.51157	1.63215	-2.38564	3.50681
-85.93750	8.91440	1.63140	0.43485	7.53605
-82.03125	4.48214	-3.60739	-0.77389	5.92434
-78.12500	7.70554	-1.59343	-3.59435	-2.13424
-74.21875	6.89977	1.62934	-3.59430	3.90972
-70.31250	3.27350	-1.59472	6.07619	7.13316
-66.40625	4.88525	-4.81881	5.27038	1.08918
-62.50000	5.69113	-2.80485	-1.98233	8.74480
-58.59375	2.46773	-1.59677	-2.78810	-2.13426
-54.68750	0.45298	1.62599	-4.80267	-8.58109
-50.78125	5.28815	1.62528	0.03257	3.90982
-46.87500	0.85582	-0.79307	7.28539	3.10402
-42.96875	-1.15892	1.62381	3.25614	0.68636
-39.06250	7.30255	5.65237	6.47965	5.92441
-35.15625	6.09371	5.65157	11.31495	12.37132
-31.25000	-1.96491	-1.19900	2.45060	10.75956
-27.34375	-6.39719	-10.06427	-1.17563	3.50684
-23.43750	-1.15910	-8.05040	3.65963	5.11863
-19.53125	-2.77082	-3.21594	5.27140	15.59488
-15.62500	-8.00890	-2.81379	6.88323	6.32759
-11.71875	-0.75624	-2.00863	7.28616	-4.14862
-7.81250	-1.56220	1.21415	-3.99584	-3.34285
-3.90625	-8.41208	1.61632	-9.23386	2.29820
0.00000	-5.99458	-3.62252	2.45125	7.13334
3.90625	-4.78582	-7.65256	7.28654	1.89520
7.81250	2.06396	-3.22106	9.30136	2.70096
11.71875	1.25811	4.43385	7.68972	7.53609
15.62500	-3.97994	1.61262	2.45172	-2.94003
19.53125	0.04936	3.62649	1.24298	-6.56647
23.43750	0.85517	8.86378	-5.60675	-3.74601
27.34375	3.67563	3.22191	-6.41252	-0.92545
31.25000	8.51077	2.81822	4.86968	3.10391
35.15625	6.49607	8.86142	8.09326	0.28339
39.06250	0.85490	4.42839	0.03474	0.28338
42.96875	2.06362	0.39835	-1.97975	-2.53711
46.87500	8.10755	4.02411	4.46727	0.68633
50.78125	8.51046	8.05277	3.66148	6.32737
54.68750	6.49577	7.64908	3.25860	1.08919
58.59375	10.52497	8.85708	8.89974	-0.92560
62.50000	6.89853	11.67685	8.49689	2.29783
66.40625	1.25755	10.06443	0.84138	9.14762
70.31250	-2.77171	3.21381	-0.36732	6.32704
74.21875	-2.77171	4.01896	2.45326	1.08884
78.12500	-1.16009	9.65922	3.25921	2.70048
82.03125	-4.38362	11.67313	4.87113	-2.13474
85.93750	-3.98065	6.43433	0.43901	-5.76120
89.84375	-1.56309	4.01612	7.69187	1.49150
93.75000	1.66038	10.86530	22.19746	12.77355
97.65625	-3.57775	3.20896	10.91549	8.34137
101.56250	-6.39825	1.99955	-2.78409	-0.12021
105.46875	-5.59240	3.61055	-6.81331	-0.12019
109.37500	1.66030	0.38646	-1.17215	-2.53773
113.28125	7.70425	4.41517	6.88661	5.11796
117.18750	2.86911	5.62336	8.90139	5.11796
121.09375	3.27202	-1.22708	5.27508	-4.14945
125.00000	4.88373	-6.46580	4.06649	-1.73193
128.90625	4.48083	-2.84012	9.30473	1.89450
132.81250	7.30138	0.38262	-2.38014	-1.73191
136.71875	7.30144	8.03763	-4.79759	4.31209
140.62500	5.68973	7.63402	2.05241	6.32678
144.53125	1.25761	-5.26040	1.64951	-5.76116
148.43750	-5.59217	-1.23174	3.26132	-6.16400
152.34375	2.06360	11.25853	5.27615	1.08884
156.25000	3.67539	8.03445	-1.57347	7.93874
160.15625	-2.77138	2.79570	-6.40848	2.70076
164.06250	-1.96554	5.21257	-2.78200	-9.38707
167.96875	3.27257	5.21187	2.45622	-2.13436
171.87500	-0.75675	-0.42977	3.66516	-5.35778
175.78125	-6.80074	-2.84800	3.26231	-5.35776
179.68750	-1.15962	5.61290	9.70935	6.32721
183.59375	-3.17424	8.83569	8.50070	-4.55196
187.50000	-2.36838	3.99984	0.84520	-9.38702
191.40625	-2.36838	-1.64188	-1.57222	-2.13427
195.31250	-3.98003	-5.26889	-1.16911	-6.16359
199.21875	0.45220	2.38612	4.87499	-2.94007
203.12500	1.25810	-2.85260	2.45754	-1.73131
207.03125	0.04931	-5.67370	-2.78043	-4.95474
210.93750	-3.97993	-0.03330	0.44312	-9.38700
214.84375	-8.00916	-0.03389	4.47255	-11.80456
218.75000	-2.77108	-1.64620	4.47270	-6.96939
222.65625	1.25822	-4.46735	-1.97405	-3.34293
226.56250	0.45239	-0.43875	-3.98855	-3.74585
230.46875	2.06420	4.39568	6.48779	-0.92532
234.37500	4.88473	10.84191	12.12899	8.34218
238.28125	-0.75619	10.84129	0.84713	4.31301
242.18750	-3.57669	3.58786	-1.97327	-2.53685
246.09375	0.45264	-0.44216	1.65328	-2.93975
250.00000	1.25861	0.36301	-0.76417	-4.14844
253.90625	5.28794	2.77994	3.66821	0.68672
257.81250	8.10846	1.57041	4.87710	-0.11913
261.71875	10.92897	5.19599	1.25081	-0.52209
265.62500	7.70551	5.59824	0.84804	7.13359
269.53125	5.69085	4.38879	6.48919	7.93947
273.43750	6.49682	0.35883	10.92161	2.70141
277.34375	8.91439	-4.87994	7.29537	10.35711
281.25000	10.52613	-2.86594	10.92190	3.50721
285.15625	11.73488	-0.85196	10.92205	3.50722
289.06250	12.54071	0.35618	8.50457	15.99815
292.96875	10.12308	-2.06205	8.90769	7.53664
296.87500	7.70549	-3.27143	5.28149	11.16304
300.78125	4.07923	2.36889	5.68459	12.37187
304.68750	8.10856	7.20339	7.69935	-3.34240
308.59375	7.70560	-3.27342	4.07313	-6.96876
312.50000	4.48221	-10.52685	2.05867	3.91051
316.40625	4.07929	-0.05130	4.47637	1.49299
320.31250	0.45292	-3.67831	-3.58202	-9.78904
324.21875	1.66174	-10.52878	-2.37306	-3.74499
328.12500	1.25877	-6.50014	2.86514	-3.74493
332.03125	-5.59129	-6.09787	4.07404	-12.20661
335.93750	-6.39729	-0.05457	8.10350	-8.58030
339.84375	-7.20309	2.76525	0.44798	-3.74502
343.75000	-7.60602	1.55568	-4.38703	-4.55086
347.65625	-6.39738	-1.66857	-3.58105	-4.55097
351.56250	-8.00926	-8.51915	-6.40136	-7.37165
355.46875	-14.05358	-8.52001	-6.40119	-4.55142
359.37500	-12.44210	-3.28280	-1.96879	2.70111
363.28125	-8.41307	0.34269	5.28415	-2.13432
367.18750	-12.84563	-2.07577	4.88142	-6.16387
371.09375	-14.05475	-2.88246	-3.17697	-5.76117
375.00000	-12.44330	-3.68910	0.44958	-1.32921
378.90625	-8.81731	-1.27230	8.10544	2.69969
382.81250	-4.78845	-0.46725	0.04696	0.28163
386.71875	-2.37141	-1.67686	-5.19094	2.69870
390.62500	-1.56609	1.94876	3.27067	2.29530
394.53125	-1.16360	2.35089	7.30008	-2.13743
398.43750	-0.35817	1.54428	1.65920	-0.52620
402.34375	3.26782	6.37868	-5.59339	-0.52664
406.25000	2.46165	7.98968	4.48001	1.89059
410.15625	-3.98558	9.19772	8.91242	3.09898
414.06250	-1.16538	6.77933	-6.39883	-0.93074
417.96875	2.46067	1.54040	-5.99583	-2.13989
421.87500	5.68356	9.59819	1.25709	0.68021
425.78125	2.05674	17.25311	0.04847	7.52960
429.68750	-3.18180	7.58197	-4.38359	3.90287
433.59375	-1.97343	2.34310	-4.38340	-5.76787
437.50000	5.68187	8.38630	4.07838	8.73728
441.40625	8.09918	3.55043	5.28734	12.36335
445.31250	3.66668	1.53503	1.25819	-2.54543
449.21875	4.06942	10.39875	0.04949	-1.33698
453.12500	4.06918	11.60678	-3.57682	3.49793
457.03125	2.45730	11.60601	-3.57676	11.15342
460.93750	4.87463	7.97895	6.49665	11.95900
464.84375	-0.36367	1.93428	4.48216	2.28847
468.75000	-6.40774	7.57456	-2.77040	2.69119
472.65625	-3.58738	8.37975	3.67670	8.73499
476.56250	0.44181	9.18498	16.16767	11.95825
480.46875	3.26224	9.99015	10.12383	4.30240
484.37500	-1.97599	7.16891	-2.36692	3.09340
488.28125	-9.63179	2.33307	-6.39615	1.07862
492.18750	-8.82603	-4.51743	-9.61950	1.48137
496.09375	-4.79677	1.12286	-3.17248	6.31644
500.00000	-1.57346	7.56911	0.05106	-0.13060
503.90625	0.44108	8.77730	1.26000	3.09270
507.81250	2.85858	9.98543	1.26015	2.68968
511.71875	2.85850	1.92622	-7.20125	-5.77197
515.62500	4.06731	-0.89500	-5.99231	-0.93681
519.53125	5.27610	-2.50747	-7.20104	4.70423
523.43750	12.52879	-3.31406	-6.79796	9.94234
527.34375	19.37852	2.72917	-1.55970	15.58335
531.25000	21.39310	13.60758	0.85802	18.80667
535.15625	16.96089	17.23331	3.67867	6.31581
539.06250	14.94615	14.81504	2.87296	4.30117
542.96875	19.78130	13.60555	-2.36501	12.35972
546.87500	27.83983	14.41076	-6.79709	12.76256
550.78125	33.88383	18.03657	-4.37931	17.19481
554.68750	28.64580	19.24474	2.87360	19.61243
558.59375	28.24291	15.21480	2.47087	31.70034
562.50000	32.67508	17.63168	7.30619	26.86512
566.40625	23.40764	20.45156	8.51511	14.77709
570.31250	14.14018	10.37761	-4.78143	13.56831
574.21875	16.55770	9.57111	-3.16950	9.53893
578.12500	17.76642	14.00269	5.29213	17.59752
582.03125	13.33411	10.77861	4.08357	17.59753
585.93750	9.70778	7.55457	-4.78071	13.56814
589.84375	7.69308	5.13632	-9.21278	13.16516
593.75000	7.69297	0.70347	1.26355	11.95635
597.65625	8.49880	-4.13240	2.87545	13.16511
601.56250	10.51341	-3.32717	-5.18297	12.35922
605.46875	11.72221	1.50725	-8.40620	3.09188
609.37500	14.13979	7.14758	-8.40603	8.73292
613.28125	16.55737	7.54993	-4.37657	10.74757
617.18750	13.73678	-0.91222	0.05576	13.97099
621.09375	2.45473	-5.34498	-12.03199	8.32998
625.00000	-1.17160	-2.52504	-12.43483	-2.95205
628.90625	3.66351	0.29487	-1.15264	1.88305
632.81250	5.27522	6.74117	-0.34665	13.16509
636.71875	5.27515	1.50243	-2.36108	1.88301
640.62500	5.27509	-6.55683	1.66843	-2.95215
644.53125	6.08089	-2.12529	6.50379	7.52398
648.43750	6.48381	-0.51416	1.26585	-3.35523
652.34375	2.05144	-0.51480	-9.21026	-8.99640
656.25000	-3.99263	-2.93310	-11.22485	1.88267
660.15625	-3.18683	-0.91916	-3.97205	-1.34083
664.06250	-4.39561	4.72121	-7.19541	-12.62296
667.96875	3.26007	5.92934	-8.80696	-2.14686
671.87500	12.12446	1.09350	-0.34525	7.92642
675.78125	10.10977	1.09286	2.07247	-4.56441
679.68750	12.93020	8.74794	4.49013	-1.34099
683.59375	12.93008	5.12089	-0.74785	7.12035
687.50000	13.73590	1.89692	-8.00055	4.29958
691.40625	18.16805	3.10505	-2.35946	13.56686
695.31250	25.42085	1.89575	9.72854	24.84894
699.21875	34.28551	0.28342	7.71398	31.29595
703.12500	14.94501	4.71511	-6.38849	15.98468
707.03125	-1.97780	11.96733	-10.82053	5.50865
710.93750	20.58655	13.98144	-2.35882	23.23780
714.84375	33.88348	15.59257	-0.34401	31.69956
718.75000	39.52468	18.00960	2.07374	42.57884
722.65625	55.23909	26.06765	12.14709	56.27851
726.56250	62.49199	32.91697	12.95310	69.57536
730.46875	70.55069	24.85780	7.31220	75.61941
734.37500	70.55078	18.81330	6.10360	78.43994
738.28125	68.13327	22.03613	5.29789	77.23117
742.18750	73.37142	15.99155	2.07474	80.85765
746.09375	77.40074	10.75283	-3.56618	88.11037
750.00000	85.45931	13.16982	-0.74554	92.13963
753.90625	93.51794	18.00437	13.76017	96.16894
757.81250	91.90627	19.61553	6.91059	92.54269
761.71875	86.26529	13.97400	-3.96838	87.30461
765.62500	81.83305	6.31768	0.06109	75.21660
769.53125	78.20682	7.12288	3.28470	75.61957
773.43750	81.02731	8.73405	3.68776	75.61955
777.34375	74.58035	7.12170	6.50836	69.97841
781.25000	56.85139	6.71822	7.31435	69.57553
785.15625	48.38991	6.31472	2.88236	67.15789
789.06250	50.40460	6.71714	5.30013	63.12859
792.96875	50.80761	7.92539	3.28563	63.93453
796.87500	46.77840	9.13361	1.27116	58.29358
800.78125	48.39019	7.92427	3.28606	47.01156
804.68750	47.18147	5.50611	-1.54886	43.78821
808.59375	43.55519	5.90847	-1.54871	46.20580
812.50000	43.95818	5.90790	0.86904	49.02637
816.40625	39.92884	5.10141	-0.74254	40.56489
820.31250	39.12307	6.30962	4.49574	39.75897
824.21875	36.70552	0.66797	2.88415	39.35611
828.12500	36.30255	-0.54146	-5.57725	31.70045
832.03125	40.73482	9.93416	0.86981	31.29758
835.93750	36.70554	15.97755	10.13733	31.29757
839.84375	29.04983	16.78279	2.88473	25.25358
843.75000	19.37944	13.96163	-1.14441	22.83602
847.65625	15.75314	9.93170	1.27327	21.62721
851.56250	18.17072	7.91641	2.48217	20.01553
855.46875	11.72388	2.67768	-4.36749	25.65669
859.37500	6.88868	3.88586	-3.96442	24.04507
863.28125	10.11218	6.70576	2.88559	19.61284
867.18750	16.96208	8.31691	4.49745	22.43337
871.09375	14.94736	4.69006	2.08014	11.95719
875.00000	7.29172	1.86899	2.48325	7.52491
878.90625	3.66533	5.09176	4.49814	13.97181
882.81250	4.87417	11.13520	10.13946	12.76307
886.71875	6.08301	7.91118	9.73671	8.33094
890.62500	8.50066	1.06076	-1.54511	7.12225
894.53125	5.27726	2.26901	-7.99174	7.92817
898.43750	9.30642	5.08897	-2.75342	8.73392
902.34375	12.12679	4.28247	5.30543	6.71915
906.25000	6.08283	6.29646	5.70871	5.10739
910.15625	10.51501	12.33975	5.70903	4.30143
914.06250	10.51474	8.71270	5.30635	8.33048
917.96875	10.11141	5.89147	-1.14023	13.97115
921.87500	10.11104	5.08488	-6.78097	11.95627
925.78125	9.70776	3.87551	-6.78065	9.94137
929.68750	12.12494	3.06897	1.68113	6.71758
933.59375	8.90116	3.06829	4.90476	5.50837
937.50000	12.52720	-0.55871	6.51663	13.56664
941.40625	11.72099	0.64942	8.12858	11.95455
945.31250	-1.17310	0.64878	2.08486	9.13376
949.21875	-6.00850	-6.60457	-0.73551	9.93938
953.12500	-3.99413	-9.82864	0.07052	12.75961
957.03125	-8.82964	-5.79999	0.87662	5.90955
960.93750	-10.03857	0.24327	-0.73494	-2.95508
964.84375	-1.57727	1.04843	1.27989	9.93838
968.75000	4.86945	5.88298	11.75629	20.41434
972.65625	0.84003	8.70285	8.93604	15.57904
976.56250	-3.59242	2.65823	1.68345	8.32604
980.46875	-3.99551	-1.37172	0.47481	6.31118
984.37500	-8.02488	2.25399	0.07204	-6.98576
988.28125	-3.59286	5.47673	0.07225	3.08738
992.18750	9.70366	0.64095	0.87838	26.05426
996.09375	4.06244	-6.61245	4.90790	9.53387
1000.00000	-17.29303	-9.83655	6.51984	-17.46257
1003.90625	-53.15410	-16.68707	-1.13565	-46.47364
1007.81250	-80.15056	-21.92583	-5.56775	-63.79976
1011.71875	-88.61222	-21.92649	-0.32949	-74.67894
1015.62500	-104.32666	-29.98573	-0.32931	-96.43737
1019.53125	-115.20587	-31.19516	2.08851	-113.76354
1023.43750	-121.65289	-25.95771	5.31212	-122.62806
1027.34375	-136.15849	-35.22576	-0.32869	-138.74536
1031.25000	-141.79961	-44.09082	-5.56666	-145.59523
1035.15625	-137.36748	-34.42118	-6.77535	-137.13382
1039.06250	-124.07091	-20.72224	-2.34294	-128.26941
1042.96875	-113.99771	-24.34923	-4.35740	-114.16682
1046.87500	-105.93922	-33.21443	-4.35724	-97.24378
1050.78125	-98.68650	-31.20050	0.47810	-98.85559
1054.68750	-92.64250	-22.33665	3.70181	-101.67628
1058.59375	-82.16629	-20.32257	2.89618	-90.39433
1062.50000	-81.76336	-22.33784	-3.55052	-85.96210
1066.40625	-78.94289	-22.33839	-0.32684	-79.91811
1070.31250	-66.04915	-21.53312	1.28505	-72.66538
1074.21875	-68.06390	-25.16024	-7.17637	-70.65073
1078.12500	-66.04918	-23.95215	-4.35561	-60.17461
1082.03125	-56.78181	-17.90878	-2.74370	-58.56299
1085.93750	-52.75253	-18.71540	-5.16107	-64.60696
1089.84375	-51.14082	-14.28388	6.52411	-52.92195
1093.75000	-49.93207	-11.46408	2.89795	-53.72782
1097.65625	-36.63541	-11.06178	-3.14576	-51.31026
1101.56250	-31.39736	-13.07713	-0.72803	-39.22234
1105.46875	-34.62093	-13.48075	-2.33957	-38.81958
1109.37500	-30.99456	-9.45206	2.49582	-37.61083
1113.28125	-21.72718	-5.02043	10.95765	-30.76097
1117.18750	-21.72722	-4.21524	8.54033	-26.32872
1121.09375	-28.97994	-9.45398	-2.33853	-20.68775
1125.00000	-22.53307	-7.43996	-4.75586	-18.27018
1128.90625	-10.84816	1.82684	3.30299	-21.49362
1132.81250	-14.47441	0.21435	3.30324	-18.67293
1136.71875	-16.08619	-4.21855	2.90062	-13.43478
1140.62500	-15.28030	-5.83084	6.93020	-16.65831
1144.53125	-18.90676	-7.44324	4.51280	-20.68760
1148.43750	-13.26576	-2.60869	6.12470	-19.47888
1152.34375	-12.46005	3.83753	-0.32201	-13.83797
1156.25000	-5.61036	8.26905	-2.73937	-4.16771
1160.15625	-1.58112	7.05959	4.11069	-1.75026
1164.06250	-6.81928	4.23846	2.90216	-7.39137
1167.96875	-3.59590	3.43197	-1.52985	-13.83839
1171.87500	-3.19299	1.41668	9.34947	-13.83845
1175.78125	-2.38721	11.08642	14.18483	-7.79455
1179.68750	-3.59601	13.10042	-5.55851	-6.58575
1183.59375	-5.61068	2.22057	-15.63157	-15.04729
1187.50000	-5.20779	6.24919	-5.15519	-11.42089
1191.40625	0.03031	8.66622	-1.52858	-6.98872
1195.31250	0.03034	-1.00468	-2.73708	-17.06197
1199.21875	0.83624	-3.42277	5.72471	-7.39158
1203.12500	0.83630	-3.02042	-1.52786	-3.76515
1207.03125	-0.77536	-5.84149	-9.58624	-17.86763
1210.93750	1.64224	-5.03628	-3.54206	-16.25589
1214.84375	-2.38704	-0.20170	-0.31834	-8.19715
1218.75000	-3.99872	-3.42563	3.71124	-10.61467
1222.65625	-7.62503	-11.88771	3.71153	-15.44974
1226.56250	-12.05713	-10.27650	-0.72043	-11.42041
1230.46875	-11.65403	-9.06820	-3.54071	-3.76474
1234.37500	-5.61006	-11.88928	-5.15223	-1.75007
1238.28125	-6.81881	-9.47229	-4.74914	-6.58512
1242.18750	-12.45968	-7.45820	-1.52547	-2.55572
1246.09375	-4.40095	-5.44403	5.72753	0.66783
1250.00000	4.06068	-4.23573	16.20404	-3.36141
1253.90625	3.65770	-4.23623	9.35441	-0.94383
1257.81250	0.43428	-6.25143	-7.16568	-1.74972
1261.71875	-1.17750	-8.26660	-6.76248	-3.76432
1265.62500	1.64286	-1.82022	0.89350	-0.13794
1269.53125	-3.59529	-2.22372	-0.31502	0.66784
1273.43750	-2.38635	-1.41835	4.11753	1.07085
1277.34375	3.65799	3.41631	7.74416	3.08577
1281.25000	-0.37082	-1.82227	-4.34351	-0.94313
1285.15625	10.91174	-2.62863	-6.76095	10.74224
1289.06250	17.76220	1.40022	0.89499	10.74275
1292.96875	8.09257	-1.82361	3.71584	9.13175
1296.87500	-4.39760	-5.85335	6.93955	-4.16419
1300.78125	-16.08188	-7.46556	2.50752	-21.89238
1304.68750	-15.27516	-7.46599	-1.92448	-23.90615
1308.59375	-6.00691	3.00978	4.11979	-21.48780
1312.50000	-1.17094	8.24750	10.96987	-10.20486
1316.40625	-2.37901	-0.61733	8.95553	-7.38364
1320.31250	-3.99008	1.79986	1.30012	-11.81534
1324.21875	-6.81005	4.61999	2.10627	-8.99429
1328.12500	-3.98897	3.81379	5.73278	-3.75565
1332.03125	-7.61492	0.58994	0.89785	-4.56103
1335.93750	-13.65833	-1.42516	4.92746	1.48341
1339.84375	-4.79338	-0.61974	9.76285	3.09563
1343.75000	-6.40474	-2.23195	1.30157	-1.33615
1347.65625	-12.85127	-0.21780	3.71940	-1.33578
1351.56250	-10.43333	-1.83004	7.34591	1.08213
1355.46875	-7.20959	-2.23351	1.70509	1.08246
1359.37500	-4.79165	-0.62221	0.09362	-3.34945
1363.28125	-6.40304	-3.04027	3.72036	0.27729
1367.18750	-9.22324	-11.09931	-3.93505	-5.76643
1371.09375	-3.17905	-7.07045	-4.33770	-8.58677
1375.00000	1.65632	-1.83281	0.90066	-4.55723
1378.90625	-3.17867	-12.71245	-1.91966	-3.75112
1382.81250	2.05958	-9.48948	-0.30767	2.69604
1386.71875	0.85094	-3.04308	-0.71038	-1.73603
1390.62500	-3.98400	-0.22310	3.31920	-4.95932
1394.53125	0.85129	-0.22356	5.33418	-1.33283
1398.43750	-1.16319	-4.25331	-3.12700	1.89077
1402.34375	-0.35718	-0.22447	-3.93266	-2.54132
1406.25000	2.86643	-1.03080	-3.12656	-8.18225
1410.15625	0.85184	-3.04599	-3.12638	1.89096
1414.06250	-0.35691	-0.22607	0.50016	-4.55583
1417.96875	-0.35678	-1.03246	-0.30544	-12.61433
1421.87500	-3.58009	-3.04760	-1.51401	-8.58497
1425.78125	-6.80346	-3.04808	2.11265	-8.58490
1429.68750	-5.19162	2.18949	-1.11055	-9.39068
1433.59375	0.44942	5.81535	-7.15430	-6.57003
1437.50000	0.44958	1.38261	-7.95986	-4.55521
1441.40625	-0.35611	9.03774	3.32246	8.33867
1445.31250	0.44985	11.85764	9.76963	9.54757
1449.21875	-2.77342	6.61897	0.90554	-5.76376
1453.12500	0.04715	7.82717	-2.72052	-0.12269
1457.03125	7.29996	7.02068	2.11495	3.90670
1460.93750	7.30005	9.43778	-0.30240	-0.12244
1464.84375	1.25618	9.43726	-5.13731	-6.56920
1468.75000	3.27084	5.00444	-2.71951	-2.53980
1472.65625	6.49433	2.18338	-3.12215	3.50423
1476.56250	-3.98181	0.97396	-6.34535	-4.55434
1480.46875	-3.57885	-3.05594	-4.73336	-4.15135
1484.37500	4.07690	-0.63887	0.90800	1.08685
1488.28125	0.04759	0.97229	-3.12097	0.68404
1492.18750	-5.99639	-1.44584	-6.34421	1.08704
1496.09375	-2.37005	5.00045	-3.92637	-0.12173
1500.00000	4.07681	12.25266	-1.10553	-0.12167
1503.90625	-1.16129	2.58177	-3.11991	-8.18020
1507.81250	-3.17589	1.37235	-4.32846	-4.95680
1511.71875	1.65923	9.02746	-2.31358	6.32527
1515.62500	6.89724	5.40049	-2.31336	8.74285
1519.53125	2.46504	5.39988	-4.32773	3.50473
1523.43750	-4.38484	11.44321	1.71649	7.53401
1527.34375	-1.96723	6.60747	11.38712	13.57806
1531.25000	1.65904	1.77172	6.55215	4.31064
1535.15625	1.65893	6.20325	-1.50623	2.29595
1539.06250	2.06189	6.20260	-1.10310	8.74276
1542.96875	1.25603	2.57561	-5.93811	-0.92757
1546.87500	2.06181	4.18668	-1.90856	-3.74811
1550.78125	0.04717	7.40951	2.92694	-0.12168
1554.68750	-1.16163	7.00593	2.92727	1.08713
1558.59375	3.27059	8.61712	9.37446	6.32526
1562.50000	-1.16166	6.19899	8.97178	6.72820
1566.40625	-4.38519	4.58672	3.33093	-0.12158
1570.31250	-0.35599	6.60077	1.71942	-1.33041
1574.21875	2.06157	4.98848	4.13727	3.50475
1578.12500	4.07621	3.77922	1.71996	-0.52455
1582.03125	6.89672	1.36114	-3.92076	-1.33045
1585.93750	14.95533	-1.05695	4.13822	12.36914
1589.84375	16.16400	-2.26628	11.39128	21.63638
1593.75000	-3.98263	-5.49018	3.73594	5.51897
1597.65625	-18.48820	-6.69947	1.31867	-8.98657
1601.56250	-16.47376	-5.89413	-0.69572	-8.98668
1605.46875	-12.84755	-2.67126	1.31928	-8.58384
1609.37500	-5.19186	5.38682	2.52848	0.68358
1613.28125	-0.35675	4.58044	6.96110	5.11591
1617.18750	-3.98313	-3.47872	10.18481	5.11592
1621.09375	-2.77438	-5.89688	5.34982	0.28072
1625.00000	-0.35685	-4.68861	0.91789	-5.76324
1628.90625	-0.35680	0.54904	2.12699	-3.74855
1632.81250	-2.77420	3.36904	4.14190	-4.95724
1636.71875	-3.57996	1.35383	-0.69305	-5.76305
1640.62500	-3.57989	-5.09358	-3.11034	-7.77753
1644.53125	-5.59446	-7.51167	-1.49840	-4.95687
1648.43750	-7.60897	-7.51216	-3.51280	-6.56851
1652.34375	-6.80304	-7.91560	-8.75068	-8.98596
1656.25000	-0.35604	-2.27515	-11.16805	-3.34481
1660.15625	1.25589	-1.46970	-3.91498	-4.95643
1664.06250	0.85311	2.96205	-2.70585	-7.77680
1667.96875	2.86791	6.99088	5.75600	-2.94143
1671.87500	-4.78768	-3.48573	11.39732	1.49081
1675.78125	-6.80234	-3.08336	-3.10796	-0.12087
1679.68750	-1.56418	4.16884	-7.13714	-2.94134
1683.59375	-2.77281	0.94489	-1.89883	-2.53841
1687.50000	0.85363	-2.27906	-1.89857	2.69972
1691.40625	2.46550	-1.47364	0.51929	5.11737
1695.31250	2.46559	-0.26542	4.54887	11.16136
1699.21875	-0.35491	-1.87770	6.56382	14.78779
1703.12500	-0.75780	-4.69877	8.17582	4.71458
1707.03125	-1.16074	-5.50524	3.74384	5.52042
1710.93750	-7.60757	-1.87944	-1.49396	7.53513
1714.84375	-5.18992	-3.08878	0.11803	-2.53807
1718.75000	-2.77236	0.13408	2.53588	-8.58208
1722.65625	-1.96646	2.95402	4.14787	-5.35862
1726.56250	-1.56324	-3.49327	3.74522	-2.53791
1730.46875	-5.59215	-1.07621	0.92501	-6.96984
1734.37500	-7.20352	8.19066	0.11938	-4.14890
1738.28125	-8.41200	13.02534	2.13430	-0.52218
1742.18750	-2.36771	9.80143	5.35796	-8.58040
1746.09375	-1.96444	6.57753	4.14956	-5.75952
1750.00000	-5.59048	4.56248	-3.10287	-0.52109
1753.90625	-3.97833	2.14447	-6.72898	-6.56470
1757.81250	-6.79853	0.93522	0.12114	-10.19071
1761.71875	-10.02158	-0.27399	2.94200	-10.59335
1765.62500	-10.02127	-1.08018	2.94230	-3.34039
1769.53125	-10.42395	-0.67756	2.53962	-0.11671
1773.43750	-10.42375	-7.12483	2.94289	-2.93697
1777.34375	-6.79726	-9.54286	1.33148	-6.96613
1781.25000	-4.37951	-5.51403	-4.71221	-8.98064
1785.15625	-3.97639	-5.51446	-1.48844	-6.96588
1789.06250	-8.00554	-3.50018	-0.68226	-4.54814
1792.96875	-10.02007	-0.27720	-3.09944	-8.98024
1796.87500	-1.55843	2.14000	-0.68161	-8.98001
1800.78125	2.06803	4.55717	-1.48720	-2.53297
1804.68750	-1.15536	4.15373	-1.08394	-2.12990
1808.59375	-2.36404	0.92980	-2.29238	-5.35312
1812.50000	0.45663	0.52642	-5.91849	-8.17345
1816.40625	-4.37839	2.54063	-4.70939	-5.75581
1820.31250	-8.00453	-0.28035	-6.72365	-4.94977
1824.21875	-0.34885	3.34563	-1.88815	-4.14378
1828.12500	0.05411	11.00084	-2.29080	-4.54666
1832.03125	-3.97512	13.41786	-11.96087	-5.35243
1835.93750	-2.76629	4.55294	-6.72246	-3.74067
1839.84375	-0.34869	0.12026	-5.51335	-4.94936
1843.75000	0.86022	0.11983	-6.72189	-2.93469
1847.65625	0.45737	-5.92454	-7.93035	1.90051
1851.56250	2.06920	-3.10444	-4.70654	2.30361
1855.46875	0.86049	4.95372	2.94945	-2.53154
1859.37500	-0.34819	1.32684	-0.67672	0.28900
1863.28125	1.26368	-5.12060	-5.51165	1.09487
1867.18750	3.68127	-2.30063	-1.48213	2.70656
1871.09375	8.91945	3.74280	2.54743	9.95934
1875.00000	7.71070	-1.89874	-3.89919	8.75055
1878.90625	4.48731	-1.49623	-7.52525	4.31836
1882.81250	3.68142	11.80001	-2.68979	-0.11381
1886.71875	2.06972	7.36728	-3.49538	-1.72556
1890.62500	1.66677	-1.09480	-5.91267	-0.91969
1894.53125	5.69604	-2.30414	-2.28600	-0.11381
1898.43750	6.50201	-4.31922	0.13182	1.90088
1902.34375	5.29321	0.91844	-0.27076	-0.51674
1906.25000	6.50198	4.54438	-8.73199	-0.11381
1910.15625	4.08447	4.14101	-9.94046	1.49789
1914.06250	0.45811	-2.30636	-8.32839	-12.20177
1917.96875	0.45804	-8.75365	-9.93995	-17.43979
1921.87500	3.68142	-8.75410	-0.67228	-6.96371
1925.78125	2.47270	-5.93410	4.16317	-2.12854
1929.68750	1.26389	-3.11409	-5.10394	-1.72568
1933.59375	-5.58597	-8.35267	-8.72999	-6.15794
1937.50000	-5.18299	-7.14434	0.53775	0.69179
1941.40625	-6.39175	-6.74186	-1.07363	3.91517
1945.31250	-7.60050	-11.17455	0.53836	-1.32296
1949.21875	-8.00332	-13.18967	2.15041	1.09462
1953.12500	-6.79460	-12.38426	0.13599	5.12391
1957.03125	-0.75059	-5.13192	3.35970	10.76489
1960.93750	1.26407	-1.90885	8.19523	2.30336
1964.84375	0.45819	2.12000	7.38972	-6.56116
1968.75000	-1.95940	-1.90982	-1.47440	0.28858
1972.65625	-1.55655	-4.73087	-6.30935	1.49731
1976.56250	1.66689	-1.91089	-10.33840	0.69144
1980.46875	4.08446	-1.91129	-4.69711	2.70611
1984.37500	5.69615	-0.70285	4.97351	8.75002
1988.28125	4.89036	2.11731	9.40603	10.36182
1992.18750	7.30798	3.72872	7.79455	7.13835
1996.09375	5.69616	-1.10694	3.36246	5.92949
2000.00000	-2.76534	-4.33088	0.54219	3.51182
2003.90625	3.27860	2.11564	-1.06915	-4.14382
2007.81250	4.08447	3.32410	3.76640	-2.93497
2011.71875	-5.98876	-6.74952	2.55789	0.28843
2015.62500	-6.39171	-5.54106	-5.50043	-7.36725
2019.53125	-2.36242	-1.51209	-3.88845	-4.54681
2023.43750	0.86101	-1.51246	-2.27640	1.09422
2027.34375	-2.76535	-2.31879	-5.90253	-7.36732
2031.25000	-1.15367	2.91888	-3.08171	-8.57613
2035.15625	5.29325	7.75370	0.14198	-2.53222
2039.06250	7.71081	8.15624	6.99214	1.49700
2042.96875	5.29328	10.97642	11.82762	8.74974
2046.87500	0.05517	5.73796	2.96351	5.92926
2050.78125	0.86100	2.51416	-3.48305	1.89996
2054.68750	4.48740	4.12541	1.35244	12.37617
2058.59375	4.48740	2.51320	4.17324	8.74972
2062.50000	6.09911	-0.30781	3.77054	2.30280
2066.40625	7.30792	-0.71115	0.14442	6.33195
2070.31250	8.51671	5.33234	2.56237	7.13774
2074.21875	10.12842	10.56998	5.38321	3.91423
2078.12500	4.08444	6.54022	-1.86925	-0.11519
2082.03125	0.45799	2.91335	-1.06313	3.91395
2085.93750	5.69608	-1.11640	7.39861	9.55486
2089.84375	3.68140	-3.93734	2.96666	5.92843
2093.75000	4.48721	3.31499	-3.48000	1.49611
2097.65625	9.72526	3.71753	9.41410	3.10772
2101.56250	7.71056	-3.93854	3.77339	-4.14505
2105.46875	6.50180	-2.32727	-5.49369	-4.54800
2109.37500	3.27827	0.89576	3.37106	2.30187
2113.28125	2.47238	-1.11936	0.95381	-4.54803
2117.18750	2.47237	-2.73153	-2.67234	-4.95098
2121.09375	0.05481	-1.52319	-3.47792	-5.35391
2125.00000	-0.75101	-5.55288	-5.08931	-8.17438
2128.90625	-1.15393	-10.79138	-4.68611	-7.77157
2132.81250	-3.16858	-18.44756	-7.50625	-4.14514
2136.71875	-3.97436	-19.25381	-9.92347	-4.54804
2140.62500	-6.39191	-16.03081	-7.90848	-8.17428
2144.53125	-2.36259	-11.19612	-3.47596	0.69016
2148.43750	0.86088	-4.34681	-0.25222	2.30196
2152.34375	-1.95957	-6.36193	-2.26658	-0.51859
2156.25000	-4.78001	-9.98872	-8.31013	-5.75671
2160.15625	-4.77994	-12.80973	-11.93620	-13.81533
2164.06250	-1.55649	-9.18377	-4.68314	-14.21828
2167.96875	1.66706	1.29198	-1.45928	-10.18891
2171.87500	-3.97386	0.88856	0.15277	-8.57717
2175.78125	-9.61490	-8.37930	0.55604	-6.96542
2179.68750	-5.98846	-7.97680	-2.66699	-6.56246
2183.59375	-2.36214	-5.55961	-5.08419	-7.77129
2187.50000	-4.37684	-7.17167	-6.29267	-3.74202
2191.40625	-6.79443	-6.36619	-2.66597	-2.13037
2195.31250	-5.18263	-7.17244	-3.06846	-4.14504
2199.21875	-3.97379	-0.32306	-0.24755	0.69014
2203.12500	-3.16797	8.54109	7.81144	5.92826
2207.03125	-8.80893	-6.77057	-0.24673	-5.35376
2210.93750	-14.04687	-15.63541	-6.69315	-16.23282
2214.84375	-4.37644	-6.77126	-2.66346	-7.36823
2218.75000	-0.75004	-2.33947	-5.08076	-4.54771
2222.65625	-7.59990	-0.72812	-7.90097	-8.97995
2226.56250	-6.79409	5.31544	-7.09477	-3.33896
2230.46875	0.86158	10.15016	7.41103	5.52541
2234.37500	4.08504	12.16439	10.63482	7.53999
2238.28125	0.05579	1.68793	6.20302	4.31655
2242.18750	-5.58524	-11.60920	-1.45236	-2.93628
2246.09375	-7.59988	-9.19200	-17.56926	-2.53354
2250.00000	-5.58528	-0.32796	-15.55441	-0.51901
2253.90625	-5.58529	0.88046	-6.68963	3.51027
2257.81250	-4.77939	-3.14924	3.78692	5.52489
2261.71875	5.29389	-7.17899	8.21947	0.68972
2265.62500	14.56129	0.47629	6.20514	-0.11614
2269.53125	3.27922	10.95209	-6.28536	-11.39822
2273.43750	0.86163	7.32528	-9.50845	-7.36891
2277.34375	7.30850	5.31018	-4.27008	0.28673
2281.25000	-3.16769	4.90679	-11.52255	-11.80113
2285.15625	-1.15299	7.72691	-9.50756	-15.83047
2289.06250	1.66758	5.71181	-5.47792	-8.17474
2292.96875	-7.19685	-0.73554	-10.71568	-8.98060
2296.87500	-7.19683	0.87574	-11.52125	-13.00988
2300.78125	-5.58508	4.09874	-7.49165	-10.99517
2304.68750	-7.19675	2.08362	-1.85037	-6.96582
2308.59375	-0.34693	9.33585	4.59680	0.28696
2312.50000	4.89122	15.78233	5.80592	5.92805
2316.40625	2.47373	-0.33532	1.37401	5.52507
2320.31250	2.87667	-6.37971	5.00079	7.13679
2324.21875	6.10011	4.49903	9.83624	5.92805
2328.12500	2.47377	14.57185	8.62771	6.73395
2332.03125	-1.95840	7.31870	-0.23643	5.92809
2335.93750	4.89145	-1.14327	-3.45958	3.91341
2339.84375	4.89147	2.88560	3.79356	3.10756
2343.75000	3.68271	3.69108	1.77927	6.73393
2347.65625	3.68275	-1.95038	-7.08483	12.37495
2351.56250	-1.95820	-15.24743	-9.50200	5.92803
2355.46875	-3.16694	-13.23317	-5.06940	1.09288
2359.37500	0.05651	2.48076	1.37784	2.30168
2363.28125	-0.74937	3.28618	3.39276	5.12216
2367.18750	-0.74934	-5.98168	2.18431	0.68988
2371.09375	0.45943	-3.16159	-0.23292	-2.93643
2375.00000	-0.74930	-1.14730	-0.63547	4.71923
2378.90625	2.07128	-3.56517	-4.26145	4.71918
2382.81250	2.47424	0.06083	-3.45527	-1.32476
2386.71875	-4.77859	-1.14836	-7.88719	-2.13059
2390.62500	-5.18152	-5.17806	-7.08100	-2.13057
2394.53125	-1.55520	-5.58137	-3.85713	-3.33935
2398.43750	-3.97276	-3.97009	-6.67729	-2.93634
2402.34375	-2.36113	-3.56754	-7.48280	-5.75689
2406.25000	-1.15236	-6.38851	-11.51170	-5.75689
2410.15625	-0.34652	-1.95669	-8.28786	-1.72759
2414.06250	0.86223	-6.38944	-3.85534	-5.75687
2417.96875	4.89150	-1.95761	1.38310	-4.54810
2421.87500	5.69736	3.68301	-1.43710	0.28703
2425.78125	-5.98753	-8.40533	-10.70416	-2.93635
2429.68750	-8.00211	-11.62919	-9.89799	1.49584
2433.59375	-4.37577	-3.57094	-6.67415	1.09300
2437.50000	-4.77855	3.27843	-2.64450	6.73405
2441.40625	2.07128	6.90437	3.80268	13.58393
2445.31250	8.11529	8.11281	11.45868	18.82203
2449.21875	8.11542	11.73890	13.47372	22.04542
2453.12500	7.30961	11.73856	11.45948	17.21025
2457.03125	6.50380	6.09714	6.62463	16.00141
2460.93750	-1.15186	-4.78230	-4.25417	5.52515
2464.84375	-2.76350	-3.97684	-6.26855	-0.11583
2468.75000	2.47474	0.45508	2.19338	6.33110
2472.65625	-0.34570	-3.57453	3.80536	8.74858
2476.56250	2.87781	-1.15736	5.82030	4.71926
2480.46875	4.89252	-1.56060	12.26760	0.28705
2484.37500	4.48966	3.27426	10.65616	5.92810
2488.28125	3.28089	7.70619	1.79205	6.73396
2492.18750	-3.16598	-0.35276	-2.63978	0.28713
2496.09375	6.10143	-4.38234	0.18105	2.70480
2500.00000	13.35421	-3.17387	3.00187	2.30193
2503.90625	8.92202	-2.36833	3.80806	2.30198
2507.81250	6.90748	-1.96563	-1.42968	-0.11553
2511.71875	8.92221	1.25750	-4.24982	-2.93591
2515.62500	8.92231	7.70406	-2.23484	-1.32415
2519.53125	9.32542	11.73304	-5.86086	1.49637
2523.43750	7.71378	6.89751	-6.26336	-0.92123
2527.34375	2.47576	7.30009	-2.63665	-0.51834
2531.25000	2.87866	7.70265	7.43693	9.95790
2535.15625	2.87874	5.28465	8.64606	8.74907
2539.06250	-1.95634	10.52240	3.00541	5.12271
2542.96875	-2.35919	14.95432	5.02047	6.73447
2546.87500	1.26737	7.70120	0.99161	3.91409
2550.78125	-3.97055	4.07443	-9.08128	-5.75612
2554.68750	-8.80561	4.87993	-10.69257	-12.20284
2558.59375	-1.95567	6.89430	3.81331	-9.78511
2562.50000	-3.97021	7.29700	12.67809	-9.38212
2566.40625	-15.65507	4.47618	-1.42415	-13.41136
2570.31250	-14.44611	5.28166	-10.69121	-6.96448
2574.21875	-6.38744	7.29598	-1.02048	-0.92037
2578.12500	-1.55218	3.26635	5.82975	-3.33785
2582.03125	-5.17839	-3.18090	-3.43721	-3.74063
2585.93750	-3.16361	-1.56955	-1.42221	4.31815
2589.84375	2.88043	10.11506	8.65133	8.75043
2593.75000	-7.19271	12.53234	3.41356	1.49772
2597.65625	-10.81897	7.69684	1.39922	-8.17247
2601.56250	-1.14853	12.93462	7.04060	1.09496
2605.46875	3.68674	21.79876	7.04100	9.95948
2609.37500	2.07523	16.15747	6.23560	4.72156
2613.28125	-0.74514	6.08392	6.63894	6.73633
2617.18750	8.11941	9.71002	9.45982	13.58620
2621.09375	7.71654	12.12731	4.62496	7.94522
2625.00000	-2.35660	1.24792	-11.89481	-5.35144
2628.90625	4.49329	-7.61697	-5.44759	1.90131
2632.81250	11.34311	-8.42313	3.82013	13.98928
2636.71875	6.10509	-6.00584	-1.82053	10.36305
2640.62500	-3.56519	-3.18574	1.80629	-0.11311
2644.53125	-10.41498	2.05196	5.83598	-7.36588
2648.43750	-9.60911	-3.58939	-1.41642	-13.81279
2652.34375	-9.20607	-11.24545	-2.62493	-12.60395
2656.25000	-5.17670	-10.43994	5.43394	-6.15696
2660.15625	-7.59423	-4.79914	8.65768	-3.73938
2664.06250	-11.22049	-6.00823	5.83752	-9.38034
2667.96875	-8.39991	-7.21735	0.59977	-9.38032
2671.87500	-13.23498	-4.80006	-14.30834	-13.00674
2675.78125	-10.01154	-3.99458	-16.72565	-12.20091
2679.68750	-3.56463	-3.18904	-5.04040	-5.75405
2683.59375	-7.99677	-8.83033	-5.04016	-8.97756
2687.50000	-7.59387	-9.63661	-0.20474	-2.93359
2691.40625	-1.54989	-3.19000	5.03369	3.11035
2695.31250	4.49417	1.24197	7.04865	4.72208
2699.21875	4.49422	-8.02572	2.61676	5.93092
2703.12500	-1.54970	-10.44362	-2.62096	9.15443
2707.03125	2.88261	-4.39998	0.60279	1.90168
2710.93750	6.10608	-2.38568	3.82649	-1.72473
2714.84375	5.30031	-7.22119	3.02091	10.36325
2718.75000	3.68859	-10.84795	-1.41102	5.12520
2722.65625	4.09163	0.83669	-2.21653	-3.33625
2726.56250	-0.34048	4.46279	-2.61908	-1.32145
2730.46875	-4.77254	-5.20791	-5.43921	-2.12725
2734.37500	1.27155	-3.59643	-2.21542	1.49918
2738.28125	3.68913	1.64137	5.84348	2.70811
2742.18750	4.09215	2.44686	2.21744	1.90230
2746.09375	8.12154	1.23773	-5.43792	3.91695
2750.00000	7.31574	10.10186	0.20345	10.36390
2753.90625	5.70409	10.10155	2.62142	12.37866
2757.81250	6.91301	7.28077	-0.60165	-1.32078
2761.71875	7.71894	11.30968	3.02510	0.69402
2765.62500	8.92780	6.07118	0.60780	9.96150
2769.53125	2.88398	-2.39071	-8.25620	-5.34977
2773.43750	-0.33931	-0.77925	-6.64411	-8.97601
2777.34375	3.69008	6.87606	0.20602	-2.52899
2781.25000	3.69013	11.71094	4.23567	-3.33481
2785.15625	4.09317	12.51654	-0.59917	-2.93173
2789.06250	0.06395	9.29284	0.60997	-3.33461
2792.96875	-1.14470	7.27794	4.23673	-2.12572
2796.87500	-2.35337	11.30694	-2.20980	-2.12565
2800.78125	-2.75619	7.68027	-3.01531	-9.78133
2804.68750	-2.35322	0.83013	1.82013	-5.75198
2808.59375	-11.21760	0.02396	-0.59716	0.69499
2812.50000	-15.24682	-4.81145	-11.07305	-9.37822
2816.40625	-9.60578	-3.20001	-8.25211	-10.58699
2820.31250	-11.21741	-0.78267	0.20971	-8.57229
2824.21875	-14.44071	-0.78291	-4.22212	-0.51364
2828.12500	-9.60557	-0.78312	-3.41596	0.29230
2832.03125	-10.41140	-0.78332	1.82250	-10.58672
2835.93750	-10.00842	0.42530	-2.20639	-4.13972
2839.84375	-3.56151	5.26024	-3.81776	-1.72205
2843.75000	1.27382	8.48353	-0.99684	1.50146
2847.65625	-0.33777	0.42472	-0.59353	2.71032
2851.56250	-1.14345	-5.61950	-3.01067	-0.51298
2855.46875	4.90064	-1.18754	3.83950	5.53110
2859.37500	4.90080	-1.18776	11.89846	3.51651
2863.28125	-3.96351	-4.00850	3.03436	-6.15371
2867.18750	-10.00737	-2.39705	-4.21803	-7.36243
2871.09375	-10.00724	4.04963	-8.24692	-3.33307
2875.00000	3.28954	6.06402	-9.05251	0.69630
2878.90625	12.15408	0.42267	-3.81410	8.75501
2882.81250	6.91615	-6.42753	2.23029	4.72580
2886.71875	0.87229	-4.81607	13.91567	-4.94442
2890.62500	-12.02145	-10.86030	5.45458	-10.98831
2894.53125	-23.30338	-14.88989	-13.48268	-24.68787
2898.43750	-21.69156	-12.06958	-11.06485	-19.04679
2902.34375	-14.03579	-11.66692	-3.81170	-6.95884
2906.25000	-9.20049	-4.81735	-0.58790	-5.75005
2910.15625	-8.79754	-5.22059	1.42708	-7.76466
2914.06250	-8.79748	-10.05595	2.63624	-1.31777
2917.96875	-1.14173	-4.81811	0.21904	6.74077
2921.87500	-0.33587	-3.60961	-2.19813	7.14373
2925.78125	-3.96215	-1.19236	2.23453	2.30866
2929.68750	0.06716	4.44844	3.04073	-0.10894
2933.59375	3.69355	-0.78994	-0.18230	3.51739
2937.50000	2.08196	-4.01367	2.63864	5.53209
2941.40625	-2.35020	4.44765	1.43021	3.51753
2945.31250	-4.36479	6.05908	-9.85146	3.51760
2949.21875	-2.35005	4.04414	-11.86571	1.10009
2953.12500	0.47048	6.86435	-3.80679	-0.91456
2957.03125	2.08218	12.90805	4.65508	5.12942
2960.93750	-1.54421	9.68435	3.04378	6.33828
2964.84375	-5.17045	1.62555	-0.17923	1.90615
2968.75000	-3.96158	2.83409	1.43289	2.71208
2972.65625	-4.76745	3.63974	-3.40188	-6.15236
2976.56250	-7.99083	0.41602	-7.83381	-12.59919
2980.46875	-1.14102	2.02741	-2.99830	-3.73471
2984.37500	0.47073	3.63880	1.83713	6.33857
2988.28125	-6.37899	-2.40553	0.62869	0.69753
2992.18750	-3.15544	-6.43515	-3.40020	-10.18150
2996.09375	2.08272	-3.61490	-3.39980	-2.92868
