 	TP9	AF7	AF8	TP10	
-1000.00000	2.42573	-3.86079	8.26172	-4.92122
-996.09375	4.44102	-5.87553	3.02364	-8.54693
-992.18750	5.24756	-6.27847	-0.19971	-4.91986
-988.28125	2.83076	-5.06964	-0.19945	1.52771
-984.37500	-1.60085	-8.69604	-1.81095	3.94592
-980.46875	-3.61488	-8.69603	-0.60193	-8.14138
-976.56250	-3.61437	-3.86084	2.21884	-7.33505
-972.65625	-1.19639	0.97426	7.86001	8.78265
-968.75000	-2.40466	-12.72544	2.62210	5.55976
-964.84375	-4.82182	-13.93427	0.20473	-5.72181
-960.93750	-2.80685	-2.65218	-3.82438	-4.51259
-957.03125	4.04328	-6.68160	-11.07695	-9.75023
-953.12500	5.65533	-7.08461	-3.01807	-4.51173
-949.21875	0.82030	0.16799	1.81721	4.35304
-945.31250	4.44687	1.37670	0.60858	-2.49637
-941.40625	0.82065	0.16778	5.44386	-0.88435
-937.50000	5.25302	2.98809	4.63814	7.17451
-933.59375	13.71472	2.58501	3.02659	5.56309
-929.68750	2.02985	-1.44459	-2.61432	-3.70405
-925.78125	0.01533	-4.66829	-5.43470	-2.49503
-921.87500	0.82133	-7.48912	-6.24044	-0.07730
-917.96875	0.01560	-4.66878	-6.64321	-8.53861
-914.06250	7.26852	1.37496	-1.40494	-9.34429
-910.15625	4.44822	2.18062	-3.01645	-4.91183
-906.25000	7.26886	3.38929	0.61002	-0.07648
-902.34375	7.26897	7.01544	5.04236	-2.89679
-898.43750	-1.99827	5.40347	-3.01613	-12.96982
-894.53125	-5.62449	-3.46130	-7.44830	-8.53743
-890.62500	-11.26541	-9.90841	0.20745	-11.76072
-886.71875	-14.89163	-7.08815	4.63986	-8.13423
-882.81250	-7.63873	-2.65608	-5.03021	-4.50770
-878.90625	-3.20656	0.56709	-8.25346	-5.71640
-875.00000	6.46381	10.23719	3.83453	7.17752
-871.09375	3.24043	8.22237	8.26684	8.78945
-867.18750	-10.86210	-6.68633	-3.01513	-5.71596
-863.28125	-8.44447	-6.28365	-3.01502	-3.29825
-859.37500	-5.62386	-2.65752	-5.02958	-4.90974
-855.46875	-6.83257	-3.86655	-9.46159	-8.53597
-851.56250	-3.20609	-3.86674	-1.40272	-6.52116
-847.65625	6.46425	2.98283	0.20921	-5.31228
-843.75000	9.68764	0.96791	-2.61110	-1.28285
-839.84375	-1.99741	-6.68807	-6.64025	-9.34127
-835.93750	-11.26484	-5.07658	-2.20785	-10.14701
-832.03125	-10.86194	-5.47987	1.01576	1.53805
-828.12500	-8.04148	-0.64494	-5.43103	4.35865
-824.21875	-7.63853	0.96651	-0.19279	4.76166
-820.31250	-7.63855	-8.70412	0.21029	4.76169
-816.40625	-3.20643	-6.28679	-10.26572	2.34413
-812.50000	-1.59477	-5.07818	-7.84808	5.97053
-808.59375	-3.20653	-9.91354	-6.23625	0.73245
-804.68750	-3.60934	-1.04928	-3.01265	-0.47632
-800.78125	-0.78874	4.59164	-0.99789	5.97057
-796.87500	2.43478	2.57687	1.41982	0.73257
-792.96875	1.22606	2.57664	5.44926	1.13558
-789.06250	-8.04131	-7.89980	-4.62388	-2.49078
-785.15625	-9.25018	-14.34702	-11.07069	1.53841
-781.25000	-0.78865	-5.48286	-2.20608	6.37350
-777.34375	-2.40028	-3.87126	0.61456	-0.47623
-773.43750	-0.38558	-7.09494	3.43520	-5.71422
-769.53125	1.62914	-7.90097	8.27056	-3.29660
-765.62500	-8.04123	-9.51303	1.82384	1.13564
-761.71875	-4.01196	-3.06641	-3.81705	1.53864
-757.81250	2.43489	4.58895	0.21237	-1.28187
-753.90625	-5.62375	-1.05242	2.22723	-4.10237
-750.00000	-7.63837	-4.27620	-6.63712	-7.72863
-746.09375	-5.62379	1.76743	-4.21940	-6.92278
-742.18750	-1.59450	9.01989	3.03345	-10.95201
-738.28125	4.44952	9.42264	5.45117	-7.32550
-734.37500	11.29939	7.81062	3.43674	7.98594
-730.46875	13.31409	7.81033	0.61638	16.04468
-726.56250	9.68773	2.16903	1.42237	9.19486
-722.65625	4.44957	0.55693	1.01963	2.34507
-718.75000	-9.65307	4.18299	-0.99493	-15.38383
-714.84375	-15.29418	9.42079	4.24319	-20.62193
-710.93750	-13.27957	7.40583	5.04911	-10.54867
-707.03125	-15.29423	6.19680	-0.59173	-10.14561
-703.12500	-13.68263	6.59960	0.21437	-10.54868
-699.21875	-7.23577	4.18183	5.45256	-0.07254
-695.31250	-4.41527	5.79330	1.02040	6.37439
-691.40625	-1.99772	4.58435	-8.64992	-10.14576
-687.50000	0.42000	1.76357	-8.24679	-8.53396
-683.59375	2.03189	8.21022	-0.99396	-3.69862
-679.68750	0.42032	7.80709	1.42373	-5.71314
-675.78125	-3.60884	-0.65464	-7.44055	-3.29541
-671.87500	-1.19119	3.77730	-0.18764	-2.48939
-667.96875	-3.20575	4.98591	7.87107	2.74884
-664.06250	0.01777	3.37396	-3.81382	0.33133
-660.15625	3.24129	1.35903	-6.23129	3.15186
-656.25000	4.85307	-3.47642	-6.63418	4.76362
-652.34375	10.89713	-3.07371	-6.63407	-1.68316
-648.43750	9.28539	-3.07398	1.02179	-0.47429
-644.53125	4.04731	0.95508	-5.42491	2.74920
-640.62500	-2.80238	-4.28324	-7.03646	-5.71222
-636.71875	4.85336	-1.46299	3.43995	-6.92084
-632.81250	8.07679	8.61009	6.66359	1.54093
-628.90625	0.82419	2.16298	1.82861	1.13812
-625.00000	6.86828	-0.25492	-2.60346	-0.47340
-621.09375	7.67419	-4.28448	-7.84133	-0.47324
-617.18750	1.63035	-4.68758	-5.42345	-2.48777
-613.28125	6.46561	0.55029	-1.39396	-2.08469
-609.37500	3.24232	-3.47923	-0.99085	4.36247
-605.46875	6.46590	-3.07654	-0.58777	7.58615
-601.56250	7.67487	-4.28554	-1.79637	-0.47225
-597.65625	-0.38363	-2.27113	1.02437	-4.50135
-593.75000	-1.18946	1.75791	5.05388	-10.54524
-589.84375	-2.39808	-0.65986	2.23359	-9.73924
-585.93750	0.82541	4.57802	-8.24244	-10.54505
-582.03125	0.42261	4.17485	-11.06286	-12.96250
-578.12500	-0.38315	6.18925	-3.40697	0.33422
-574.21875	-0.78597	8.20365	-0.18334	3.96075
-570.31250	-3.20343	-0.25813	-0.18311	-2.48590
-566.40625	-2.80031	-2.67583	5.05523	4.36400
-562.50000	-1.18850	-8.31708	0.62317	3.15535
-558.59375	2.43789	-9.12315	5.45850	-2.48547
-554.68750	-0.78548	-5.89998	1.02650	-0.87354
-550.78125	2.43802	-4.28852	-10.25533	-0.06753
-546.87500	4.04969	-0.66236	-3.80825	3.96183
-542.96875	0.02036	-0.66262	-7.83733	-3.29076
-539.06250	4.85556	0.14299	-3.80775	-4.49929
-535.15625	6.87020	0.54571	-5.41915	3.15657
-531.25000	4.85557	2.56023	-4.61307	3.96252
-527.34375	0.82630	0.14232	6.66919	1.54503
-523.43750	-3.60591	-6.70780	0.62540	0.73927
-519.53125	-1.18835	2.96235	-5.01545	0.73947
-515.62500	-2.39697	8.20021	-3.80656	-1.27504
-511.71875	-3.20275	-1.47040	-8.64156	-8.93060
-507.81250	1.63252	0.94694	-9.85011	-13.76570
-503.90625	-4.41134	2.55846	-6.62640	-11.34792
-500.00000	-9.64933	-3.08286	-3.80572	-2.08041
-496.09375	-1.18772	-0.26261	0.62666	6.78424
-492.18750	0.42417	2.55774	7.47672	5.97863
-488.28125	1.23016	6.18389	2.23897	5.57599
-484.37500	4.45377	6.58664	-1.38724	4.36735
-480.46875	3.24505	0.94536	7.88038	5.57630
-476.56250	-0.38125	-0.26371	5.86593	5.57641
-472.65625	2.84231	5.37703	-0.98370	3.96476
-468.75000	-2.39574	0.94450	-0.98350	-2.48179
-464.84375	-5.21633	-5.50265	-1.78918	-4.89917
-460.93750	-3.60456	-1.47360	-2.99775	-7.31673
-457.03125	-4.41036	-2.68260	-6.62399	2.35370
-453.12500	2.43952	1.74930	0.22602	6.38318
-449.21875	0.82788	6.58420	7.47895	-3.68994
-445.31250	2.03672	1.74868	1.43516	4.77161
-441.40625	1.63384	-2.68387	-0.98227	13.63618
-437.50000	-4.41006	0.13632	3.04725	8.80116
-433.59375	-4.81289	1.34486	2.64456	1.95145
-429.68750	0.82821	0.53870	4.65941	1.14575
-425.78125	4.05171	2.55318	12.71826	6.78699
-421.87500	-1.18641	2.14994	11.91268	8.39875
-417.96875	-2.39515	-0.26796	1.83962	8.39879
-414.06250	4.85757	-3.89455	0.22803	7.99589
-410.15625	11.70736	-3.89478	6.27219	10.41354
-406.25000	1.23114	-7.92425	-0.17453	11.21935
-402.34375	-5.61871	-8.32751	-7.02420	-3.28622
-398.43750	-10.45376	-1.88087	-2.99454	-13.76231
-394.53125	-13.27412	0.93939	-5.00888	-21.01489
-390.62500	-14.08003	0.93907	-2.18812	-20.61186
-386.71875	-16.49772	3.75930	3.85606	-6.50938
-382.81250	-11.66257	2.95321	-0.97885	-3.68875
-378.90625	-9.24501	0.93827	3.05073	-9.32972
-375.00000	-6.82753	2.14678	3.45384	-10.94133
-371.09375	-4.81298	2.54946	-8.63382	-10.53837
-367.18750	-7.63345	-1.48017	-9.03649	-6.10609
-363.28125	-3.60420	-3.09214	-2.18645	-2.07676
-359.37500	1.63378	-1.48072	-4.60380	-7.31476
-355.46875	-10.05126	-7.12194	-8.22981	-14.56739
-351.56250	-6.82789	-8.33095	-1.37984	-3.68824
-347.65625	4.05120	-0.67546	3.85838	5.57902
-343.75000	-1.18688	2.54778	-0.17078	-6.10602
-339.84375	-4.81330	-1.88476	-2.18513	-8.92637
-335.93750	-6.82805	-1.07914	-0.17017	3.96735
-332.03125	-16.49845	-1.07935	1.03878	1.54971
-328.12500	-19.31904	-3.90013	2.24775	-2.88260
-324.21875	-6.02243	-3.90042	2.24798	-1.27096
-320.31250	0.42445	-3.90067	1.84526	-0.46512
-316.40625	-4.41080	-2.28925	1.03965	10.01111
-312.50000	-0.78453	-4.30417	-4.19825	6.78767
-308.59375	-0.78464	-3.49856	-3.39226	-2.07692
-304.68750	0.82698	2.94812	3.05485	11.62268
-300.78125	2.43868	6.17133	2.24925	7.59333
-296.87500	3.24445	3.75345	3.45815	-2.48002
-292.96875	8.07946	10.60306	3.05543	-0.06257
-289.06250	6.46773	16.24377	0.63800	-6.91235
-285.15625	1.63264	5.76730	-4.19696	-14.16505
-281.25000	-8.84356	-0.67980	-12.65827	-13.35937
-277.34375	-4.41127	6.57268	-7.01704	-7.31549
-273.43750	3.64740	11.40753	3.86228	-9.33013
-269.53125	-0.38191	3.34862	2.25069	-16.58293
-265.62500	5.25904	1.73663	3.45961	-4.89797
-261.71875	2.43844	4.55702	2.65406	1.54894
-257.81250	-4.41149	5.76548	-7.41899	2.35466
-253.90625	-2.79988	3.75039	-14.26866	2.75749
-250.00000	-0.38242	0.12365	-4.59807	-0.46607
-246.09375	4.04961	6.97305	11.51945	7.59243
-242.18750	-1.59147	3.74921	9.90792	1.54845
-238.28125	-10.05312	-11.15958	-0.56807	-12.55426
-234.37500	-12.06787	-8.74236	-10.64108	-12.15149
-230.46875	-7.63568	-2.29578	-3.38809	-5.70466
-226.56250	-8.44176	-2.29613	0.23854	-1.67544
-222.65625	-6.83014	2.94160	-6.61103	-4.49601
-218.75000	-1.18929	5.76174	-7.41663	-4.09308
-214.84375	-4.00993	5.35856	-4.59589	-4.09302
-210.93750	-3.60701	4.14948	2.25418	-9.73401
-207.03125	-0.38359	0.92571	9.10417	-1.27249
-203.12500	-7.63634	-2.29802	8.70142	-4.49583
-199.21875	-6.42770	1.32802	5.47820	-11.34566
-195.31250	-4.81601	4.55110	-0.96834	-11.34560
-191.40625	-10.05417	-2.70192	-8.62380	-16.58355
-187.50000	-10.05415	0.52121	-4.99720	-12.55425
-183.59375	-14.08335	9.78834	-7.41456	-10.13666
-179.68750	-14.48636	7.37045	-2.57915	-11.74839
-175.78125	-13.27764	10.99654	6.28556	-27.46261
-171.87500	-16.50122	13.01094	1.45051	-31.89495
-167.96875	-22.14228	-0.28595	-5.39914	-19.40408
-164.06250	-15.69546	-4.71835	-2.17552	-16.18076
-160.15625	-18.91886	-7.53909	-4.18991	-23.03066
-156.25000	-24.96282	-6.33049	-9.83077	-21.41906
-152.34375	-16.50121	-1.09262	-9.42763	-4.89902
-148.43750	-12.47193	2.93647	-5.80106	-6.10786
-144.53125	-8.84557	6.56265	-0.96562	-16.18121
-140.62500	-2.80166	6.56243	-10.23287	-10.13730
-136.71875	3.64521	8.57682	-11.84446	2.35350
-132.81250	3.24218	11.79995	1.45240	4.36802
-128.90625	-3.60771	8.97906	4.67599	-0.87019
-125.00000	-3.60780	7.36704	1.85560	-0.06448
-121.09375	-0.38441	9.38140	-0.56181	-1.27337
-117.18750	7.67423	5.35183	1.05013	0.74128
-113.28125	14.52402	5.35157	-0.56144	11.21744
-109.37500	6.06245	7.36596	-4.59046	11.62034
-105.46875	4.45065	5.35103	-1.76972	3.56177
-101.56250	7.67392	3.33603	-0.96359	3.15886
-97.65625	11.70311	6.96208	3.87179	2.75590
-93.75000	12.50884	11.79700	7.09538	3.56164
-89.84375	9.68819	7.36441	0.24572	2.35275
-85.93750	7.67343	0.11142	-7.81261	3.96444
-82.03125	9.28504	2.12587	1.45506	6.78502
-78.12500	3.24101	3.33445	6.69336	0.74092
-74.21875	2.03218	-5.12733	-6.20018	-4.49720
-70.31250	6.46447	-4.72460	-0.55891	10.00836
-66.40625	-0.38525	2.93088	8.30587	12.42599
-62.50000	-4.01165	4.54239	1.05333	-0.06490
-58.59375	-5.62339	3.33329	-5.39339	-2.48241
-54.68750	-6.42932	7.76512	-3.37861	3.96449
-50.78125	-2.39995	6.55607	-7.00484	1.14387
-46.87500	2.43516	0.91479	3.87452	-0.46800
-42.96875	7.27032	3.73506	5.48641	6.38172
-39.06250	10.89677	5.34650	-2.57194	6.38167
-35.15625	10.09092	3.33153	1.05465	7.99333
-31.25000	17.34370	4.54009	3.06944	4.76987
-27.34375	16.53776	9.77795	6.29309	10.81381
-23.43750	10.09083	10.18057	3.87568	16.05197
-19.53125	6.86734	5.74800	-8.61500	-1.27410
-15.62500	3.64384	5.34482	-6.19716	-9.73564
-11.71875	-0.38548	3.73278	-0.95883	5.97859
-7.81250	1.22623	6.15011	-4.58504	11.61962
-3.90625	5.65842	13.80554	-9.01706	-0.46836
0.00000	-1.99729	13.40228	-2.97280	-2.48297
3.90625	-8.04123	2.52278	-2.56969	-2.48289
7.81250	-7.63831	-3.92452	-9.82225	-7.31809
11.71875	-7.23547	1.31325	-0.15167	1.14352
15.62500	-2.80315	3.73040	5.48954	6.38168
19.53125	-1.99718	-2.71687	-1.36002	-8.12371
23.43750	0.82336	2.92372	1.86364	-7.72066
27.34375	1.62931	4.53510	6.69904	2.35256
31.25000	-1.59408	-6.74729	2.26710	-2.48251
35.15625	0.82357	-4.73283	0.25270	-6.51186
39.06250	4.45001	-1.50971	3.47645	1.94975
42.96875	-0.78814	0.50459	1.46205	0.74099
46.87500	-2.80279	7.35410	-2.16406	-2.07944
50.78125	6.06170	2.92158	-4.98428	-0.46766
54.68750	1.62952	2.51845	-5.78990	0.33816
58.59375	-4.01152	4.93571	-4.98376	-1.27364
62.50000	3.24128	6.95008	8.31319	2.75571
66.40625	3.64425	8.15864	7.10467	1.14395
70.31250	-4.41435	2.92027	-13.04158	-12.15282
74.21875	-5.62313	4.93461	-6.59445	-11.74994
78.12500	-7.63773	0.90506	-5.78838	-6.10875
82.03125	-14.89060	-7.55673	-17.47302	-8.52624
85.93750	-10.86140	3.32209	-7.39952	-8.12332
89.84375	-6.02631	6.94814	-1.35526	-4.89987
93.75000	-8.04104	-5.94594	-6.59309	-7.72031
97.65625	-9.24997	-7.15512	-9.01043	-10.13789
101.56250	-13.27933	-4.73789	-11.42769	-13.76430
105.46875	-8.84708	1.30575	-4.57763	-7.72026
109.37500	-3.60906	6.54351	5.09288	5.17347
113.28125	0.42018	7.34904	5.89888	3.15877
117.18750	2.03184	3.72236	-3.36828	-9.33213
121.09375	-3.20629	-1.91890	-11.82951	-11.74970
125.00000	-1.99752	1.30427	-9.41168	-8.92918
128.90625	4.85226	4.93029	7.91453	-0.06486
132.81250	5.25513	2.51244	3.88552	-0.46789
136.71875	1.62885	1.30329	-9.00803	-7.72066
140.62500	2.43477	5.73519	-2.15796	-4.90009
144.53125	3.24059	7.34669	-5.78409	-3.69124
148.43750	3.24053	4.52596	-4.17205	2.75559
152.34375	-1.59454	7.34622	-2.15715	2.35265
156.25000	-1.59442	7.34595	-4.17155	-10.13809
160.15625	-3.20610	4.92808	-7.79777	-1.67653
164.06250	-4.41486	12.58353	-9.81217	3.15869
167.96875	1.62901	8.15099	-6.58844	-6.10863
171.87500	5.65825	4.12139	-6.18523	-0.06465
175.78125	8.88168	8.15046	-1.34982	2.75595
179.68750	7.67291	1.70336	1.47088	-6.51140
183.59375	14.52272	-1.92322	1.06817	-2.88496
187.50000	9.68760	-0.31175	-2.15510	3.56200
191.40625	-0.38553	3.71735	-4.97539	1.14456
195.31250	2.83809	-0.71505	-0.94584	3.96512
199.21875	6.46447	-9.17680	-0.13970	5.97978
203.12500	19.76121	-7.56533	3.48695	16.05314
207.03125	27.81988	-1.11866	3.89019	25.32060
210.93750	18.14964	3.71623	-3.36234	12.42684
214.84375	14.52330	4.52188	-2.95914	10.81515
218.75000	24.19379	5.32745	3.89094	21.29135
222.65625	31.04368	3.71540	3.48829	22.50010
226.56250	25.40271	7.34148	-2.15246	23.30603
230.46875	41.92288	14.19095	8.72685	37.81160
234.37500	56.02545	10.56431	17.59163	48.69082
238.28125	45.95229	3.71417	3.89230	47.07924
242.18750	41.52011	1.69929	-1.74850	50.30264
246.09375	45.14659	0.08733	5.50445	51.51139
250.00000	49.57890	-3.53933	8.32522	60.37594
253.90625	60.05515	0.48982	2.28160	59.57020
257.81250	62.47282	2.50437	5.10241	49.49701
261.71875	46.75856	-7.16615	7.92324	45.06504
265.62500	43.93802	-3.94283	-0.13503	48.69162
269.53125	43.53506	2.10087	3.89459	57.95914
273.43750	41.92336	2.10065	9.13300	51.10940
277.34375	36.28220	4.51806	-3.35757	43.05084
281.25000	39.90848	3.30905	-4.96905	46.67720
285.15625	34.67031	-0.72055	8.32788	48.69190
289.06250	28.22331	1.69674	7.92526	47.08024
292.96875	26.61149	0.48765	-4.96814	34.58945
296.87500	24.99966	4.11373	-6.57953	31.76903
300.78125	24.59671	6.53107	-0.93821	32.97783
304.68750	14.52336	1.69560	-0.53506	26.53099
308.59375	7.67359	-1.52815	-2.54940	16.86062
312.50000	11.70294	-5.15471	-5.36958	20.88993
316.40625	15.32931	-10.79601	-10.60739	21.29290
320.31250	15.32934	-5.15521	-6.17487	7.59315
324.21875	10.89717	-6.36427	-1.33946	13.63703
328.12500	9.68843	-4.75279	-2.54798	16.05458
332.03125	16.94124	0.08212	-4.56235	13.23400
335.93750	21.37354	-4.75324	-1.33866	10.01065
339.84375	17.34426	-0.72415	5.10848	12.83122
343.75000	18.95594	2.49910	8.33216	14.44294
347.65625	14.52365	-3.14221	7.12359	14.84582
351.56250	7.67380	-14.42446	1.88575	14.84577
355.46875	7.27083	-13.21592	0.67716	11.62222
359.37500	1.62981	-8.78396	3.09495	1.14594
363.28125	-1.19078	-8.38115	-1.33704	7.59288
367.18750	0.01802	-3.54618	-10.20123	15.24856
371.09375	1.62977	-1.53177	-5.76877	3.96652
375.00000	0.01797	-5.96424	-3.35100	1.95188
378.90625	5.25601	-4.35288	-9.39476	1.95189
382.81250	4.45015	-3.14439	-2.54462	3.56370
386.71875	1.62965	2.09342	3.90257	5.98131
390.62500	6.46480	6.92828	2.29105	6.38422
394.53125	6.46485	1.28705	2.69416	9.60768
398.43750	2.03274	0.88386	1.48566	8.39894
402.34375	6.86805	8.13638	6.72405	3.16084
406.25000	6.06220	4.91269	9.94779	0.34036
410.15625	2.43597	-3.14610	5.51584	3.96668
414.06250	0.82435	-2.74337	-0.52791	7.19005
417.96875	0.82437	2.49440	-4.15411	5.17530
421.87500	7.67424	-2.74395	-4.95978	6.78705
425.78125	7.67435	-3.55007	-2.13899	9.20467
429.68750	2.83930	-0.72977	1.89064	4.77251
433.59375	2.83933	-2.34178	-1.73546	1.14613
437.50000	4.04803	-0.32741	8.33811	10.01059
441.40625	4.85386	-1.13348	9.54719	9.20459
445.31250	2.83922	-3.55132	-5.76397	0.34009
449.21875	-0.38423	0.88068	-5.36080	-6.50982
453.12500	3.24213	-0.32832	-2.54001	-2.88344
457.03125	8.07720	-4.35792	-1.33086	-2.48039
460.93750	4.45074	-3.14948	-4.15111	-4.49498
464.84375	1.22720	-6.37324	-7.37441	-5.70376
468.75000	3.64477	-1.13541	-4.15068	-5.70377
472.65625	-0.38453	0.47600	3.10241	1.54907
476.56250	-4.41386	-1.94185	5.92325	4.77259
480.46875	-1.59344	-3.95681	1.08841	4.36969
484.37500	3.24167	-7.18058	-0.92592	5.57856
488.28125	11.70316	-0.73395	6.32714	13.63715
492.18750	5.25616	5.71259	3.50679	9.20485
496.09375	-3.20546	3.69765	-7.77502	-4.49473
500.00000	-1.19088	6.11493	-3.34256	-6.10651
503.90625	-3.60853	-2.34696	-3.74527	-4.49487
507.81250	-0.38530	-9.19708	-4.95380	-0.46564
511.71875	4.04674	-1.13879	2.29919	6.38413
515.62500	2.83786	1.68146	2.70237	7.18999
519.53125	8.47872	8.53112	-3.74427	6.78707
523.43750	8.88165	5.71032	-5.35577	5.57822
527.34375	-0.38580	1.68073	-2.13208	9.20450
531.25000	-2.80344	1.68050	0.28579	5.57815
535.15625	-1.59469	-1.14023	-6.16081	1.95174
539.06250	-0.78895	3.29173	-6.16060	2.75759
542.96875	0.41977	6.91778	5.12162	1.95160
546.87500	-0.78905	7.32048	3.91290	1.95156
550.78125	-5.62422	2.88807	-1.32519	-0.46611
554.68750	-3.20669	0.87328	1.89825	7.18945
558.59375	3.64310	8.93166	-3.33984	3.56304
562.50000	-1.19213	9.33434	-0.92231	-4.09273
566.40625	-3.20681	7.31941	3.10694	-0.86934
570.31250	6.46342	12.96018	6.73337	1.54829
574.21875	2.43405	8.93065	6.73345	7.99521
578.12500	-5.22176	1.67762	-6.96619	5.57763
582.03125	-2.40132	3.69192	-12.60719	-8.92793
585.93750	-1.19270	4.49751	-6.96622	-10.94268
589.84375	0.01599	1.67672	-2.53399	-5.70476
593.75000	3.23936	0.06477	0.28648	-7.31666
597.65625	0.82156	-1.54726	0.28645	-4.09335
601.56250	-0.79025	3.69061	-0.51939	-1.27292
605.46875	0.41851	4.89923	-0.92221	-6.91391
609.37500	-1.19331	1.27262	-2.53388	-7.31692
613.28125	-4.01387	-0.74233	-9.38356	-10.13754
617.18750	-5.62570	-4.36899	-9.38345	-10.13764
621.09375	-6.02879	-1.95171	-0.92185	-9.33195
625.00000	-7.64061	0.06263	-4.14519	-6.91446
628.90625	-4.41737	1.27108	-10.59195	-2.88527
632.81250	-2.40289	5.70286	-10.18885	-2.07957
636.71875	-4.41772	3.68780	-4.54768	-2.48266
640.62500	-0.79151	2.07573	2.30238	-6.10927
644.53125	1.22298	-0.34223	7.94357	-2.48302
648.43750	-1.19469	-5.98363	1.09399	-0.06559
652.34375	-6.83583	-5.58114	-4.94977	-0.46869
656.25000	-6.83598	-1.14923	-0.51738	7.18675
660.15625	-1.59801	3.28268	-2.12882	9.20129
664.06250	1.22229	1.26771	-6.15783	-5.70720
667.96875	-3.21014	-2.35903	-3.74004	-10.54256
671.87500	-2.80736	3.68464	4.31884	-2.88706
675.78125	-1.19587	9.32540	5.12497	-0.87259
679.68750	-0.39018	4.48995	-2.53048	-0.46988
683.59375	5.25064	-2.76301	-2.93310	-2.48475
687.50000	5.65342	-5.58382	-0.51525	-0.47030
691.40625	4.84740	-3.97236	-2.93252	0.73832
695.31250	0.01203	-10.01664	-3.33528	-0.87362
699.21875	3.63825	-12.43454	-0.11157	5.97596
703.12500	13.71133	4.48825	3.91803	14.84029
707.03125	2.42913	13.35244	-5.34909	-0.47127
710.93750	0.41436	9.72574	-8.16933	-11.35063
714.84375	6.05523	12.14293	-1.31934	-0.06884
718.75000	-7.24158	10.93384	3.11316	-2.08366
722.65625	-15.30033	7.71007	-4.54229	-12.55998
726.56250	-16.91216	8.11271	-17.03287	-25.45393
730.46875	-14.89770	4.48606	-14.61494	-24.64821
734.37500	-19.33000	-3.97578	-3.73554	-19.00737
738.28125	-16.91246	-1.96148	-3.33232	-19.41036
742.18750	-3.21299	3.27629	-5.74967	-8.12850
746.09375	-5.22770	0.85838	1.10049	-4.09931
750.00000	-12.88334	-5.99171	-0.51096	-1.68176
753.90625	-8.85414	-6.79790	-0.51065	-2.08485
757.81250	-5.22790	-4.38054	1.90728	-8.53193
761.71875	-5.63086	-1.56025	-1.71880	-8.53201
765.62500	-4.42210	-3.17219	-8.97121	0.33245
769.53125	-5.22808	-7.20175	-7.35914	10.00264
773.43750	-10.46622	-6.79912	2.31153	8.39077
777.34375	-10.06328	-8.00811	5.53522	-6.11481
781.25000	-5.22828	-8.00841	-0.10543	-15.38235
785.15625	-0.79618	-3.17359	-4.53736	-9.33858
789.06250	-2.00506	4.48188	0.29808	-4.90643
792.96875	-0.79639	4.07870	3.11884	-2.08609
796.87500	1.62111	-0.75677	1.91027	1.13715
800.78125	-1.60238	-3.57765	-2.52164	0.33114
804.68750	5.65033	1.25726	0.29918	3.55449
808.59375	8.87375	9.71853	6.34351	3.95735
812.50000	10.48549	11.73291	7.14976	3.15147
816.40625	10.48550	6.89743	0.30030	4.36022
820.31250	4.44151	3.27079	-2.92277	1.13678
824.21875	8.06780	6.89692	2.71860	4.76323
828.12500	1.62087	2.86741	-4.53381	4.76325
832.03125	-7.64659	0.44958	-10.98035	0.33104
835.93750	-8.85550	0.85231	-3.72710	-1.28065
839.84375	-12.07906	-3.17725	1.91438	-5.71286
843.75000	-10.06450	-3.17760	5.94403	-5.31006
847.65625	-10.46751	-2.77498	0.70627	-1.28076
851.56250	-11.67634	1.65694	-8.15784	3.15155
855.46875	-9.25879	-1.16379	0.30392	1.53984
859.37500	-5.22947	-3.98451	1.91599	-2.89246
863.28125	1.62041	2.05925	-0.09829	5.16611
867.18750	0.00862	0.04444	11.18412	5.56897
871.09375	-8.45292	-3.98502	11.58749	0.33083
875.00000	-8.85579	2.46171	3.12633	1.53961
878.90625	-4.42364	1.65556	-0.90262	-3.69855
882.81250	-0.79738	-7.61208	-3.31993	-6.92207
886.71875	-1.60328	-5.59755	-4.52839	-5.71333
890.62500	-6.03559	-0.35954	-1.30455	-2.08702
894.53125	-3.21517	2.05792	6.35151	3.95694
898.43750	-3.61801	6.89293	6.75475	-2.08692
902.34375	-7.64721	9.31032	3.12868	-3.29563
906.25000	-2.00625	1.65439	5.54656	2.74848
910.15625	-0.39450	-3.98678	2.32355	4.76320
914.06250	-2.40912	-0.36066	-0.89962	4.76317
917.96875	-1.60334	0.44494	-5.33158	-0.47498
921.87500	8.87283	0.44465	-8.55476	3.95718
925.78125	16.93143	0.44438	-4.92802	15.23917
929.68750	2.42585	-2.77928	3.93676	3.55418
933.59375	-13.69151	-5.60017	11.18977	-16.59249
937.50000	-17.31794	-1.97402	9.57836	-26.26299
941.40625	-24.97371	-1.97423	5.14647	-31.90403
945.31250	-28.60010	-8.01840	11.99664	-29.08364
949.21875	-23.76503	-11.64507	15.22045	-24.24857
953.12500	-23.76506	-15.67464	-2.10529	-21.83110
957.03125	-23.76516	-21.71888	-12.17835	-17.39902
960.93750	-20.94475	-17.68986	-6.13404	-20.62247
964.84375	-14.49791	-6.40804	3.13369	-17.39911
968.75000	-12.08040	-8.82585	6.35750	-8.13177
972.65625	-13.28928	-8.82610	3.13445	-6.52011
976.56250	-8.05123	-7.61761	2.32897	-4.50541
980.46875	-4.42493	-13.25890	-0.89420	-4.90834
984.37500	-4.02215	-17.28854	-7.74374	-6.11724
988.28125	-3.21642	-14.87141	-7.74347	-7.72906
992.18750	-3.21654	-11.64828	-3.31098	-12.96728
996.09375	-4.02248	-10.43975	1.92745	-12.96734
1000.00000	-2.41078	-11.24586	6.76299	-13.77335
1003.90625	0.81254	-5.60513	3.13700	-14.17632
1007.81250	-0.79924	-3.59073	-1.69784	-11.35593
1011.71875	-4.42566	-8.02318	-5.32395	-2.08864
1015.62500	1.61819	-8.42653	-0.48871	-1.68588
1019.53125	2.02094	-2.78579	-0.89137	-9.34175
1023.43750	0.81206	0.03441	-6.12912	-7.73004
1027.34375	5.24423	-3.59229	5.15324	-2.08915
1031.25000	-4.42610	-8.42775	4.34767	0.32834
1035.15625	-6.44081	-6.81629	0.31872	5.16342
1039.06250	-1.60573	-4.39898	6.76603	5.56627
1042.96875	-7.24700	-11.65203	2.73706	-6.92488
1046.87500	-4.82966	-12.05530	-1.29198	-6.92524
1050.78125	-7.65044	-8.02624	-8.14150	-8.53741
1054.68750	-10.47146	-2.38570	-8.14119	-11.76130
1058.59375	-9.66603	-0.77438	2.33534	-8.94116
1062.50000	-6.84596	3.65748	3.54445	-1.68887
1066.40625	-4.83173	-4.80434	-0.08148	2.74299
1070.31250	-7.24975	-18.10142	-5.31922	-6.52486
1074.21875	-6.44433	-10.84908	-6.12482	-4.10765
1078.12500	-6.44475	-5.61135	-4.10984	4.75647
1082.03125	-6.44507	-5.20869	2.74030	4.75617
1085.93750	-3.22192	-6.82081	4.75528	2.74124
1089.84375	-0.80459	-8.83583	-1.28832	1.93505
1093.75000	-0.40186	-6.01567	-1.69088	-1.28863
1097.65625	4.03009	-6.41896	-2.49636	-3.70635
1101.56250	6.04448	-3.59881	-0.88436	-3.30369
1105.46875	-1.61137	-8.03137	-2.49580	-0.48336
1109.37500	-4.83496	-11.65822	-2.49547	3.14283
1113.28125	-1.61166	-2.39120	5.56349	1.12796
1117.18750	-6.04410	-4.80918	5.96675	-2.90163
1121.09375	-11.28239	-13.67415	-2.49451	-4.11060
1125.00000	-12.08841	-12.06287	-6.12052	-5.72240
1128.90625	-7.65625	-12.46612	3.14721	-3.70786
1132.81250	-10.07400	-12.46647	6.77385	-3.70805
1136.71875	-8.86540	-10.45215	-1.28447	-1.29078
1140.62500	-0.80701	-6.02022	-0.88122	2.33545
1144.53125	-3.62764	-2.79704	3.55136	2.33532
1148.43750	-3.22488	-1.18564	-1.28336	2.73809
1152.34375	-0.40447	2.03751	-4.90936	-2.09729
1156.25000	0.40125	-0.38043	3.14951	2.73779
1160.15625	0.80398	-4.00710	5.16448	-2.09754
1164.06250	2.01262	-5.61922	0.32961	-6.52986
1167.96875	1.60963	-2.79898	-1.68480	1.52875
1171.87500	7.25054	-0.78466	2.34488	4.75211
1175.78125	8.45922	-3.20258	6.37458	3.14028
1179.68750	4.02680	-0.78527	-0.47484	-0.48618
1183.59375	-0.80846	0.42325	-7.32429	-4.91848
1187.50000	-0.80857	-3.60632	-0.07126	-0.48635
1191.40625	4.02645	1.63151	11.21109	8.37808
1195.31250	-1.21178	0.42243	7.58500	6.76634
1199.21875	-0.40602	-5.21882	-1.27914	1.12520
1203.12500	-0.00322	-1.18977	-1.68174	-0.48655
1207.03125	-1.61499	3.24224	-2.89005	-2.09830
1210.93750	-1.61510	2.03320	-0.47213	1.52799
1214.84375	-4.43578	0.01831	-2.08352	-0.48690
1218.75000	-3.63010	2.43563	-4.90372	-5.72515
1222.65625	4.83122	6.46463	8.79618	1.93036
1226.56250	0.80169	6.06146	12.82580	5.15370
1230.46875	-3.63061	6.46422	4.36465	2.33314
1234.37500	1.60734	2.43477	2.35043	4.75065
1238.28125	-0.40749	-4.41524	-0.87265	1.12414
1242.18750	2.41290	0.82268	-3.28991	-2.90535
1246.09375	5.63621	0.41948	-3.69255	3.94421
1250.00000	3.62134	-7.23641	-1.67756	7.97335
1253.90625	6.03879	-6.43075	4.36684	1.12345
1257.81250	9.26217	-1.99874	14.44050	4.74967
1261.71875	6.44149	-0.38733	7.18806	7.56996
1265.62500	-2.42317	-1.99938	-5.70548	-0.89177
1269.53125	-5.64682	-1.99967	-2.48171	-0.89189
1273.43750	-1.61765	8.47631	3.15965	5.95780
1277.34375	-4.03539	12.50540	0.74236	4.74892
1281.25000	-5.24435	2.83482	-4.09244	-2.90693
1285.15625	-3.63271	-1.59765	-1.67451	-2.10130
1289.06250	-1.61822	3.64021	1.95236	7.16589
1292.96875	4.02261	4.44581	5.17618	7.56871
1296.87500	9.66355	7.26604	7.19106	8.77738
1300.78125	7.64884	12.50392	6.38548	8.37431
1304.68750	-2.42443	8.87735	-4.49341	-0.89321
1308.59375	-0.00696	3.23614	-6.50775	-0.49032
1312.50000	1.20176	-0.39054	3.56584	7.97108
1316.40625	-6.85692	-6.03186	5.98381	8.37393
1320.31250	-6.85699	-2.40581	3.96958	4.74759
1324.21875	-6.85707	0.41444	-1.26813	3.53878
1328.12500	-5.24547	0.41419	-2.47668	2.32982
1332.03125	-2.42499	7.66666	2.35872	6.76188
1335.93750	0.39540	10.08399	-2.87916	5.95589
1339.84375	3.61876	8.87494	-4.49062	3.13533
1343.75000	-0.41067	-0.79566	-2.87853	-0.49112
1347.65625	1.20095	-14.89854	-7.71347	2.73224
1351.56250	7.64783	-18.92807	-9.72783	11.19360
1355.46875	14.90051	0.00947	-9.32454	6.76138
1359.37500	8.85641	16.52936	-12.95069	-5.72955
1363.28125	-12.49899	4.44129	-13.35319	-23.86152
1367.18750	-25.79569	-3.61755	-6.50304	-33.53187
1371.09375	-31.03388	3.23196	-6.90564	-44.41105
1375.00000	-40.30138	6.05212	-2.87599	-54.08158
1378.90625	-47.15128	2.02251	-1.26411	-55.29055
1382.81250	-46.74843	-0.39538	-10.93418	-52.47011
1386.71875	-45.53969	-0.39561	-11.73970	-51.26138
1390.62500	-47.55446	-7.24559	-14.55986	-54.08206
1394.53125	-42.71942	0.00695	-12.14203	-48.84414
1398.43750	-39.09314	8.06525	-10.12704	-42.80032
1402.34375	-37.07874	2.02102	-8.51506	-34.74184
1406.25000	-22.57346	7.66174	-0.45621	-25.87758
1410.15625	-12.09738	12.49661	-0.05295	-21.44554
1414.06250	-19.75324	3.63184	-8.91711	-27.89254
1417.96875	-25.79727	-4.02401	-14.96070	-30.31026
1421.87500	-20.55922	-4.02420	-12.94567	-26.68395
1425.78125	-8.87431	0.40774	-4.48381	-21.44598
1429.68750	-8.47151	3.22796	-2.46888	-21.04318
1433.59375	-18.14191	-1.20458	-5.28908	-23.46081
1437.50000	-20.96259	2.01859	-0.85652	-19.83468
1441.40625	-23.38013	3.62997	2.36723	-23.05821
1445.31250	-27.40946	-8.05523	-1.66185	-27.89350
1449.21875	-26.20086	-8.05546	-9.72016	-22.25256
1453.12500	-21.36575	0.80873	-6.49638	-15.40289
1457.03125	-16.93353	5.64359	-2.86959	-16.61172
1460.93750	-15.72501	1.61392	-12.13672	-15.00012
1464.84375	-8.87527	-6.04210	-7.70414	-11.77687
1468.75000	0.39205	-4.02780	1.16066	-8.55345
1472.65625	-3.63735	2.41875	-0.45078	-7.74759
1476.56250	-3.23455	0.00079	-3.27096	-3.71844
1480.46875	5.62988	0.00045	5.59382	1.92249
1484.37500	1.60045	0.80605	5.99714	1.92243
1488.28125	-2.83195	-3.62648	-7.70215	-0.49523
1492.18750	3.21190	-6.44732	-10.92527	-3.31591
1496.09375	6.43518	-10.07403	-5.68681	-4.12189
1500.00000	2.00279	-11.28311	-6.49226	-3.31620
1503.90625	-0.41485	-12.49213	-5.68606	-2.51038
1507.81250	2.80851	-6.04554	9.22271	0.31003
1511.71875	11.26988	-4.43413	5.99962	2.32449
1515.62500	8.85223	-10.07543	-8.50551	2.72729
1519.53125	3.21106	-7.65816	-9.71395	-4.52556
1523.43750	6.83737	-5.24081	-12.53409	-5.33157
1527.34375	9.65781	-2.82349	-9.31032	-2.10832
1531.25000	0.79318	-2.82378	-4.47485	-12.18180
1535.15625	-1.62454	-0.80945	-1.65398	-9.36143
1539.06250	6.43389	6.44301	6.80789	-4.92927
1542.96875	7.64254	10.47202	9.22578	-4.12357
1546.87500	6.83660	3.62186	6.00263	1.51736
1550.78125	0.79244	-8.06330	-0.84689	-5.33256
1554.68750	-1.22240	-8.46660	-7.69644	-6.54144
1558.59375	3.20973	1.60632	-7.69611	-4.52689
1562.50000	0.79203	4.82949	-5.27813	-8.95922
1566.40625	-4.84907	-0.40890	-8.90413	-10.97399
1570.31250	-8.07263	-6.85613	-9.70959	-10.16829
1574.21875	-7.26689	-13.70625	-6.48578	-3.31870
1578.12500	-0.41719	-7.66260	-5.27666	1.51629
1582.03125	-1.22319	-1.21597	-6.08219	3.12781
1585.93750	1.19430	-3.23089	-5.67892	2.32183
1589.84375	4.41765	0.79810	-3.26101	-6.54284
1593.75000	2.40288	8.45347	6.40964	-0.90200
1597.65625	1.19395	0.79751	5.60409	4.73892
1601.56250	-6.05889	-10.88780	-4.87174	-0.49930
1605.46875	-10.89415	-10.88811	-6.88620	-1.70827
1609.37500	-1.62688	-5.65032	-0.43902	1.51508
1613.28125	-0.01531	-3.23304	-0.84161	-0.09676
1617.18750	-0.41830	-2.42747	-0.03543	0.70898
1621.09375	0.79036	4.42211	1.17367	2.32061
1625.00000	4.01363	2.81007	-2.45247	-2.91770
1628.90625	6.43107	2.40690	1.98005	-2.11210
1632.81250	2.40156	2.00369	1.17451	5.54338
1636.71875	10.86293	-4.04054	5.20414	7.96068
1640.62500	9.25103	-6.05555	4.80155	3.12540
1644.53125	4.01272	-4.84707	-4.86842	-0.50115
1648.43750	1.19197	-8.47376	-7.28577	-7.35131
1652.34375	-3.24048	-6.86233	-5.27082	-3.32236
1656.25000	3.60912	-2.83323	4.39980	1.91543
1660.15625	2.80301	-5.65412	3.99711	-0.90537
1664.06250	0.38515	-4.44563	-5.67290	-6.54674
1667.96875	1.59379	-1.62541	-3.65792	-6.94989
1671.87500	-3.24158	-3.23742	-0.43423	-4.93550
1675.78125	-3.64472	-4.44652	4.40135	-4.53285
1679.68750	-2.83912	-3.64096	3.19301	-4.93598
1683.59375	-3.24228	-4.44715	-4.05935	-4.53325
1687.50000	-4.45128	-4.04450	-4.05903	-3.72760
1691.40625	-3.64562	-3.23899	-0.43238	-10.98059
1695.31250	-0.01949	-2.03051	6.41780	-12.18961
1699.21875	-0.01976	0.38676	4.40338	-8.16053
1703.12500	-1.63167	4.41577	-6.07260	-7.75775
1707.03125	-8.48164	5.62418	-6.87815	-15.01078
1710.93750	-9.69049	5.22103	0.77797	-9.77286
1714.84375	-6.06418	1.19147	-4.45971	-2.92319
1718.75000	-5.25840	-7.67333	-8.48866	-5.34088
1722.65625	-8.48195	-9.68834	-3.65322	-8.16151
1726.56250	-10.49673	-9.68872	-5.26466	-12.19102
1730.46875	-3.24401	-5.65982	-0.83219	-4.13259
1734.37500	-2.43818	-4.85426	-2.04067	-2.11810
1738.28125	-3.64708	-5.66046	-7.27838	-10.57978
1742.18750	2.79973	-6.46661	-4.05451	-9.37105
1746.09375	-2.84142	-10.09321	-1.23361	-6.55063
1750.00000	-6.46789	-5.25828	3.19899	-7.35657
1753.90625	-4.05042	-8.48202	-5.26222	-10.17725
1757.81250	-5.66227	-5.66178	-5.26191	-6.95405
1761.71875	-5.25955	-4.85619	-2.03818	-10.98356
1765.62500	0.38131	-6.06531	-5.26127	-6.95444
1769.53125	1.18695	-4.05093	5.21534	13.59484
1773.43750	-7.67765	-8.08049	2.79814	9.16236
1777.34375	-2.84280	-1.23098	-5.66309	-3.73155
1781.25000	-0.82836	-1.63419	-4.85685	-2.52292
1785.15625	-4.45498	-8.08128	-3.64775	-2.12026
1789.06250	-3.64945	-8.48452	1.99362	1.10288
1792.96875	-2.84389	-5.26125	5.21747	8.35532
1796.87500	-3.24706	-6.47023	8.03841	16.81653
1800.78125	-2.03851	-5.26157	7.23294	11.57815
1804.68750	6.82566	3.60264	7.63613	7.14555
1808.59375	9.24286	1.58770	6.42765	12.78620
1812.50000	3.60157	-5.66538	-0.82483	10.36833
1816.40625	8.03354	-2.03926	5.62233	1.90656
1820.31250	6.42168	1.18400	5.62270	4.32391
1824.21875	-0.02540	-1.23380	0.38493	6.33833
1828.12500	2.39200	-0.42824	1.99695	0.69700
1832.03125	-1.23457	-5.26365	-2.03206	0.69668
1835.93750	-2.04054	-5.66690	-0.01705	8.35221
1839.84375	3.60036	-2.84660	1.99797	4.72573
1843.75000	3.19726	-2.04100	-2.43392	-4.13899
1847.65625	7.62937	4.00280	-1.22480	-6.55680
1851.56250	5.21168	5.21142	6.02827	2.30752
1855.46875	-2.04114	-0.02686	4.41693	11.57477
1859.37500	8.83789	0.77878	2.40268	5.53071
1863.28125	5.21130	1.58437	-2.02925	0.69537
1867.18750	5.61415	4.00173	-8.07282	11.17143
1871.09375	17.29906	-0.43073	2.00072	22.05046
1875.00000	6.41978	-9.69832	7.23911	13.99183
1878.90625	4.40496	-6.07216	8.85105	9.15653
1882.81250	5.61351	-4.86363	10.46304	11.97687
1886.71875	3.59863	-9.29613	5.62811	10.76787
1890.62500	4.00133	-8.08759	4.01677	4.72375
1894.53125	-0.02816	-2.44689	7.24058	1.09725
1898.43750	0.37466	-4.46182	7.24096	-0.91753
1902.34375	3.59794	-5.26798	0.39144	-0.11188
1906.25000	1.98607	-7.28295	-2.02580	2.70851
1910.15625	-0.83453	-7.28325	0.79501	1.49953
1914.06250	-3.65515	-3.25432	-1.62233	-4.54466
1917.96875	-5.66995	-7.68692	-3.63669	-9.38011
1921.87500	-5.26715	-9.70192	-2.42760	-11.39498
1925.78125	-1.64090	-1.64362	-3.63610	-12.60400
1929.68750	-0.02940	4.80303	-4.03868	-1.72513
1933.59375	0.37344	-1.24121	-5.65014	-2.12833
1937.50000	0.77617	-6.07668	-1.62058	-8.17246
1941.40625	10.44636	-2.85350	-4.44077	1.49772
1945.31250	10.84932	0.36961	-7.26095	0.69171
1949.21875	5.61128	1.57814	-2.82841	-8.57568
1953.12500	4.40259	0.77200	-5.24564	-8.97853
1957.03125	0.37340	0.77176	-4.84228	-3.74041
1960.93750	-0.83535	1.98035	2.00791	0.69178
1964.84375	-3.65581	-1.24336	1.20239	8.75053
1968.75000	-0.02944	1.57687	0.79976	11.97415
1972.65625	3.99992	9.63530	0.39717	11.16827
1976.56250	9.64102	11.64977	0.80045	15.60047
1980.46875	11.25272	8.02317	2.81550	7.94476
1984.37500	5.61172	7.21707	-2.01924	1.90080
1988.28125	9.64099	14.87250	-4.43641	-0.51683
1992.18750	13.26727	16.88701	-5.64478	-2.53157
1996.09375	12.86425	8.02230	-2.42097	-0.91999
2000.00000	9.64071	5.60452	-6.04702	0.28876
2003.90625	10.04357	3.58965	-7.65839	10.36187
2007.81250	9.64055	-1.24576	0.40057	13.18221
2011.71875	8.02874	-4.46944	4.83312	6.33234
2015.62500	1.17890	1.57431	4.02759	5.92931
2019.53125	-3.65627	10.43860	5.23669	10.76439
2023.43750	-4.86507	5.20031	-0.80689	9.95846
2027.34375	-6.87970	3.18546	-6.04462	-2.93542
2031.25000	-7.28264	-0.84409	-7.25317	2.30247
2035.15625	-6.87974	-0.44144	-0.80600	16.80775
2039.06250	-5.67101	6.40820	6.44713	7.54020
2042.96875	-4.86528	2.37864	7.25337	-4.54788
2046.87500	-6.88014	-2.85973	8.86543	-0.11582
2050.78125	-12.52133	0.36346	6.85113	3.91331
2054.68750	-16.55076	-0.44263	0.00165	-0.11624
2058.59375	-11.31278	-5.68099	-1.20684	-2.93693
2062.50000	-11.71586	-5.27826	0.40517	4.71863
2066.40625	-18.16280	-6.89029	-3.22089	5.92725
2070.31250	-10.91025	-6.48760	-3.22056	-9.78716
2074.21875	-5.67230	-2.05561	2.42085	-10.99619
2078.12500	-4.46374	-0.44421	7.25630	-4.95247
2082.03125	-4.06107	1.16727	3.63024	-8.17623
2085.93750	-8.49345	1.97288	1.61599	-6.96776
2089.84375	-8.09063	2.77854	6.45153	-3.74457
2093.75000	-0.83797	4.39009	2.42251	-3.34193
2097.65625	-1.64396	3.98699	0.81102	3.91059
2101.56250	-6.07634	3.58386	2.02016	2.29872
2105.46875	-5.67353	1.97195	-6.03805	9.55133
2109.37500	-4.06197	-0.84879	-8.45528	9.14821
2113.28125	-4.86793	-0.44618	-2.00805	-5.76037
2117.18750	-4.06225	2.77700	3.63327	-0.52250
2121.09375	-1.24191	8.82071	5.24534	4.71539
2125.00000	-1.24202	8.01467	4.03680	-5.35811
2128.90625	-0.03331	7.61146	7.66336	-8.98469
2132.81250	3.19003	8.41715	5.64898	-1.73221
2136.71875	5.60753	8.81989	-2.81207	-2.53817
2140.62500	1.17518	10.83438	-9.25853	-4.95593
2144.53125	-4.86882	13.65475	-6.43769	-4.95612
2148.43750	0.36920	14.05741	-0.39338	-9.79145
2152.34375	3.18953	14.86300	0.41287	-8.98580
2156.25000	-1.24294	12.04227	3.63661	-9.79197
2160.15625	1.57748	7.20697	12.09840	5.51915
2164.06250	8.02417	13.65379	13.30747	16.39807
2167.96875	-7.69020	18.48889	-2.40653	-12.61308
2171.87500	-16.15188	15.26535	-12.47949	-17.85135
2175.78125	6.00915	19.69744	-1.60016	1.08624
2179.68750	5.20318	21.71187	6.45875	-4.15200
2183.59375	-6.88478	19.29411	0.81799	-20.26941
2187.50000	-7.28779	18.08522	5.25053	-17.04609
2191.40625	-14.13765	14.45875	6.05662	-11.40524
2195.31250	-17.36127	14.05564	0.01292	-13.42005
2199.21875	-17.76437	13.24967	-0.79266	-17.85248
2203.12500	-15.34693	8.41439	-4.82162	-17.04679
2207.03125	-10.91485	8.01128	0.01388	-4.15332
2210.93750	-15.34718	6.80228	5.65525	-3.34763
2214.84375	-14.94436	5.99616	3.23804	-6.57124
2218.75000	-8.90059	8.01055	10.08807	-6.16856
2222.65625	-10.91543	-0.45120	10.49133	-8.98932
2226.56250	-8.49795	-4.88354	6.86531	-4.96014
2230.46875	-6.08043	-6.89840	4.04516	0.68071
2234.37500	-9.70695	-8.10732	-4.41607	-0.52824
2238.28125	-8.49836	-7.30171	-8.44501	-11.81054
2242.18750	-6.48391	-3.27259	-10.45931	-15.84004
2246.09375	-4.46939	-1.66106	-5.62381	-6.57285
2250.00000	2.38024	-6.49635	0.82351	-3.75253
2253.90625	3.99174	-6.49661	0.01794	-1.33529
2257.81250	5.20031	-2.06467	3.24159	8.73775
2261.71875	7.21476	-3.27368	2.03310	7.12578
2265.62500	9.22924	-9.31782	0.82464	1.48455
2269.53125	9.63205	-8.51222	1.63090	4.70777
2273.43750	3.18498	-0.05089	-1.99511	12.36319
2277.34375	2.78192	-5.69220	-1.18897	4.30430
2281.25000	6.00509	-8.51293	4.45236	0.67759
2285.15625	4.79610	-1.26042	7.67603	7.93006
2289.06250	-1.24811	-1.26069	5.25874	5.91514
2292.96875	-1.65118	-0.45513	2.43858	6.72079
2296.87500	1.97500	6.39445	9.69170	12.76449
2300.78125	2.37775	0.75314	-0.78413	15.58478
2304.68750	6.40689	-6.90283	-10.85718	5.51136
2308.59375	1.16864	-5.29135	-6.02177	1.88479
2312.50000	-6.48722	2.76698	0.02248	7.92857
2316.40625	-6.08442	1.96085	3.24624	-0.53315
2320.31250	-6.08458	-5.29222	1.63483	-0.13049
2324.21875	-0.44365	1.15438	4.45573	4.70447
2328.12500	6.40608	3.57169	8.88830	3.89836
2332.03125	2.77965	0.34801	0.02414	2.68948
2335.93750	-0.84684	-1.26395	-7.63133	2.68932
2339.84375	4.79410	2.36221	-6.42223	8.73317
2343.75000	12.04674	8.80883	-6.42192	13.97117
2347.65625	11.64361	7.59980	-2.79516	7.92697
2351.56250	10.03172	2.76435	2.04034	8.32971
2355.46875	12.44908	3.97285	5.66702	7.92650
2359.37500	9.22546	-0.05672	4.45857	2.68824
2363.28125	4.39019	-4.08625	0.83252	4.70272
2367.18750	5.19595	1.15166	-4.80811	2.68793
2371.09375	6.00162	1.95729	-3.19611	2.68774
2375.00000	1.16626	-0.86344	-1.18112	8.73147
2378.90625	-0.04273	0.34509	-1.98663	11.14878
2382.81250	5.59806	5.18005	-2.79214	4.70171
2386.71875	9.22415	15.65602	3.25214	2.68692
2390.62500	1.97119	14.04404	8.08768	2.28378
2394.53125	-4.07304	-0.86456	-1.58230	2.68650
2398.43750	-5.68500	-2.07356	-6.82006	3.89503
2402.34375	-3.26768	3.16431	-0.77577	-0.13445
2406.25000	1.97021	1.55235	8.08903	9.53565
2410.15625	2.77592	-1.67134	4.06010	10.34125
2414.06250	-3.67122	-4.08914	-6.81874	-4.16449
2417.96875	-6.08907	-5.29820	-2.38615	-2.55305
2421.87500	-6.89517	-3.28382	-2.78870	1.47588
2425.78125	-6.49252	1.55103	0.83795	0.66970
2429.68750	-0.44876	3.56533	8.89689	3.89287
2433.59375	1.56569	0.74448	6.88264	3.89264
2437.50000	3.58010	-0.06170	4.06246	-0.94275
2441.40625	3.98276	-1.27080	6.88326	0.26583
2445.31250	7.60896	-2.47985	5.67476	-2.15195
2449.21875	6.80300	-3.28592	8.09262	6.71233
2453.12500	-0.04702	-3.68909	8.49584	8.72678
2457.03125	4.38506	-4.49520	2.85511	-2.95844
2460.93750	8.81717	-4.89831	4.87006	-3.36166
2464.84375	5.99651	-3.28682	9.30265	-4.97356
2468.75000	7.20523	-0.86947	7.28838	-4.57088
2472.65625	12.44313	-0.06389	2.85652	-8.19757
2476.56250	13.65170	3.96517	1.24515	-5.78029
2480.46875	18.88957	5.17374	-0.76914	0.66629
2484.37500	14.45709	2.75583	-1.57467	1.47200
2488.28125	5.99532	-1.27379	-2.38017	7.91856
2492.18750	12.44199	-2.48281	1.64952	5.09772
2496.09375	5.18896	-1.67721	4.87336	1.47112
2500.00000	-10.12264	3.15768	4.06782	4.29133
2503.90625	-6.49657	4.36612	8.90325	-2.15588
2507.81250	1.15886	0.33645	16.15632	3.08195
2511.71875	3.17325	2.35081	2.85990	6.30507
2515.62500	3.97880	2.75342	-10.03355	4.29015
2519.53125	4.78450	3.55902	-2.37748	4.69296
2523.43750	2.36680	4.36462	0.44337	1.06638
2527.34375	-3.27438	-0.87384	-3.18266	-7.39540
2531.25000	-4.48335	-1.27718	-2.37647	-3.76923
2535.15625	1.56036	1.94584	6.48830	-0.14313
2539.06250	6.79832	3.55715	8.90614	-0.54621
2542.96875	2.76901	3.55681	-1.56976	5.49765
2546.87500	2.76895	3.55644	4.87740	3.07996
2550.78125	0.75408	1.54139	2.86300	-0.14360
2554.68750	-4.48406	-2.48829	-4.38950	-5.38181
2558.59375	-6.90178	-5.30908	-3.18041	-3.36722
2562.50000	-7.70775	-5.30942	-8.01516	1.46785
2566.40625	-6.49908	-7.32440	-8.01472	-6.18804
2570.31250	-12.94590	-5.71294	-8.82021	-8.60578
2574.21875	-16.57240	-8.13072	-6.40226	-5.38251
2578.12500	-16.57254	-12.96624	0.44782	-8.60618
2582.03125	-19.39317	-13.36935	-0.35775	-3.36825
2585.93750	-13.75235	-12.56381	-2.37214	3.07849
2589.84375	-11.33486	-7.32596	-3.58059	-8.60670
2593.75000	-11.73795	-4.10271	-1.16253	-2.96580
2597.65625	-12.54392	-2.89415	5.68766	-5.78647
2601.56250	-10.52945	-0.47689	0.85287	-17.06875
2605.46875	-0.05344	1.53751	-1.96727	-15.45745
2609.37500	7.19918	0.32852	1.65943	-10.62262
2613.28125	2.76684	-1.28340	-2.77244	-6.99640
2617.18750	-8.11249	-2.08950	-16.47179	-22.71088
2621.09375	-2.06874	-1.28385	-11.23332	-17.47300
2625.00000	5.58676	-0.07527	-0.75669	-1.35601
2628.90625	-5.69546	5.16256	-8.41200	-9.01182
2632.81250	-7.71022	7.17695	-10.42630	-23.11464
2636.71875	-2.87526	1.93861	-4.78494	-20.29440
2640.62500	-7.30763	-6.12024	-0.75531	-11.43021
2644.53125	-17.78400	-8.94101	-5.59019	-13.84810
2648.43750	-18.59006	-6.52364	-14.05135	-8.20734
2652.34375	-10.93458	-8.13551	-9.21575	-2.96951
2656.25000	-8.92008	-4.91228	-3.17144	-6.19323
2660.15625	-5.69684	-0.48025	-2.36524	-0.55253
2664.06250	-2.47361	2.74300	2.87315	0.65593
2667.96875	-0.86212	-6.52463	3.67931	2.67036
2671.87500	9.21094	-8.53948	3.27677	3.47594
2675.78125	8.40491	-2.89860	-2.36392	2.66984
2679.68750	2.76372	-6.52523	-8.00456	2.66956
2683.59375	4.77818	-5.31666	-0.75149	2.26632
2687.50000	4.77805	-6.52570	-5.98918	3.47491
2691.40625	7.19542	-7.73479	-11.62985	1.05712
2695.31250	5.98645	1.93529	-10.01776	3.07158
2699.21875	4.37466	1.93511	-2.76457	7.50359
2703.12500	8.40377	-4.51195	0.86212	9.11500
2707.03125	9.20938	-5.72095	4.08591	15.56157
2710.93750	7.19456	-7.73580	4.08628	11.12893
2714.84375	10.01489	-5.31835	4.48956	4.27886
2718.75000	11.22340	-5.31850	2.87810	9.91970
2722.65625	14.04368	-2.49816	7.71353	15.96336
2726.56250	15.25219	-1.69251	10.13142	21.20112
2730.46875	7.99923	-3.30449	-0.74739	14.35093
2734.37500	3.96972	-5.31940	0.86464	9.51554
2738.28125	7.59595	-0.08149	3.28262	14.35044
2742.18750	2.76068	2.33598	-2.76094	6.29156
2746.09375	-1.67170	-2.90224	-0.34309	-0.55844
2750.00000	6.78969	1.93277	8.92459	6.69404
2753.90625	8.40120	7.17069	13.35718	12.33470
2757.81250	7.19223	2.33539	8.11946	3.87294
2761.71875	7.19206	-1.69419	3.68756	-2.17121
2765.62500	3.16257	-3.70907	-3.56485	1.05195
2769.53125	-1.26986	-4.51518	-6.78796	-4.99218
2773.43750	-1.67291	3.94615	0.86811	-4.18648
2777.34375	-1.27013	1.52839	0.46551	5.88657
2781.25000	0.34142	-0.48644	-5.98105	4.27457
2785.15625	1.95288	-0.08366	-6.38372	-3.38140
2789.06250	2.35567	-5.32192	-5.17461	-5.39630
2792.96875	3.16138	-1.69573	-8.80068	-4.59074
2796.87500	9.20502	1.52756	-6.38280	-1.36774
2800.78125	8.80180	0.31849	-4.36789	-4.99442
2804.68750	12.02499	-1.69640	0.87060	-3.78590
2808.59375	10.01011	-0.48782	4.90031	-0.15979
2812.50000	2.35419	9.18221	4.90063	5.48097
2816.40625	0.74226	7.97315	-3.96350	11.92755
2820.31250	-8.12234	-5.72666	-10.41005	-2.98116
2824.21875	-4.89902	-1.29452	-3.15695	-8.21955
2828.12500	3.96527	2.33173	-1.14196	-0.96713
2832.03125	8.39740	3.94319	-4.36511	-0.16159
2835.93750	7.99427	10.38992	3.69379	2.65874
2839.84375	4.77066	2.33121	7.32051	-4.99715
2843.75000	2.75585	-0.48951	-1.14069	-7.01204
2847.65625	-4.09419	1.12209	-4.36376	3.46388
2851.56250	-2.07971	-1.69869	-1.54282	11.11928
2855.46875	5.57578	-2.10183	2.48693	10.31314
2859.37500	3.15792	-3.71385	7.72529	7.49231
2863.28125	5.57529	-2.50528	6.11398	5.07442
2867.18750	6.78387	-3.31134	-0.73547	2.25361
2871.09375	4.36610	-6.13203	8.12930	6.28264
2875.00000	2.35130	-5.72929	14.97941	8.70006
2878.90625	1.14230	-5.32648	1.68306	2.25297
2882.81250	2.75389	-9.35593	-7.58397	-2.98535
2886.71875	-2.88734	-8.95327	-0.73381	6.28180
2890.62500	-6.11094	-10.96815	-1.53937	1.44643
2894.53125	-4.09641	-16.60930	-2.74773	-3.38900
2898.43750	-4.90237	-17.41522	2.49079	1.84887
2902.34375	-1.27617	-12.58029	4.90874	-0.97187
2906.25000	3.15594	-4.92479	7.72962	-1.77795
2910.15625	-5.70864	-7.34257	7.73002	-2.58399
2914.06250	-12.55856	-10.16322	-3.14870	-8.62818
2917.96875	-4.50004	-5.73120	-2.74540	-5.00196
2921.87500	-2.88844	-1.70210	4.50770	-1.77877
2925.78125	5.97595	0.71533	7.73150	-2.58470
2929.68750	12.01980	-2.91114	9.34366	0.23569
2933.59375	-4.09758	-7.74649	-2.74383	7.89114
2937.50000	-5.70932	-1.29978	-3.14636	12.32326
2941.40625	-2.48594	-3.31467	5.31563	2.65283
2945.31250	-5.30662	-9.35887	3.30133	5.87592
2949.21875	-9.33601	-9.35915	-1.53352	2.24931
2953.12500	-8.12738	-12.98584	-1.93602	-4.60062
2957.03125	-4.90409	-14.59772	0.48193	0.63731
2960.93750	-6.51604	-10.97163	8.13797	3.86055
2964.84375	-4.90450	-3.71908	8.94415	5.87500
2968.75000	-4.09887	0.71299	0.48293	1.84551
2972.65625	-9.74007	-4.12233	-5.15769	2.24826
2976.56250	-12.15790	-5.33136	-9.99245	-1.37832
2980.46875	-11.35225	-2.51106	-10.79801	-11.45182
2984.37500	-6.51736	2.32396	-3.54494	-2.99063
2988.28125	1.13809	6.35306	4.91696	-3.79680
2992.18750	0.73496	2.32352	10.55834	-4.60304
2996.09375	0.33184	-1.70617	9.34979	-6.61804
