 	TP9	AF7	AF8	TP10	
-1000.00000	12.43874	3.95805	16.57904	6.02999
-996.09375	3.57452	4.36090	6.50573	6.03049
-992.18750	-5.69251	4.36086	1.67042	1.19597
-988.28125	-3.67746	-1.68325	-4.77668	-6.86203
-984.37500	-3.67714	-6.92150	5.29639	-2.42929
-980.46875	-0.45336	-9.33918	9.72858	2.00343
-976.56250	1.96461	-3.69831	3.28163	-2.83114
-972.65625	-0.85556	2.74847	-2.35954	-2.42760
-968.75000	1.56229	-1.68391	1.66949	2.00523
-964.84375	3.57726	-0.47524	-6.38929	-6.85856
-960.93750	1.56307	1.53931	-5.18074	-5.24618
-957.03125	1.56354	-3.29597	4.89239	0.79854
-953.12500	6.39916	2.34497	-1.15168	2.81388
-949.21875	10.83170	7.58288	0.45987	10.06728
-945.31250	2.77346	-0.07286	5.69779	6.03859
-941.40625	-6.09064	-7.32578	4.89168	-3.22811
-937.50000	-6.89613	-13.77282	2.07086	-9.67423
-933.59375	-4.07519	-7.32602	3.68243	-9.27072
-929.68750	-2.06019	1.13542	0.05595	-7.65834
-925.78125	-6.08910	1.13532	3.27933	-8.06064
-921.87500	-2.05945	-1.68532	7.30851	-4.43359
-917.96875	1.16440	-9.34103	1.26450	1.61101
-914.06250	2.77650	-6.92356	-9.21187	0.80581
-910.15625	3.17981	1.53794	-16.86768	-1.20825
-906.25000	6.40362	1.94078	-12.83852	-2.41631
-902.34375	1.16588	-0.07399	-0.75083	-2.41565
-898.43750	-8.90705	-0.07411	8.91932	-4.02679
-894.53125	-2.05687	-1.68598	7.30737	2.82368
-890.62500	7.61378	-1.28314	5.29261	5.24190
-886.71875	7.21126	7.17832	-0.75145	1.61619
-882.81250	-0.84692	6.37245	-14.85418	2.82564
-878.90625	-2.86112	-0.47745	-23.71894	-2.00892
-875.00000	3.18318	0.73127	-7.60203	0.81219
-871.09375	3.18348	1.13413	16.57346	3.63314
-867.18750	4.79546	-2.49238	19.39385	5.64827
-863.28125	-0.03937	-1.68665	10.52926	6.05171
-859.37500	-8.90353	-6.52190	10.52917	0.41131
-855.46875	-0.44170	-9.74546	13.75242	2.42654
-851.56250	-5.27657	-9.34266	-2.76795	-0.79640
-847.65625	-6.88799	-8.93993	-10.42383	-2.00465
-843.75000	1.57394	-1.68727	2.46970	1.21936
-839.84375	-1.24623	5.96836	8.11046	0.81704
-835.93750	5.20095	4.35659	-4.38060	1.62341
-832.03125	9.23060	8.78874	-1.96323	5.25033
-828.12500	5.20177	6.77408	-6.39562	5.25099
-824.21875	1.97865	-8.94031	-2.36659	2.43105
-820.31250	4.39647	-10.14919	11.73579	4.04320
-816.40625	2.38208	-2.09062	-9.21677	7.26718
-812.50000	1.17369	-6.92583	-7.20227	3.64140
-808.59375	-1.24368	-6.52299	7.30313	4.44770
-804.68750	1.57705	3.14725	0.05020	9.28326
-800.78125	3.59197	1.93837	3.27343	5.65738
-796.87500	-1.24292	-8.13501	12.13773	-1.99784
-792.96875	6.81598	3.14686	21.00200	-1.99740
-789.06250	3.59282	14.42887	13.74912	0.82362
-785.15625	-6.48022	11.60833	-14.05328	-1.59347
-781.25000	-4.46536	2.74379	-18.88870	-1.19004
-777.34375	-2.45047	-2.49441	-11.63616	1.22807
-773.43750	5.20552	1.53478	-18.88926	8.48130
-769.53125	12.86149	-5.71812	-4.78700	4.04951
-765.62500	9.23545	-4.10647	20.19447	2.43834
-761.71875	-1.64337	-1.68906	22.20887	1.63304
-757.81250	-6.07522	-6.12141	10.12060	-4.81331
-753.90625	-2.44866	6.77216	2.46451	-1.58938
-750.00000	2.38667	17.65114	4.07605	0.82862
-746.09375	6.01329	9.59243	-9.22096	-0.37980
-742.18750	-2.44801	1.13074	-13.25055	-3.19993
-738.28125	-7.68582	-2.09287	3.26942	-4.81124
-734.37500	-1.64164	-7.33108	8.10446	1.63605
-730.46875	1.58207	-1.69017	-1.16321	-1.58697
-726.56250	-8.49094	1.13028	-6.40159	-16.49501
-722.65625	-6.47609	-4.91385	3.26840	-8.03301
-718.75000	6.82087	-2.89935	2.05932	2.04076
-714.84375	12.46229	6.36796	-5.99960	2.04137
-710.93750	7.22454	9.99424	-11.23798	0.02728
-707.03125	-1.23671	5.15904	-17.28222	-4.40443
-703.12500	2.79292	-4.10840	-1.16528	-0.77746
-699.21875	1.58447	-5.31730	6.08712	0.83494
-695.31250	8.83751	5.56162	-3.18054	3.65596
-691.40625	13.67302	11.20246	-11.64217	4.46235
-687.50000	8.83816	0.32316	-12.04543	4.05997
-683.59375	8.83848	-2.09454	-10.03123	2.04592
-679.68750	8.83874	6.36688	-12.44920	3.25527
-675.78125	1.58623	7.17254	-7.61426	-2.38524
-671.87500	1.58650	8.78405	2.86163	-6.41405
-667.96875	9.64537	11.20154	4.07017	0.03336
-664.06250	9.64566	1.53113	1.24952	2.04861
-660.15625	3.19907	-6.12462	12.12864	5.67554
-656.25000	7.22863	1.53094	9.71091	10.10829
-652.34375	8.84062	-5.31903	-14.86809	6.07939
-648.43750	7.22917	-10.15441	-19.30059	0.43886
-644.53125	3.60308	4.35093	-0.76610	-0.76944
-640.62500	-5.66396	5.15672	1.24836	0.43991
-636.71875	-1.63432	3.14198	-3.18405	0.03754
-632.81250	-3.24569	4.75354	-6.40758	-4.39405
-628.90625	1.18688	9.99151	-5.19893	2.05342
-625.00000	3.20175	10.39440	2.45666	10.91846
-621.09375	-5.66235	-5.31992	-5.60192	-2.78059
-617.18750	-8.88525	-13.37856	-19.70456	-12.45028
-613.28125	1.18845	-12.16995	-14.86960	-3.58516
-609.37500	4.81518	-7.73781	-1.97596	-1.16696
-605.46875	-3.24303	3.14122	10.51480	-4.38972
-601.56250	-5.66033	5.15576	12.52933	-5.19504
-597.65625	-0.01891	3.94682	0.84430	-6.40323
-593.75000	4.41369	-4.11188	-6.40849	-6.80557
-589.84375	5.62278	-4.91788	-3.99108	-3.98449
-585.93750	1.19094	3.14057	5.27620	-2.37223
-582.03125	-0.01750	0.31993	5.67900	1.25463
-578.12500	1.59455	-4.11229	3.66424	2.06105
-574.21875	2.40065	1.93154	-14.46776	2.06155
-570.31250	6.02737	11.19880	-20.10899	4.07673
-566.40625	5.62483	4.34892	3.26077	2.46567
-562.50000	-2.03046	-2.90393	10.11048	-0.35423
-558.59375	-6.05940	3.13990	4.46927	-4.38294
-554.68750	-9.28244	4.34866	-2.78369	-3.57649
-550.78125	-10.49082	-0.48669	-7.21606	-3.57586
-546.87500	-6.05818	-2.09856	2.85724	-5.99285
-542.96875	-7.26659	1.52773	6.48351	-5.58930
-539.06250	-10.08669	4.75113	-3.99288	-3.57404
-535.15625	-5.65415	2.33347	-3.18709	2.06751
-531.25000	2.80780	-0.08432	0.84214	4.08265
-527.34375	-4.84752	-13.38112	-13.26055	-8.40759
-523.43750	-14.11461	-14.18714	-11.24601	-15.65973
-519.53125	-15.32299	-2.50227	-14.06665	-14.85317
-515.62500	-6.45813	4.34744	-12.45510	-7.59985
-511.71875	2.80962	8.77953	8.09422	-3.16710
-507.81250	-8.47208	8.37653	14.13791	-12.43398
-503.90625	-16.53028	4.34717	-3.18828	-17.67151
-500.00000	-3.23316	7.57049	-20.51445	-9.20935
-496.09375	4.02001	7.97338	-6.41201	-3.16473
-492.18750	-8.87341	-0.89115	-2.38276	-10.41681
-488.28125	-13.30518	-2.50300	-5.60629	-14.44552
-484.37500	-8.46973	-1.69727	-2.78601	-10.01268
-480.46875	-0.81368	4.74952	-12.05359	-3.16230
-476.56250	-3.63381	-3.71211	-13.26248	-1.14702
-472.65625	-4.03630	-7.33857	-14.87435	-3.96692
-468.75000	2.00801	9.98732	-11.65104	-7.99565
-464.84375	-8.46775	13.21070	-0.77208	-10.00972
-460.93750	-11.28775	5.55489	-8.02491	-10.41194
-457.03125	-6.85502	1.92841	-6.41325	-8.79946
-453.12500	-8.06318	3.94295	1.24219	-1.54603
-449.21875	-9.67435	1.92818	-10.44290	-6.78339
-445.31250	0.39947	7.97205	0.43612	-6.78257
-441.40625	-4.43506	4.74852	6.07701	-6.37878
-437.50000	-12.09007	-9.35409	-8.02567	-11.21315
-433.59375	-5.23960	2.73369	0.83867	-7.58598
-429.68750	-12.49186	11.19506	2.04725	-6.77937
-425.78125	-9.67082	1.12171	-5.60855	-8.79332
-421.87500	-0.80581	-7.33995	-11.24978	-11.21012
-417.96875	-4.83461	-2.90775	-19.30860	-12.01515
-414.06250	-3.22223	-0.89312	-15.27950	-8.79094
-410.15625	-12.48898	-4.11661	-9.63851	-12.01356
-406.25000	-19.74111	1.92733	0.83755	-13.62456
-402.34375	-18.12904	7.97124	12.52226	-7.98285
-398.43750	-19.33739	2.73304	3.25470	-14.42909
-394.53125	-6.04011	0.31543	3.25470	-9.19029
-390.62500	-1.60744	5.95639	7.28396	-1.93689
-386.71875	-16.11248	-3.71406	4.06041	-22.48563
-382.81250	-18.93250	-11.36979	-1.98379	-26.91726
-378.90625	-4.42656	0.71804	2.04544	-16.44037
-375.00000	4.03549	4.34430	6.88056	-12.81322
-371.09375	-8.05193	1.52364	0.83634	-22.88574
-367.18750	-13.69253	7.97047	3.65658	-16.43810
-363.28125	-3.21587	9.98502	6.87987	-0.32015
-359.37500	-10.06523	-2.10298	3.65635	-6.36339
-355.46875	-17.31755	-5.72949	5.26812	-10.79490
-351.56250	-15.30246	-5.72963	6.07407	-11.60015
-347.65625	-12.07871	-7.34151	-0.77578	-10.79373
-343.75000	-8.45192	-6.93877	-8.02857	-7.16677
-339.84375	-2.40763	-5.73012	-8.02868	-4.34552
-335.93750	0.01034	1.52247	-5.61135	-6.35952
-332.03125	0.01081	3.94001	4.05869	-6.76178
-328.12500	0.01124	-2.10404	8.89360	-0.31423
-324.21875	-3.21177	-4.92463	6.07297	-6.35755
-320.31250	-2.00243	-2.10417	4.46118	-10.38623
-316.40625	12.90642	4.74553	2.84942	6.53752
-312.50000	22.57716	8.77470	-2.79176	19.43191
-308.59375	31.84496	6.35709	-4.40360	26.28233
-304.68750	31.44243	1.11895	-7.22433	30.71521
-300.78125	30.23400	0.31303	-4.40390	32.73043
-296.87500	33.86073	-2.91038	2.44588	27.89585
-292.96875	31.44367	-7.74562	1.23696	26.28476
-289.06250	32.25000	-5.32807	-4.00137	28.30007
-285.15625	30.63869	-0.49301	-18.90997	25.88311
-281.25000	31.44504	1.11870	-21.32768	31.52476
-277.34375	33.05713	-1.29895	-13.26913	34.34583
-273.43750	32.25166	-4.92539	-5.21059	31.92885
-269.53125	28.62564	-0.09034	-3.59894	26.28837
-265.62500	34.26712	4.34187	6.87701	24.27434
-261.71875	29.83528	-7.74614	9.69728	25.48370
-257.81250	16.94184	-14.19315	-8.43480	23.06664
-253.90625	16.94228	-6.94044	2.84700	23.47021
-250.00000	16.13691	-3.31404	13.72583	15.41228
-246.09375	17.74903	6.75920	6.47273	20.24802
-242.18750	18.55527	5.95330	11.71058	24.68081
-238.28125	6.46779	-8.95522	8.89005	7.75824
-234.37500	8.07982	-4.92600	8.48707	7.75871
-230.46875	17.75049	-1.29978	16.14269	16.22076
-226.56250	18.55668	-5.32915	8.88983	13.80378
-222.65625	18.95996	-4.52335	2.84582	10.17805
-218.75000	10.90170	-0.89694	4.45749	7.76104
-214.84375	2.44062	-5.73215	5.66615	8.56751
-210.93750	1.23233	-10.56737	-9.24252	12.19456
-207.03125	3.65023	-0.49426	-15.28673	11.79221
-203.12500	6.87405	5.14673	0.83021	12.19572
-199.21875	4.45701	-4.52360	-2.79622	8.57000
-195.31250	2.03991	-8.55294	2.44181	1.72086
-191.40625	9.29303	-4.12077	12.11192	6.15364
-187.50000	8.89040	-6.13553	1.23258	5.75132
-183.59375	11.71133	-0.89755	-8.84080	4.94611
-179.68750	17.35280	6.75805	-5.21466	6.96146
-175.78125	14.12980	6.35510	20.16981	10.58848
-171.87500	12.11560	2.32571	29.43704	12.60379
-167.96875	14.13087	-0.09196	23.39292	14.21638
-164.06250	10.10229	-2.50960	6.06674	8.57627
-160.15625	5.26791	-6.94192	-10.85650	2.53330
-156.25000	-0.37241	-6.94199	-14.48293	2.93718
-152.34375	1.64303	-0.49513	-20.92973	3.34098
-148.43750	8.49370	3.13121	-1.58926	0.52149
-144.53125	7.68863	1.11647	16.13944	-5.52138
-140.62500	5.27199	-3.71881	9.28935	-7.13206
-136.71875	2.04941	-10.56865	-1.99286	-2.69869
-132.81250	0.43850	-2.10719	-1.18719	-3.50343
-128.90625	-1.57535	3.13083	-1.59043	-5.91998
-125.00000	0.84307	-2.51028	-1.59057	-1.08382
-121.09375	2.85856	-3.71913	-2.79949	1.33475
-117.18750	0.03881	-6.94265	-10.85829	2.94742
-113.28125	-1.57223	-5.73392	-5.21742	-0.67803
-109.37500	-3.58615	-4.52521	8.07931	-0.67706
-105.46875	-5.19714	-0.49599	13.31731	2.95033
-101.56250	-0.76413	6.75673	9.28771	3.35423
-97.65625	1.25128	9.17432	-3.60631	-2.68877
-93.75000	0.04317	9.17427	-10.45640	-4.29961
-89.84375	-2.77668	1.92143	-2.39786	-5.10471
-85.93750	-5.99950	-2.51091	0.82548	-2.28332
-82.03125	-3.58134	-4.12273	-5.62149	4.56733
-78.12500	-5.59547	-2.10826	-9.24800	4.56813
-74.21875	-3.58025	-1.70545	-14.88921	5.37484
-70.31250	-0.35619	-8.55526	-11.26313	0.94354
-66.40625	18.98510	1.11512	18.15070	9.80882
-62.50000	11.73289	5.54732	25.00048	4.97448
-58.59375	-14.05410	0.71217	2.43631	-11.14196
-54.68750	0.45201	8.36786	-6.83120	-1.87378
-50.78125	13.74932	8.36774	-2.39907	3.36503
-46.87500	-0.75557	4.33834	7.27099	-1.46931
-42.96875	-5.59022	-4.52623	1.62973	-7.51244
-39.06250	1.66296	-3.72054	-0.38510	-4.69123
-35.15625	2.87222	5.54668	7.27048	2.15922
-31.25000	2.06693	1.11440	0.42056	0.14533
-27.34375	2.47035	2.72605	-9.24994	2.16076
-23.43750	2.47094	-0.49740	-6.42942	6.59383
-19.53125	2.06864	-11.77938	-17.71167	6.59467
-15.62500	10.93365	3.53199	-16.10015	7.40134
-11.71875	8.91955	14.81399	13.31356	2.16403
-7.81250	4.08490	3.53184	20.96896	-4.68498
-3.90625	-1.55568	-8.55615	4.44857	-9.51933
0.00000	-9.61382	-8.95924	1.62791	-7.50404
3.90625	-5.58401	-1.30365	6.05998	-3.47399
7.81250	-3.56876	0.71099	5.25387	-4.27903
11.71875	-7.59751	-0.90070	-1.99903	-0.24900
15.62500	-6.79121	2.32273	-13.68401	2.57223
19.53125	-4.37318	-4.12418	-14.89281	0.15533
23.43750	-3.56684	-7.75057	0.41831	-0.64983
27.34375	-3.96923	-3.72130	6.46192	-4.27538
31.25000	2.47811	-4.93014	-1.59688	2.97813
35.15625	8.11967	-7.75081	-12.87899	5.39641
39.06250	-0.34135	0.71064	0.82047	1.36789
42.96875	-1.54959	5.94872	18.54928	1.77162
46.87500	0.46556	1.91941	15.72852	-1.45110
50.78125	-8.39839	-2.51288	6.05803	-6.68850
54.68750	-4.77149	2.72518	6.46072	-1.04684
58.59375	0.46711	6.75446	2.43119	2.17728
62.50000	-5.17341	3.93395	-10.05982	5.80435
66.40625	-6.38179	-4.12473	0.01324	0.16397
70.31250	3.28895	-5.73662	2.02774	-1.44697
74.21875	2.88646	-4.12491	-5.22517	-3.46094
78.12500	-2.75407	-4.52794	0.01285	-5.47489
82.03125	-1.94769	2.32193	-8.85156	1.37571
85.93750	5.70846	-0.09565	-22.14839	4.59989
89.84375	16.99083	-11.37776	-6.43446	11.04733
93.75000	8.93249	-0.49867	10.48823	8.63017
97.65625	-4.76702	12.39517	5.65292	-1.03989
101.56250	1.67988	10.38053	8.47324	5.81013
105.46875	2.88865	-0.90157	14.91984	5.81026
109.37500	-5.17005	-6.94561	10.48727	-3.45709
113.28125	-5.97605	-5.33385	6.86077	-1.44241
117.18750	-0.73810	-2.11047	-6.43601	3.39276
121.09375	0.87346	3.53047	-4.82453	9.43682
125.00000	0.47044	-0.90177	3.63674	3.79605
128.90625	-3.15589	-1.70774	1.21889	-4.26236
132.81250	-3.96162	1.91859	-7.24277	-3.45629
136.71875	3.69415	-2.91656	-6.43707	0.97626
140.62500	3.29139	-4.12532	2.82990	-1.44111
144.53125	-3.96115	-0.09599	12.49989	-6.27590
148.43750	0.87414	-5.33410	8.87330	1.38018
152.34375	5.30654	-8.15466	-17.72024	5.00698
156.25000	3.69500	3.53015	-10.46758	2.99277
160.15625	3.29231	9.57411	6.85823	0.17269
164.06250	0.87490	0.70959	7.26085	-0.63273
167.96875	-1.13946	0.30668	15.31921	2.59124
171.87500	-2.75087	5.14189	14.51296	-1.43752
175.78125	-4.76529	-5.73729	6.45414	-0.63121
179.68750	-2.75023	-14.19883	7.25992	2.99564
183.59375	1.68226	-7.34902	1.61884	2.59312
187.50000	1.27966	5.94760	-5.63414	2.59359
191.40625	-3.55517	9.17103	-8.45497	0.57945
195.31250	-2.74888	8.36510	1.61804	4.20635
199.21875	10.54819	14.81188	12.49694	8.63917
203.12500	5.31041	1.11219	4.43806	-2.64229
207.03125	-13.22399	-6.94653	-2.41197	-9.89444
210.93750	-17.25295	-0.90247	-12.88828	-11.50555
214.84375	-7.98504	-2.11125	-9.66516	-8.68450
218.75000	-2.34365	-2.91709	-10.87430	-1.83415
222.65625	-7.17839	-0.90247	-13.29214	-0.62480
226.56250	-2.74563	-0.49959	3.63079	-1.43006
230.46875	-1.53645	0.30630	11.28633	0.58523
234.37500	-4.75952	0.30630	7.25674	3.40639
238.28125	-2.34156	-6.94650	2.82435	4.21285
242.18750	-0.72941	-7.75234	6.45049	0.99011
246.09375	1.68853	-2.11131	11.68828	0.99070
250.00000	6.92695	-0.90259	4.43536	5.82637
253.90625	8.94201	0.30615	-3.22035	5.82700
257.81250	-0.32497	0.70908	-8.05570	0.99251
261.71875	-4.35385	-2.11147	-5.63830	-0.21571
265.62500	2.89928	-2.91730	-2.81800	-0.61809
269.53125	3.70558	2.72374	0.00227	-2.63212
273.43750	-5.15834	4.73840	-3.22136	-1.01982
277.34375	-7.17259	2.72371	-15.71237	-0.21334
281.25000	-2.33695	4.73831	-15.71262	-1.01861
285.15625	0.48404	0.70900	-13.29536	-5.45013
289.06250	-4.75362	-7.75258	0.00116	-3.03193
292.96875	-4.75320	-2.91743	8.05969	3.41561
296.87500	0.08243	7.96163	9.26828	0.19284
300.78125	-3.94637	8.36456	13.70033	-4.64157
304.68750	-4.75175	6.34992	2.82106	-2.62614
308.59375	0.48673	-2.51460	9.67058	2.61258
312.50000	8.14282	-5.73810	16.52001	8.65710
316.40625	7.74023	0.70875	-0.80625	5.43426
320.31250	4.11428	2.32051	-7.65626	5.43487
324.21875	-1.92917	-8.55869	-3.62709	1.40622
328.12500	-13.21065	-11.37926	-5.23893	-4.23408
332.03125	-8.37511	-0.90311	-8.46256	-3.42763
335.93750	-13.20978	-3.72363	-8.46281	-11.08270
339.84375	-22.87976	-7.75291	8.86298	-20.75237
343.75000	-24.89399	-8.96176	22.96529	-25.58697
347.65625	-26.10232	-7.35009	17.32409	-17.93065
351.56250	-21.66961	-5.33548	6.84767	-8.25966
355.46875	-20.46035	-3.32088	4.42985	-9.46768
359.37500	-8.77492	-0.90332	-0.00255	-2.61728
363.28125	-1.52171	2.32008	-5.64372	1.00979
367.18750	-6.35639	1.51416	-2.42052	-3.01896
371.09375	-9.98223	-4.93265	-1.21201	-4.63006
375.00000	-7.96702	-8.15601	-2.42116	-5.03237
378.90625	-5.54905	-9.76784	4.02537	-8.65816
382.81250	-7.56325	-7.75322	7.65148	-9.86640
386.71875	-12.80086	-6.54441	10.47189	-8.65693
390.62500	0.09344	-1.70921	8.05432	-2.61226
394.53125	2.51152	2.32019	-2.82492	2.22355
398.43750	-7.15832	1.51425	-2.01930	-2.20805
402.34375	4.92996	5.54348	2.81567	5.04525
406.25000	2.91576	-5.73862	-5.64609	7.06047
410.15625	-7.15705	-17.42355	-10.48157	-3.41510
414.06250	0.09614	-1.70940	8.45591	1.01787
417.96875	-5.14150	1.91696	-0.00588	-0.99609
421.87500	-16.02021	-3.32116	-18.13783	-9.05397
425.78125	-8.76699	-1.30650	-16.12335	-7.44152
429.68750	-4.33425	-0.90353	0.79959	-7.03789
433.59375	-6.75137	-0.90351	24.16942	-4.61964
437.50000	-9.97434	-0.90350	22.15458	-6.63365
441.40625	-4.73588	1.51403	14.09570	-4.61841
445.31250	-1.91494	-7.35050	12.48370	-0.58857
449.21875	-9.16722	-14.20040	1.20136	-0.58800
453.12500	-10.77846	-4.53013	-12.09566	-1.79612
457.03125	-1.10766	7.15484	-6.85778	-1.79552
460.93750	-1.51041	4.73722	3.21530	-0.58634
464.84375	-1.51018	-3.32135	3.61801	1.02578
468.75000	5.33993	-6.94771	1.20019	1.02613
472.65625	10.57818	1.91679	-8.06743	0.22051
476.56250	10.17537	13.19891	0.39383	1.83262
480.46875	-1.50939	10.37844	12.07852	-0.98754
484.37500	-3.92663	7.55785	3.61669	-4.61356
488.28125	12.99669	3.93147	-7.66564	4.65425
492.18750	12.99702	-2.51548	-2.42781	14.32505
496.09375	-3.92568	-1.70965	13.28629	4.25226
500.00000	-8.35759	-4.12716	14.89773	-4.61166
503.90625	2.11901	-7.75353	16.91206	5.86500
507.81250	14.61024	-12.99163	6.83858	19.56516
511.71875	8.96962	-17.02094	-1.62317	21.17742
515.62500	11.38775	-11.78280	8.04694	25.20732
519.53125	21.86448	-13.79747	3.61437	32.46062
523.43750	23.47669	-15.40921	-1.22096	32.46116
527.34375	21.86550	-7.75359	6.83752	29.23824
531.25000	18.23960	-0.90373	25.37204	30.44761
535.15625	23.47818	2.31979	35.44488	31.25406
539.06250	28.71677	-4.12705	15.70087	25.21074
542.96875	24.28503	-10.17096	1.59808	19.97325
546.87500	23.07666	-4.93286	6.43303	28.43540
550.78125	21.86835	0.30523	4.82108	29.24187
554.68750	19.85416	-1.30643	5.22373	19.57220
558.59375	17.83993	-8.15622	8.84995	17.55812
562.50000	13.00518	-16.21495	10.05862	15.94695
566.40625	17.43789	-14.20027	11.26714	20.78271
570.31250	10.99146	1.91692	4.81991	25.21558
574.21875	6.55977	5.94613	-1.22431	19.57527
578.12500	15.02177	-2.51540	10.86332	19.97877
582.03125	16.23101	-1.70952	20.93631	20.78526
585.93750	10.59037	-0.90366	18.51854	16.35369
589.84375	8.17317	0.30506	15.69785	17.16014
593.75000	10.18827	1.11097	7.63908	20.38429
597.65625	11.39756	-0.09782	4.81836	16.75853
601.56250	13.41268	-6.14181	-3.64336	11.52101
605.46875	13.01019	-15.00631	-13.71689	8.29817
609.37500	9.38434	-6.14175	2.80288	10.31339
613.28125	13.01112	4.33452	12.06991	13.94031
617.18750	6.56470	-0.90357	4.41400	8.70283
621.09375	-5.11984	0.30519	4.81682	-3.78739
625.00000	-1.49302	3.93158	17.71032	-1.36921
628.90625	4.95436	4.73736	22.54518	9.10761
632.81250	2.53725	1.91681	9.24808	10.71990
636.71875	-0.28275	-8.96231	-1.22831	10.72051
640.62500	4.55290	-8.15636	11.66527	11.92989
644.53125	-0.28193	-1.30666	13.67974	7.49815
648.43750	-5.51961	-1.30671	6.42682	1.45482
652.34375	-2.29562	-6.94778	3.60608	1.45549
656.25000	-2.29503	-7.35065	3.20283	2.66497
660.15625	1.73474	5.54310	2.79968	5.88908
664.06250	6.97330	13.19880	-4.45326	9.91905
667.96875	3.75038	3.93146	-7.27409	3.47279
671.87500	-3.90479	2.31980	1.59010	-0.55585
675.78125	-2.29262	7.96081	7.23091	1.05654
679.68750	-5.51562	-2.51539	-6.46881	1.05708
683.59375	-3.50051	-4.93297	-10.09533	0.65472
687.50000	-3.50010	-2.11251	6.42466	-0.95640
691.40625	-15.18463	-4.53014	7.23039	-2.97047
695.31250	-8.33436	-3.72429	4.00687	-0.14932
699.21875	-5.11042	0.70797	4.40945	2.67178
703.12500	-3.09523	3.12559	10.45319	2.67237
707.03125	2.94935	5.14029	17.30292	3.07603
710.93750	-4.70575	1.11102	1.99128	-0.54960
714.84375	-5.10817	-6.14180	-8.08229	2.67448
718.75000	6.17434	-8.96241	-2.44143	15.56900
722.65625	8.18956	-3.32138	3.19936	16.77858
726.56250	12.21941	2.31968	-1.63609	5.49725
730.46875	23.50200	0.30497	-8.08325	15.57124
734.37500	32.36709	1.91675	-5.66586	37.33020
738.28125	49.69367	3.52849	-4.05438	47.00117
742.18750	59.36453	3.93145	-6.87513	49.82233
746.09375	60.57384	4.33438	-9.29291	53.85229
750.00000	72.66228	3.12557	-5.66663	65.13496
753.90625	75.08045	0.30505	1.58588	72.79120
757.81250	78.30450	-2.91831	2.39148	78.03006
761.71875	86.36378	-0.90372	-3.65266	83.67190
765.62500	89.58768	1.11089	-3.25002	86.09023
769.53125	93.61748	4.73721	-2.04155	86.49384
773.43750	93.61802	4.33426	-2.04177	89.71794
777.34375	99.66252	4.33423	-2.04196	98.18021
781.25000	103.28934	6.75173	4.80766	98.18092
785.15625	91.60496	2.31947	1.58397	86.49664
789.06250	75.08530	-10.57434	-14.13064	72.79758
792.96875	69.44485	-8.96262	-5.26645	68.76897
796.87500	77.50394	6.75166	11.25350	72.79891
800.78125	70.65461	5.54280	-3.25227	68.36736
804.68750	61.38766	-6.14217	-8.89354	67.15914
808.59375	63.40269	-8.15677	10.44679	67.15970
812.50000	56.95624	-4.12749	15.28160	55.87823
816.40625	47.28632	-0.09820	7.22262	49.43183
820.31250	41.24261	0.70766	6.01357	47.41756
824.21875	36.00475	-2.91856	1.98389	45.40327
828.12500	43.25771	-0.50091	5.20698	49.83580
832.03125	53.33111	4.33436	11.25069	52.25358
835.93750	43.25789	0.70803	10.04159	42.98640
839.84375	30.76711	-6.14168	12.05587	30.89871
843.75000	29.15541	-8.15623	6.81744	28.07836
847.65625	33.58760	-2.91814	12.86113	36.94291
851.56250	27.14070	-2.91813	17.29314	32.51078
855.46875	19.48504	-8.55915	15.27827	24.45230
859.37500	27.14078	-5.73858	15.68086	31.30222
863.28125	27.54370	-0.09749	10.84542	33.31698
867.18750	27.54376	5.54353	6.01001	32.51127
871.09375	31.57324	3.52890	2.78629	30.09394
875.00000	22.70884	-12.58829	-12.52547	22.84150
878.90625	18.67962	-12.99122	-27.43422	24.85643
882.81250	15.45632	0.30554	-19.37589	18.40979
886.71875	15.05361	4.73780	1.97909	15.99250
890.62500	17.06851	3.12606	26.15453	18.41039
894.53125	13.03947	1.51426	22.12486	19.61951
898.43750	10.21917	-0.90333	10.84247	16.79930
902.34375	11.02520	0.70838	14.46849	16.39673
906.25000	14.24898	2.32020	11.24480	18.41176
910.15625	13.84641	2.72311	5.20053	20.42683
914.06250	5.78796	-7.35022	6.00615	17.20374
917.96875	9.81748	-12.58835	8.82625	12.77190
921.87500	9.01198	-6.54437	3.58774	8.74306
925.78125	1.35671	-4.52973	-12.12677	6.32592
929.68750	12.23615	1.91719	-15.35040	10.35578
933.59375	6.99839	2.72309	-2.45690	9.14745
937.50000	2.56649	-0.09734	3.18377	10.35670
941.40625	4.58158	-1.70907	0.76582	9.14838
945.31250	2.16440	-0.09732	1.16840	5.52245
949.21875	0.15014	0.70854	-0.04063	2.29944
953.12500	-0.65533	-3.32073	-3.66721	1.49410
957.03125	-3.07249	-4.12653	-3.66747	-1.72878
960.93750	-5.89255	-5.33532	0.76454	-1.72822
964.84375	-1.45994	-2.11192	5.19646	1.09289
968.75000	6.59916	3.12617	2.37556	1.09344
972.65625	0.95855	5.94672	0.76345	0.69102
976.56250	-8.30841	4.73796	6.80712	-3.74069
980.46875	-1.05523	4.73800	10.83626	-0.51676
984.37500	-3.47239	-0.90294	9.22431	4.72188
988.28125	-11.53050	-8.55857	0.35961	-0.11261
992.18750	-9.11237	-8.96145	-4.07301	-3.33544
996.09375	-3.87380	-4.93209	1.97053	2.30611
1000.00000	2.57344	-1.30578	-1.65608	4.72422
1003.90625	1.76795	-0.50000	-1.65627	6.33644
1007.81250	-7.49909	1.91757	8.81974	4.72529
1011.71875	-9.51333	-2.91757	-0.44793	-6.15322
1015.62500	-6.69240	-13.39376	-10.52157	-6.55552
1019.53125	-9.10947	-10.17036	-5.68667	-4.13734
1023.43750	-7.90023	1.11174	-2.86646	-6.15144
1027.34375	-3.06469	5.94688	-0.85207	-5.74801
1031.25000	-6.69059	1.91760	-8.50797	-7.35915
1035.15625	-7.09298	-0.49994	-5.28487	-8.97033
1039.06250	-1.85439	2.72360	6.39980	-0.91116
1042.96875	-5.48028	-0.09681	7.20538	2.71580
1046.87500	-8.70329	-5.33485	3.98172	-8.16281
1050.78125	1.37037	1.91789	-1.65966	-5.34169
1054.68750	9.83227	4.33549	-1.65993	1.10575
1058.59375	-2.65792	0.70919	0.35444	-1.31117
1062.50000	-13.13346	-8.55814	-0.85465	-4.93676
1066.40625	-3.05964	-12.58741	-5.69002	-8.96522
1070.31250	3.38802	-3.72292	-10.52535	-4.93504
1074.21875	0.97120	-2.11118	-2.46685	-1.71067
1078.12500	0.16609	-2.91706	-0.45243	-2.51561
1082.03125	0.56980	-2.91708	-3.67610	-3.32057
1085.93750	6.61465	0.70930	3.17347	0.30678
1089.84375	5.80951	4.33570	8.41136	1.51653
1093.75000	2.58671	4.73853	2.77007	-0.09438
1097.65625	3.39318	3.52976	-4.48295	-1.70540
1101.56250	1.78204	-4.12582	-4.08029	-0.09288
1105.46875	4.60325	-4.12581	-0.45418	2.72838
1109.37500	7.82733	1.91812	4.38070	2.32626
1113.28125	5.41045	-2.91703	-0.85772	2.32711
1117.18750	5.41111	-6.94644	-8.91667	5.95429
1121.09375	12.66452	0.30628	-2.47005	6.35793
1125.00000	2.18887	-0.90252	2.76779	2.73227
1128.90625	-7.88381	-6.54359	-2.47046	-0.49054
1132.81250	-2.24215	-3.72306	-0.85889	-1.29555
1136.71875	-2.24154	-1.30542	-9.32069	-3.71233
1140.62500	0.17668	-2.51422	-10.12682	3.13820
1144.53125	3.40067	-3.32010	1.15491	8.37696
1148.43750	1.78939	-3.32013	0.75169	0.31897
1152.34375	2.59582	-6.54355	-2.47202	-0.88914
1156.25000	12.66960	-4.52881	-1.66643	7.57302
1160.15625	0.98505	-0.49941	5.98897	-0.08209
1164.06250	-34.06937	-5.73750	3.16816	-34.73365
1167.96875	-55.82726	-6.54334	1.15322	-58.90902
1171.87500	-77.18237	-4.93155	-5.29395	-84.29330
1175.78125	-103.37276	-2.51396	-17.38211	-107.66309
1179.68750	-117.87822	1.51534	-18.18829	-113.30389
1183.59375	-131.57788	3.12707	-17.38275	-124.58574
1187.50000	-135.20424	3.12709	-16.97999	-141.91170
1191.40625	-136.00996	3.12709	-16.57739	-146.74664
1195.31250	-125.93665	-1.70812	-14.96589	-129.82336
1199.21875	-109.41641	-7.75206	-11.74265	-115.31767
1203.12500	-106.19284	-9.36373	-10.53418	-107.66179
1207.03125	-95.71655	-6.94616	-8.92262	-99.60293
1210.93750	-82.82265	-4.93138	-7.31124	-94.76762
1214.84375	-81.61371	-3.72253	-17.38482	-85.90295
1218.75000	-83.22527	-0.09610	-22.22024	-83.48509
1222.65625	-73.55466	-0.49905	-13.75909	-77.84377
1226.56250	-70.33099	-11.78107	-22.22088	-73.81425
1230.46875	-67.10736	-8.96058	-16.17723	-68.57590
1234.37500	-60.25740	1.11271	-2.47778	-62.12879
1238.28125	-63.88350	1.11275	-0.46341	-56.89034
1242.18750	-50.58646	-2.11067	-7.71644	-53.26357
1246.09375	-36.08065	1.51571	-9.73141	-54.47203
1250.00000	-44.13887	5.94798	6.38551	-49.23350
1253.90625	-47.36197	4.73915	8.80286	-46.81542
1257.81250	-46.55584	2.32159	4.37028	-48.82962
1261.71875	-39.70575	4.33621	11.21971	-42.38239
1265.62500	-37.28778	3.12740	5.17539	-38.35249
1269.53125	-37.69034	0.30689	-1.67473	-39.15786
1273.43750	-33.66069	1.51571	-1.27204	-37.94858
1277.34375	-31.64578	5.94797	4.77165	-32.71001
1281.25000	-27.21315	3.53043	4.77138	-28.27730
1285.15625	-21.16886	-1.70764	1.14469	-20.62112
1289.06250	-18.75090	0.30699	-2.07900	-17.39721
1292.96875	-18.34751	5.94803	-10.94369	-23.03773
1296.87500	-20.76476	7.55972	-7.31767	-19.41088
1300.78125	-23.98781	-2.91643	0.74059	-19.00740
1304.68750	-17.94336	-2.11063	10.00765	-21.82737
1308.59375	-19.15168	1.91862	3.56039	-15.78291
1312.50000	-25.59803	0.70986	-0.87206	-16.99119
1316.40625	-13.10657	8.36569	5.17169	-18.19941
1320.31250	-5.85336	10.38046	10.00657	-11.34905
1324.21875	-13.10561	7.15702	10.81219	-12.15437
1328.12500	-11.49348	3.53060	4.36509	-10.94489
1332.03125	-8.67251	-1.70757	3.15607	-10.94423
1335.93750	-2.22518	4.73926	-6.51448	-10.54069
1339.84375	-2.22467	9.57448	-8.93251	-7.71956
1343.75000	-4.64172	-0.09579	-2.88889	-10.53935
1347.65625	-5.44703	-2.51329	4.76657	-7.71820
1351.56250	-3.83471	7.56005	18.06298	-2.47943
1355.46875	-0.61073	8.76888	14.43627	-3.28462
1359.37500	-7.05702	1.91911	0.73641	-6.91036
1363.28125	-4.63887	2.32206	-8.53125	-9.32723
1367.18750	-0.60893	1.91909	-10.54618	-12.95301
1371.09375	-9.47281	1.11330	3.15331	-15.36998
1375.00000	-12.29268	2.72505	-7.72607	-16.98103
1378.90625	-4.63643	-1.70713	-23.44071	-11.74227
1382.81250	-2.21830	2.72515	-5.71217	-4.08596
1386.71875	-6.24700	10.78376	13.22520	-2.47360
1390.62500	1.81217	11.18682	3.95750	-2.87590
1394.53125	15.51236	10.38111	-5.71309	8.80968
1398.43750	9.87183	5.54600	9.19504	7.19851
1402.34375	-11.88591	-0.90074	13.22409	-9.72407
1406.25000	-23.57023	-3.72120	16.44710	-14.55858
1410.15625	-30.41960	-3.72114	18.05846	-22.21370
1414.06250	-29.61321	-5.33275	8.79071	-21.00431
1417.96875	-30.01559	-11.37668	6.77569	-19.79484
1421.87500	-27.19458	-9.76490	4.76062	-23.42056
1425.78125	-11.47978	-1.30327	5.56614	-13.34668
1429.68750	-11.47920	-0.90031	-2.08980	-4.88443
1433.59375	-15.50797	-8.95892	-9.74570	-5.68966
1437.50000	-10.67228	-16.21162	5.56536	-8.10659
1441.40625	-11.07452	-6.54117	17.65285	-5.68830
1445.31250	-10.26795	1.92047	20.47304	-5.68761
1449.21875	-11.47607	-1.70583	14.83170	-6.49273
1453.12500	-10.26671	-1.30279	16.44308	-0.85109
1457.03125	-9.46047	-4.92909	13.62219	-3.26806
1460.93750	-4.62476	-2.51144	-0.88372	-2.46153
1464.84375	-0.19173	2.32384	-5.31639	-0.44604
1468.75000	-3.81718	0.71208	2.33899	-6.48902
1472.65625	-12.27784	0.71205	5.15919	-9.30849
1476.56250	-12.27692	2.72668	-8.54065	-8.09872
1480.46875	-6.23193	0.71206	-15.39065	-7.29165
1484.37500	-5.42498	1.11508	-0.48239	-7.29042
1488.28125	-4.21501	5.54728	17.24640	-3.66278
1492.18750	-8.24304	-2.10840	20.06670	-0.84096
1496.09375	-7.43589	-9.36117	9.99321	-6.88360
1500.00000	-8.64347	-6.94364	4.35185	-8.49405
1503.90625	-9.85113	-3.31724	14.02185	-7.28405
1507.81250	-4.61204	4.33846	19.66245	-7.68582
1511.71875	-7.43150	7.96491	12.40943	-4.05828
1515.62500	-8.23632	7.96500	1.93317	-3.25121
1519.53125	-3.80311	0.30928	-9.34901	-3.25012
1523.43750	0.22703	-2.10836	-22.24302	-2.84635
1527.34375	-2.99562	3.12972	-22.64635	-5.26297
1531.25000	-8.63585	3.12971	-2.09724	-1.23279
1535.15625	-5.00861	-1.30252	3.14047	1.99155
1539.06250	-0.97845	-2.91419	-7.73899	-3.24561
1542.96875	4.26045	-2.10836	-3.71002	-0.02125
1546.87500	10.70811	-2.51131	7.97469	3.60594
1550.78125	0.23262	-1.70544	9.18321	-2.84016
1554.68750	-5.81067	2.72687	5.95956	-1.22764
1558.59375	0.23388	3.93567	0.31819	2.39940
1562.50000	4.66675	8.36790	-0.89095	0.38550
1566.40625	-0.97365	6.75612	1.92920	-3.24007
1570.31250	0.23576	0.71211	7.97284	-2.83646
1574.21875	0.23636	0.30916	14.01650	-5.65626
1578.12500	-4.19530	-6.13764	11.19578	-8.47609
1582.03125	-0.16543	-6.54054	2.33104	-4.84902
1585.93750	1.04391	-0.89947	8.77757	6.03088
1589.84375	-1.77609	-5.73465	10.38890	3.61400
1593.75000	-3.38732	-2.91413	-14.19015	-2.42929
1597.65625	0.64244	7.56200	-24.66662	6.43584
1601.56250	1.85173	6.75621	-10.56442	4.82489
1605.46875	0.24059	-2.10825	7.56713	2.00506
1609.37500	1.44993	-5.73469	24.48987	3.21446
1613.28125	-4.19063	-2.51122	27.71304	2.00626
1617.18750	-7.81648	-4.12288	16.43063	0.79805
1621.09375	-4.18964	-7.74927	8.37165	-4.03651
1625.00000	-7.00965	0.30932	0.71565	-1.21545
1628.90625	-7.00921	1.51812	-4.12003	-2.82658
1632.81250	-6.20288	-4.12284	4.34107	-6.85523
1636.71875	-0.96427	1.51816	0.71456	-3.22820
1640.62500	-3.78433	5.14458	2.72909	-0.40708
1644.53125	-7.41023	1.92118	2.32590	-2.82406
1648.43750	-2.57450	1.51828	-5.33003	-10.47909
1652.34375	2.26111	-1.70516	-3.71857	-6.44920
1656.25000	2.66448	-11.37540	-4.92778	1.60994
1660.15625	-4.18481	-8.55486	0.30996	-2.01587
1664.06250	-5.79593	2.32439	0.71258	-1.20941
1667.96875	-3.37789	5.54779	-2.10826	2.82043
1671.87500	-2.97458	4.33901	-8.15250	1.61212
1675.78125	-0.15368	-3.71966	-1.70593	-4.02831
1679.68750	9.51707	-2.91378	14.81400	6.44843
1683.59375	7.09987	-6.13725	18.84316	12.49298
1687.50000	-18.28428	-8.15189	20.05177	-6.04125
1691.40625	-21.91032	-3.71977	18.03682	-10.47295
1695.31250	-13.85127	-6.94323	7.96319	0.40670
1699.21875	-18.28295	-8.95791	5.14226	5.64535
1703.12500	-9.82095	-11.37552	17.22994	5.64588
1707.03125	-9.41753	-14.19606	18.43844	0.40837
1710.93750	-21.10202	-15.40479	13.20002	-0.79982
1714.84375	-15.05745	-8.95791	12.79681	3.63303
1718.75000	-13.04213	-2.91389	13.60241	0.41020
1722.65625	-15.86213	-2.91388	16.42261	-1.20087
1726.56250	-6.19120	-6.94325	10.37842	1.21742
1730.46875	-0.54962	-8.55495	2.72255	1.62100
1734.37500	-3.36957	-12.58426	5.54276	8.87440
1738.28125	-1.35431	-15.00180	9.97473	13.71023
1742.18750	-0.95083	-10.56946	14.40666	6.45817
1746.09375	0.66137	-6.54018	20.45032	6.86177
1750.00000	2.27365	-10.97247	21.65873	8.87706
1753.90625	0.25952	-9.76367	6.75002	6.86305
1757.81250	-2.96347	-0.49622	-0.90596	3.23733
1761.71875	0.26047	-0.09316	5.94365	4.84971
1765.62500	5.49915	-3.31649	9.97277	11.70016
1769.53125	9.93189	-8.55451	7.95787	4.04508
1773.43750	12.34992	-8.95744	4.33122	1.22513
1777.34375	4.69473	-2.10759	2.31635	5.25499
1781.25000	-3.76631	1.92172	-0.90737	3.24088
1785.15625	-5.37756	1.51875	3.92757	0.01801
1789.06250	-8.19753	-7.34574	2.71840	-7.23413
1792.96875	-11.01752	-12.98670	-8.56412	-11.26279
1796.87500	-9.80825	-7.34558	-2.11765	-9.24744
1800.78125	-2.95796	-3.71920	10.77581	-3.20290
1804.68750	5.50412	-4.12208	11.17842	1.22997
1808.59375	-0.13635	0.71310	-5.34203	0.42465
1812.50000	1.87885	8.36888	-10.17740	0.82820
1816.40625	4.29696	6.75715	1.10431	2.03760
1820.31250	-8.19340	-0.89856	4.32750	-2.39407
1824.21875	-8.59582	-13.38937	2.31257	-4.00515
1828.12500	-8.19235	-17.82161	3.11812	-2.79576
1832.03125	-11.41529	-2.10726	-3.32907	-5.61567
1835.93750	-6.57969	10.78652	-2.52359	-8.43558
1839.84375	-1.74401	8.77187	1.50533	-6.01742
1843.75000	-2.14644	1.51917	-1.31550	-3.19630
1847.65625	1.48048	1.11633	0.29577	-4.00144
1851.56250	0.27214	-3.31590	-5.34569	-3.19505
1855.46875	4.70478	-5.73350	-9.37526	8.08748
1859.37500	13.56968	4.33982	1.90655	6.87914
1863.28125	6.31740	4.33994	7.95029	0.43276
1867.18750	-6.57591	-9.76256	6.74117	-2.79016
1871.09375	-8.18713	-3.71856	10.77008	-10.84824
1875.00000	-5.36626	3.13131	13.59019	-13.26532
1878.90625	-12.21569	-5.73313	7.14295	-10.44421
1882.81250	-8.58890	-4.52426	-1.72189	-3.19090
1886.71875	4.30529	0.71389	0.69537	12.92680
1890.62500	5.11146	3.53438	0.69515	7.68914
1894.53125	8.73822	6.35494	-10.99007	-10.03927
1898.43750	4.30636	5.95200	-17.03434	-12.85923
1902.34375	-0.12550	7.16079	-10.18499	-9.63525
1906.25000	1.08375	5.14619	-5.35019	-8.82882
1910.15625	-10.19790	-5.32997	-9.37978	-16.48399
1914.06250	-7.77987	-4.92707	-5.75370	-16.08053
1917.96875	5.11437	-0.49490	6.73679	-12.45354
1921.87500	3.50307	-2.91247	-1.32228	-3.99148
1925.78125	-1.73460	-4.92713	-3.74026	3.66464
1929.68750	-6.16631	-2.10650	-0.92005	-1.97583
1933.59375	-7.37465	5.54925	-1.32329	-3.18408
1937.50000	-3.74779	3.53462	1.09395	-2.37762
1941.40625	-0.52381	8.36986	3.91426	-5.19747
1945.31250	4.31184	14.41388	13.58413	-0.76465
1949.21875	-2.53754	4.74356	-8.57747	0.04175
1953.12500	-4.95472	-2.91202	-19.85987	0.44518
1957.03125	-0.92495	1.11732	3.10694	-1.56888
1960.93750	-0.92447	4.74369	4.31541	-4.38884
1964.84375	3.50829	5.54957	1.49461	-0.35892
1968.75000	1.89705	7.16137	-5.75847	1.25347
1972.65625	-8.98156	4.34094	-5.35597	-1.96942
1976.56250	-10.99573	-6.13521	-2.13289	-6.80407
1980.46875	-6.16012	-5.73228	0.68724	-7.20642
1984.37500	-4.54796	-1.70294	7.13366	-5.99703
1988.28125	-4.14451	-3.71756	1.08940	-3.17604
1992.18750	-2.53230	-2.91164	-4.95480	-1.96675
1996.09375	0.69149	-0.89698	-7.37271	1.25728
2000.00000	2.70661	-4.52330	-7.37306	2.06363
2003.90625	3.11005	-1.70266	-7.37339	2.06418
2007.81250	9.55748	10.78837	-2.94147	2.06479
2011.71875	2.70810	7.56502	12.36958	-2.76986
2015.62500	-2.52953	1.11824	7.13118	-0.35176
2019.53125	1.09720	3.53582	-0.92775	-1.15704
2023.43750	-7.36391	-0.49349	10.35390	-6.79754
2027.34375	-5.34888	0.71534	7.93605	-1.15601
2031.25000	5.12776	0.71539	-4.15219	1.26209
2035.15625	4.72536	-2.91089	-9.39070	2.06847
2039.06250	3.51704	2.32731	-8.98814	1.26319
2042.96875	-3.73522	10.38599	1.08479	-3.97438
2046.87500	-4.13766	10.78889	7.12846	-5.58560
2050.78125	-3.33130	1.92446	3.09893	-8.00260
2054.68750	-0.91319	-1.29890	-3.75113	-4.77857
2058.59375	0.29610	8.37152	-1.73686	-1.55461
2062.50000	-0.91221	9.17749	-5.36365	-1.95692
2066.40625	2.31186	2.32783	-18.25779	0.86430
2070.31250	2.71537	9.98358	-13.02008	3.68550
2074.21875	-0.50739	13.20710	5.91740	1.67153
2078.12500	2.71666	5.55141	7.52892	-0.34241
2082.03125	5.53790	0.31334	2.29051	0.46417
2085.93750	1.10637	-3.71594	5.11058	-2.75855
2089.84375	1.91289	3.93973	15.18348	-2.35481
2093.75000	1.10764	11.99830	16.79479	-7.59217
2097.65625	-7.75613	9.58081	0.27422	-14.03836
2101.56250	-9.36727	3.53690	-4.15847	-9.20244
2105.46875	-4.53152	-2.10401	-3.75582	-8.79894
2109.37500	-2.91915	-4.52151	-6.17367	-7.58948
2113.28125	-0.90390	-3.31268	0.67594	0.06684
2117.18750	-1.70911	0.31368	-2.14486	6.51433
2121.09375	-4.52893	1.11964	-6.98029	4.09757
2125.00000	1.11275	2.73139	2.28683	-1.54273
2128.90625	3.12800	4.34314	5.50996	2.48727
2132.81250	-0.09493	3.53727	2.68909	2.48793
2136.71875	-0.49729	-3.31248	1.47996	-2.74950
2140.62500	5.14430	-0.49196	-1.34084	-1.54005
2144.53125	3.53317	2.32867	4.29979	-0.73356
2148.43750	2.72782	-2.10348	6.71705	-3.55341
2152.34375	7.56349	-0.49171	1.47860	-1.53819
2156.25000	3.13171	2.32890	-2.55102	4.10338
2160.15625	-0.09123	-0.08863	-5.77478	13.77429
2164.06250	3.13270	1.52311	-13.43084	12.56620
2167.96875	9.58011	9.58170	-2.55202	4.10526
2171.87500	9.17770	10.79041	3.89451	4.10580
2175.78125	7.96940	3.13483	7.11752	5.71798
2179.68750	4.34358	-3.71493	18.39937	1.28633
2183.59375	2.73238	-2.50608	11.95214	4.10735
2187.50000	6.76229	-0.49142	4.29612	6.92840
2191.40625	14.41844	6.76138	0.66947	2.49669
2195.31250	12.80720	0.71751	-6.18067	6.92950
2199.21875	10.39010	-7.74394	-0.13704	6.93009
2203.12500	5.95835	-0.89404	-2.55491	1.69261
2207.03125	-2.09977	2.32944	-17.06074	-1.93317
2210.93750	-3.30810	4.34405	-4.57030	-1.12673
2214.84375	-6.12812	0.31477	3.89092	-1.93199
2218.75000	-2.90422	-3.31149	-0.94461	0.88906
2222.65625	1.12554	-0.89383	-0.54204	5.72483
2226.56250	9.99051	2.73262	0.26345	9.75473
2230.46875	11.60274	-0.08781	0.66606	12.17292
2234.37500	6.36505	-1.69954	-0.54317	10.56174
2238.28125	0.72451	-0.49070	4.69453	2.50363
2242.18750	-1.69248	0.71817	-0.14096	0.08672
2246.09375	1.53150	1.92701	-11.42329	5.32542
2250.00000	2.33782	-2.10230	1.06724	1.29665
2253.90625	-1.28810	-8.95215	10.33435	-1.12041
2257.81250	-2.09336	-5.32567	9.93121	6.53584
2261.71875	1.53365	2.33016	5.09566	7.74525
2265.62500	-4.10690	0.31553	2.67760	-3.13326
2269.53125	-7.32992	0.31552	0.66255	-7.96797
2273.43750	-4.91185	2.73308	-9.81389	-4.34109
2277.34375	2.34140	-0.49036	-15.05229	0.89752
2281.25000	6.37123	-2.90780	-8.20281	5.33030
2285.15625	10.80401	1.92745	-7.80018	10.97185
2289.06250	18.46010	3.53919	-3.36823	15.00166
2292.96875	9.59614	-2.10176	14.76336	8.55531
2296.87500	-1.68530	-7.74266	16.37462	-1.11439
2300.78125	-7.72864	0.31609	4.68905	-1.51675
2304.68750	-6.51939	3.53970	7.91197	6.54237
2308.59375	-0.07193	-9.75685	-4.57933	10.97513
2312.50000	10.40480	-4.11569	-7.80324	6.94633
2316.40625	10.00237	4.34596	1.06076	-0.70886
2320.31250	2.75021	4.34614	-14.25096	-5.14049
2324.21875	4.76560	13.61368	-12.23675	-7.96042
2328.12500	0.73689	16.43431	-4.17864	-15.21261
2332.03125	-4.50064	14.01682	-11.02897	-19.64427
2335.93750	-2.88829	13.61402	-17.07336	-14.00274
2339.84375	-4.49942	14.42004	-19.49134	-15.21092
2343.75000	-2.48417	13.21135	-19.89473	-14.00152
2347.65625	1.94847	2.33233	-18.68637	-13.19513
2351.56250	-3.28915	3.94416	-17.07496	-15.61212
2355.46875	-4.49741	14.42050	-21.10466	-5.94125
2359.37500	-0.46742	3.54148	-17.07567	-4.32887
2363.28125	-0.46674	1.12407	-21.10530	-4.32821
2367.18750	5.98075	9.58570	-28.76141	-3.11880
2371.09375	6.38433	7.16817	-10.63007	-10.37087
2375.00000	-2.47950	1.93007	5.48668	-6.74385
2378.90625	-4.09064	1.52715	0.65103	0.91254
2382.81250	1.95402	1.93019	-5.79627	-4.32482
2386.71875	1.14882	-0.08432	-2.57308	-9.56219
2390.62500	-4.89458	1.52741	2.26173	-9.96451
2394.53125	-9.32618	2.33335	-2.17085	-11.57550
2398.43750	-6.10203	1.52747	-22.72074	-3.51619
2402.34375	5.18065	5.95973	-23.52700	7.36361
2406.25000	4.37555	-2.09878	-1.36624	2.52913
2410.15625	-7.71155	-12.57488	0.24502	-7.54333
2414.06250	-10.93429	-4.91911	-10.63455	-9.96013
2417.96875	-10.12774	1.52781	-12.24661	-11.97401
2421.87500	-1.26260	3.54251	3.46727	-9.95861
2425.78125	5.58799	3.54262	1.04916	-4.71977
2429.68750	-0.45524	1.12519	-8.62166	-1.09261
2433.59375	-1.26037	3.13988	-0.16064	0.92285
2437.50000	1.56090	3.13995	2.25651	0.11776
2441.40625	1.96437	-3.30681	-10.23479	-1.49337
2445.31250	5.18834	-6.12712	-15.87621	1.73069
2449.21875	-0.45210	-4.11229	0.24065	3.74592
2453.12500	-4.07799	-0.48588	4.67266	2.13481
2457.03125	-0.45107	2.73767	9.91039	-1.08804
2460.93750	-0.04764	-1.69452	5.07475	0.52424
2464.84375	-4.88233	-2.09738	-11.44580	0.92776
2468.75000	-6.49361	4.75245	-12.25207	-0.28047
2472.65625	-6.89598	0.32024	-8.62610	-1.48871
2476.56250	-4.47791	-5.72366	-10.23823	-1.89107
2480.46875	4.38712	5.96143	-0.97119	2.13881
2484.37500	7.20814	9.58791	11.51934	2.54228
2488.28125	2.37349	3.14103	3.46035	0.93110
2492.18750	-1.65536	0.32053	-7.01632	-0.27722
2496.09375	0.35973	-6.12629	-1.37570	-5.91776
2500.00000	-5.28091	-11.76734	4.26488	-11.55832
2503.90625	-6.89218	-10.96151	-0.97355	-8.33444
2507.81250	-4.07124	-6.93216	-11.85294	0.93344
2511.71875	5.19667	-2.49978	-15.88254	4.15746
2515.62500	14.86758	-1.29073	-5.40667	5.76968
2519.53125	16.47973	-2.49934	4.66634	9.39653
2523.43750	0.76584	-1.29047	-2.98969	0.53246
2527.34375	-10.91869	-0.88749	-5.40766	-8.33154
2531.25000	-10.51530	1.12730	7.08286	-7.92813
2535.15625	-11.72361	-0.08135	-0.97611	-5.91295
2539.06250	-13.33493	0.32160	2.64982	-5.91254
2542.96875	-13.33459	-1.69301	5.46997	-6.71805
2546.87500	-12.52827	-6.93102	1.03741	-8.73220
2550.78125	0.76897	-0.48405	-7.82739	-3.89647
2554.68750	18.09554	1.93364	-23.13918	8.19188
2558.59375	8.02282	-4.51314	-23.54255	2.55137
2562.50000	-2.45261	3.14266	-9.44055	-5.10359
2566.40625	-3.25785	6.36620	12.31738	-5.90883
2570.31250	-1.64547	3.94871	15.94357	-6.31118
2574.21875	2.78739	5.56053	4.66115	0.13627
2578.12500	1.57927	1.12846	4.25782	3.36026
2582.03125	-11.71690	-8.13877	4.25744	-3.48904
2585.93750	-3.65764	-12.97389	-9.44263	0.13789
2589.84375	12.46009	-7.73570	-17.09862	9.80869
2593.75000	10.04304	4.35239	-5.81699	13.83851
2597.65625	-2.44715	4.35256	-9.04078	9.00387
2601.56250	-2.84958	0.32333	-5.81771	1.75160
2605.46875	6.41829	-4.10881	1.03168	6.18426
2609.37500	-0.02815	-2.90001	3.44883	6.99055
2613.28125	-2.44524	5.15862	6.67186	1.75285
2617.18750	2.79324	8.38220	7.88027	5.78257
2621.09375	1.18198	7.97938	8.28283	10.21526
2625.00000	7.22634	3.54723	19.96748	12.63326
2628.90625	10.85318	-3.70540	-1.79113	11.82776
2632.81250	2.79495	-2.09365	-38.05522	2.15791
2636.71875	3.60130	5.56198	-16.70039	-1.87088
2640.62500	3.19885	-0.07893	14.72778	-2.67631
2644.53125	1.99057	-6.12273	20.77137	-1.06409
2648.43750	5.61751	-3.30205	19.15939	-1.86948
2652.34375	4.40921	0.32451	7.07120	0.95148
2656.25000	8.84196	2.74227	-14.68736	6.59295
2660.15625	4.81318	1.53357	-12.27015	2.56413
2664.06250	-0.02145	-0.07809	4.24960	2.16174
2667.96875	-2.84129	1.53371	0.62289	2.56523
2671.87500	-6.46709	4.35445	-4.61554	-0.25471
2675.78125	-6.06363	-1.28642	5.05434	-0.25423
2679.68750	-16.13646	-14.18009	7.06856	-2.67134
2683.59375	-10.89793	-12.56825	11.90335	-0.25329
2687.50000	-5.65942	-6.52419	7.47056	-0.25293
2691.40625	-8.88246	-0.88300	3.03787	-0.25254
2695.31250	-6.06160	2.74349	-3.40933	-1.05803
2699.21875	-3.64360	2.34067	-3.40978	-1.86351
2703.12500	1.19199	7.98172	-13.88643	7.80719
2707.03125	-0.41930	1.13202	-23.96015	5.39002
2710.93750	1.59582	-12.56749	4.24457	-3.47409
2714.84375	4.81976	-4.91161	16.73503	-3.87656
2718.75000	-1.62662	3.14717	16.33175	0.55614
2722.65625	-0.82023	-1.28486	20.76361	-1.45799
2726.56250	2.40369	0.32699	15.52511	-1.45753
2730.46875	4.82171	5.96808	-2.60700	1.76634
2734.37500	-3.63943	-3.70224	-10.26305	-3.47136
2738.28125	-4.84782	-11.76080	0.61554	-0.65037
2742.18750	1.19661	-4.10510	3.03252	1.36484
2746.09375	0.79418	4.75937	-7.44409	-5.88743
2750.00000	-0.01122	6.37123	0.21127	-4.67816
2753.90625	-0.01083	1.13322	-2.20673	4.18671
2757.81250	1.19837	-6.92537	-18.72723	7.00755
2761.71875	5.63110	-13.37212	-6.63953	0.15818
2765.62500	2.40810	-8.53696	12.29780	-4.67662
2769.53125	-6.05299	-4.10462	15.52094	0.15900
2773.43750	6.43834	-0.47816	14.31176	12.65033
2777.34375	14.09455	5.96895	2.62648	8.21854
2781.25000	-1.61926	5.16319	-3.41780	-4.67479
2785.15625	-0.41003	8.38657	-1.80658	-3.46554
2789.06250	3.61967	10.40126	-10.26858	-4.67393
2792.96875	-4.84142	6.37205	-8.65737	-15.14966
2796.87500	-3.63212	1.13407	-4.62866	-15.55196
2800.78125	-3.63164	3.14877	-7.85256	-11.92510
2804.68750	-5.24295	9.19278	-15.10558	-14.34214
2808.59375	1.60742	10.40171	-22.76145	-9.90956
2812.50000	-2.42132	3.95496	-15.10604	-7.08852
2816.40625	-3.22673	0.32867	2.21967	-6.68509
2820.31250	-0.00275	0.32874	-1.00406	-9.90794
2824.21875	1.20661	2.74632	-14.30120	-7.89276
2828.12500	11.28058	7.58151	-11.48109	3.79291
2832.03125	8.05803	1.94071	-13.89893	2.18211
2835.93750	6.85015	2.34384	-18.33152	1.37716
2839.84375	10.88024	1.53805	-9.06465	-2.24848
2843.75000	7.25466	1.13528	-0.20067	-5.47109
2847.65625	12.49362	6.37347	8.66357	-1.84380
2851.56250	13.30024	2.34419	3.42518	2.18633
2855.46875	9.27167	-0.07343	-8.26020	4.20182
2859.37500	12.49581	-2.89393	-13.09574	-1.84138
2863.28125	9.67596	-12.56431	-20.75178	-5.06408
2867.18750	6.45323	-4.50570	-19.14036	-3.45161
2871.09375	-1.20168	7.98524	-2.21770	0.98147
2875.00000	0.41087	10.80584	10.27273	2.99695
2878.90625	6.45559	6.77663	-6.24783	4.20653
2882.81250	7.26214	-2.49070	-8.66576	8.23654
2886.71875	12.90384	-1.68478	1.00427	9.44605
2890.62500	9.68109	6.77685	-4.63699	5.82033
2894.53125	6.05537	10.40331	7.85355	-3.44644
2898.43750	12.10006	7.17995	21.15001	-2.23697
2902.34375	7.26549	-9.74305	7.45006	0.98713
2906.25000	-2.80723	-11.35470	-12.69696	0.58482
2910.15625	2.02850	-8.13112	-12.29440	-0.22040
2914.06250	3.64089	-7.32524	-1.01261	1.39201
2917.96875	-1.99951	-0.87826	14.70128	4.61600
2921.87500	2.03040	0.73359	8.65688	2.60193
2925.78125	14.52179	6.37473	-8.66944	6.22885
2929.68750	15.73105	9.19520	-3.43162	6.22931
2933.59375	4.85247	4.76305	-0.20852	0.58878
2937.50000	2.43543	-0.07192	-7.86444	-0.21647
2941.40625	0.42132	0.33111	-7.05899	0.59004
2945.31250	8.88346	2.34599	-5.44774	2.60532
2949.21875	6.86936	1.13732	-5.04513	2.60586
2953.12500	0.82583	2.74910	8.65421	3.81508
2957.03125	4.04970	2.34624	10.66850	4.62130
2960.93750	-1.59091	-3.69775	-7.86664	-1.82515
2964.84375	-0.78455	1.13746	-5.04648	0.59285
2968.75000	-0.78408	6.37555	-6.65860	4.62255
2972.65625	0.42519	3.15213	-19.14999	1.80246
2976.56250	4.45500	4.36109	-6.65951	4.22055
2980.46875	6.87304	3.15246	-8.67456	5.83272
2984.37500	2.84406	-1.27966	-27.20975	-0.61372
2988.28125	1.23276	3.15273	-19.55443	-5.85124
2992.18750	-1.58725	4.76455	-11.09327	-4.23903
2996.09375	-2.79555	-0.47349	-7.06437	-3.43268
