 	TP9	AF7	AF8	TP10	
-1000.00000	2.96644	-2.20007	-5.15163	13.45906
-996.09375	1.75737	-0.18548	0.48953	8.62446
-992.18750	-1.46635	0.21742	1.69849	-1.04533
-988.28125	-1.06358	0.21733	-12.80680	7.81985
-984.37500	2.56274	-0.99155	-8.77741	9.83529
-980.46875	8.20374	-3.40923	1.29594	2.58337
-976.56250	15.05351	4.64936	-3.94203	3.79292
-972.65625	4.57731	3.84341	-2.33021	1.37607
-968.75000	1.75677	-0.99179	-0.71846	2.98853
-964.84375	19.08276	1.02280	3.31095	15.07724
-960.93750	14.65048	0.61976	2.50515	9.03406
-957.03125	4.57717	1.02265	-3.13577	7.02016
-953.12500	6.99471	5.85775	-12.00014	13.87069
-949.21875	13.44151	1.82838	-9.58249	14.27437
-945.31250	2.56226	-0.58925	-5.15032	7.42520
-941.40625	-5.49646	-4.21571	0.08779	6.21702
-937.50000	4.17374	-5.02156	7.74354	4.60589
-933.59375	6.99403	-5.42458	3.71429	0.98004
-929.68750	6.18792	-2.60403	1.29675	7.42748
-925.78125	2.56122	3.43991	2.90862	10.24853
-921.87500	2.96386	-0.99235	11.77324	9.04028
-917.96875	4.57522	1.02222	9.75879	10.24951
-914.06250	5.38073	5.45437	-4.34367	-0.62909
-910.15625	10.61848	2.63383	-4.74660	4.20647
-906.25000	6.18589	2.63381	-0.71719	12.26541
-902.34375	9.40889	8.27477	-6.76093	11.45995
-898.43750	11.42323	5.45426	-4.74608	14.28095
-894.53125	9.40812	0.21611	-0.71666	9.84908
-890.62500	5.37835	-3.00745	0.08926	11.05821
-886.71875	7.79550	-4.61918	-1.92532	11.05852
-882.81250	8.60093	-0.58986	-7.16333	2.59723
-878.90625	2.55654	-0.18695	-3.13389	8.64147
-875.00000	7.79415	-3.41043	-13.20710	7.43294
-871.09375	10.21126	0.21591	-14.01288	-1.02840
-867.18750	1.34628	-2.60460	-5.55137	3.00112
-863.28125	9.80731	-6.63398	-11.19243	9.44824
-859.37500	12.62733	1.42471	-4.74550	6.22500
-855.46875	3.76246	4.24525	0.49263	3.40475
-851.56250	9.00009	6.25989	4.52201	5.82261
-847.65625	10.61129	7.06570	5.73089	6.62876
-843.75000	-2.68590	-0.18712	0.49281	5.01726
-839.84375	0.93998	-3.41061	2.10459	10.65850
-835.93750	3.75992	-1.39610	6.13407	9.85285
-832.03125	6.98281	2.23017	-1.11852	8.64432
-828.12500	15.44382	2.63304	-8.37119	9.04755
-824.21875	2.14647	-1.79928	0.49332	7.03314
-820.31250	1.34008	-3.00809	6.13441	15.89781
-816.40625	10.60693	-3.81398	5.73158	19.12151
-812.50000	3.75660	-7.44050	5.32869	12.27195
-808.59375	1.74139	-1.79959	-5.95328	8.64591
-804.68750	1.33788	-0.59089	-9.57952	5.01979
-800.78125	0.53146	4.24424	-2.72957	2.19952
-796.87500	6.17191	6.66180	8.55263	6.22902
-792.96875	9.79762	2.22947	10.56735	5.42335
-789.06250	4.15596	2.63237	3.71760	0.99121
-785.15625	0.12598	-3.41172	4.12065	0.58844
-781.25000	1.33419	-3.00887	-1.11739	-3.44070
-777.34375	-2.29282	6.66142	1.30023	-0.62006
-773.43750	-8.33743	2.63209	9.35899	2.60353
-769.53125	0.92927	2.63204	-2.72883	-2.23152
-765.62500	2.13739	0.61727	-8.36980	5.02138
-761.71875	-6.72766	-8.65021	-1.11699	3.40983
-757.81250	-0.28142	-8.24736	-2.32565	-2.63390
-753.90625	2.53850	-2.60639	0.49501	-1.02195
-750.00000	1.32911	3.84037	7.74788	-3.03643
-746.09375	-9.95359	2.22860	9.76259	-7.06560
-742.18750	-4.31314	-4.62128	0.89821	2.20194
-738.28125	6.96831	-1.80086	-7.16030	9.05190
-734.37500	6.16183	0.61660	-1.11615	3.00802
-730.46875	-1.09159	-0.99520	3.71912	-3.03574
-726.56250	1.72832	0.21350	-3.53350	-8.67659
-722.65625	4.95118	-0.59248	-7.15975	-7.87057
-718.75000	-3.10806	-3.41310	-5.54789	0.99403
-714.84375	5.35280	0.61610	1.70487	9.45572
-710.93750	3.74052	0.21309	1.70492	0.99425
-707.03125	-1.49825	-3.01043	-11.59162	3.81490
-703.12500	0.91866	4.64522	-3.93601	8.65016
-699.21875	-8.34935	4.64520	10.56950	-1.82587
-695.31250	-7.14124	-3.81631	8.15210	-8.27260
-691.40625	-1.90374	-6.23389	5.73460	-7.06365
-687.50000	-5.12776	-3.41347	-3.53268	-1.82539
-683.59375	1.31855	0.21280	-6.35298	-0.21343
-679.68750	-3.11435	1.82442	-1.11475	-0.61630
-675.78125	-5.93578	-0.19030	-5.14389	-1.82515
-671.87500	1.31610	0.61553	-4.74075	3.00995
-667.96875	9.77667	3.43598	-2.72595	7.03915
-664.06250	3.73170	3.43585	-9.17271	1.39786
-660.15625	-0.29857	-0.59356	-1.51688	0.59184
-656.25000	-2.31418	-5.02595	8.15372	2.20340
-652.34375	-3.92683	0.21205	-6.35147	0.99451
-648.43750	10.98070	5.45011	-6.35123	7.03846
-644.53125	4.93582	1.01775	4.12514	7.44124
-640.62500	-5.13847	-1.39998	1.70773	2.20304
-636.71875	3.72512	-0.19129	3.31963	-2.22924
-632.81250	3.72431	0.61446	0.49928	-2.22922
-628.90625	1.30589	1.01728	-5.94746	-9.07899
-625.00000	-2.72421	-0.19163	-6.35022	-9.07898
-621.09375	-1.11324	-4.22098	-3.93260	6.63531
-617.18750	0.49768	-7.84730	-6.34987	9.85873
-613.28125	-4.74121	1.01707	-0.70866	0.18842
-609.37500	-6.35368	-0.19176	0.09745	-2.63203
-605.46875	-6.35442	-1.80352	2.91825	-6.25843
-601.56250	1.30049	-0.99775	10.97701	-4.24375
-597.65625	1.70265	0.61389	2.11268	-6.25833
-593.75000	-11.19189	3.83723	0.90405	-5.45229
-589.84375	-6.76031	3.43423	-4.33400	-6.66093
-585.93750	9.35619	5.85171	-11.18370	-11.09309
-582.03125	-3.13526	3.43409	-3.12489	-8.27249
-578.12500	0.49038	-0.19241	7.75439	0.18921
-574.21875	7.74246	0.21044	12.99267	5.42749
-570.31250	5.32418	2.22495	6.94889	5.83060
-566.40625	3.71182	5.44833	1.71090	2.60731
-562.50000	-0.31810	3.83651	-7.95940	-5.85407
-558.59375	-8.78030	-3.01338	-7.95924	-7.86851
-554.68750	-13.21328	-2.20762	-2.72092	-4.64494
-550.78125	1.69444	5.04507	-8.76480	-0.61555
-546.87500	-2.73840	-2.20772	-8.36190	-0.21238
-542.96875	-10.39467	-10.26636	-0.30325	-2.62979
-539.06250	-1.93382	-4.62538	4.53199	-2.62967
-535.15625	2.90065	-1.80494	0.90568	-3.43545
-531.25000	4.91460	-2.61083	-3.52650	-0.21192
-527.34375	7.73447	4.23893	-3.12354	9.05556
-523.43750	-3.54830	5.44765	-3.52641	1.39995
-519.53125	-7.98128	3.02995	1.71173	-7.06152
-515.62500	3.30005	3.43290	2.51751	-2.22628
-511.71875	5.71697	1.82117	-7.15285	0.99719
-507.81250	-0.32759	0.61234	-8.36157	-3.83793
-503.90625	-3.14879	6.65628	-5.94395	-7.06138
-500.00000	-1.53783	7.05908	-7.55560	3.01194
-496.09375	8.53475	-0.59668	0.90588	2.60914
-492.18750	10.95170	-0.19383	3.72639	0.59453
-488.28125	5.71292	-1.80560	4.53234	3.01217
-484.37500	4.90642	-4.62615	1.71194	-5.04637
-480.46875	-2.34700	-3.01442	-7.55536	3.01230
-476.56250	-8.39167	-3.41736	-3.12308	4.62411
-472.65625	-3.96024	-5.43208	4.12969	1.80366
-468.75000	4.09773	-2.20865	-0.70551	-3.03146
-464.84375	-3.55865	-1.40285	-0.30253	-2.22548
-460.93750	-1.54467	-0.19417	6.14439	2.60981
-457.03125	3.28977	-0.59721	1.71219	-1.82240
-453.12500	-10.41048	-1.00021	0.90641	1.80408
-449.21875	-7.18769	1.41737	-0.70525	-1.01637
-445.31250	-3.15902	-0.59736	-5.13744	-4.64261
-441.40625	-7.99484	-4.62671	-4.73443	-1.82193
-437.50000	-2.35438	-2.61203	-6.34607	2.20748
-433.59375	-2.75808	-3.82084	-1.51098	-0.21009
-429.68750	-10.81754	-1.80626	2.51830	-3.83664
-425.78125	-3.96875	-7.85018	6.54753	-10.28375
-421.87500	11.34157	-13.08839	5.33858	-3.03137
-417.96875	8.92295	-6.64167	-5.13780	6.23556
-414.06250	-1.95732	-2.20939	-8.36138	3.01166
-410.15625	-1.95855	0.20829	-3.92938	3.41410
-406.25000	7.30766	3.02889	-3.12367	-1.01872
-402.34375	-2.36380	7.05828	-4.33262	-3.43684
-398.43750	-5.99134	7.05833	-0.30341	-0.21383
-394.53125	-0.35135	5.04363	-0.70640	-7.06405
-390.62500	-3.97878	3.83477	-0.30356	-12.70539
-386.71875	-1.15927	-6.23847	5.33726	-7.46761
-382.81250	0.04853	-5.02966	4.12838	-7.87082
-378.90625	0.45057	0.61128	-1.91570	-0.21538
-375.00000	4.88191	1.82000	2.51645	9.85767
-371.09375	8.10444	5.44634	-1.51292	3.81354
-367.18750	0.04489	0.61109	-2.72171	0.58990
-363.28125	-2.77642	1.41697	2.91939	1.79856
-359.37500	-0.76259	2.62575	4.53108	0.99256
-355.46875	1.65423	3.83446	-1.51291	0.18664
-351.56250	12.93548	6.25200	-4.33344	0.18656
-347.65625	17.76981	4.64024	0.50167	10.25975
-343.75000	12.93388	7.86366	1.71043	12.27434
-339.84375	6.88916	6.25200	-1.91596	3.81280
-335.93750	14.54409	7.05786	-9.57161	7.03624
-332.03125	10.91701	7.46073	-13.60092	4.21570
-328.12500	0.44008	1.81962	-24.88305	-5.45458
-324.21875	6.08042	5.44596	3.72506	8.64797
-320.31250	1.64745	4.23709	26.69217	11.87141
-316.40625	1.24378	0.61060	3.72516	-1.02241
-312.50000	11.31635	5.84864	-5.13931	6.23034
-308.59375	12.52442	2.62527	7.35155	0.99228
-304.68750	4.46516	-6.64219	6.94870	-2.63398
-300.78125	0.03222	-3.01583	-7.55679	-3.03690
-296.87500	9.29891	1.01345	-7.15392	-3.03686
-292.96875	12.11879	0.61053	2.51645	-0.61917
-289.06250	2.85073	-4.62754	1.30770	1.39555
-285.15625	4.86469	-7.44812	2.11364	12.27467
-281.25000	12.51967	-10.26865	7.75480	12.27474
-277.34375	10.90730	-1.80721	-0.30370	12.67774
-273.43750	7.28016	8.26593	-5.13888	10.66314
-269.53125	1.63838	-1.00158	-5.13886	-0.61884
-265.62500	-6.01803	-5.03097	-6.75053	-2.63341
-261.71875	-9.24216	-0.19594	-3.52704	-4.64801
-257.81250	-7.22822	-3.41945	2.11400	-14.72120
-253.90625	-1.99078	-6.64296	-5.13874	-3.84192
-250.00000	7.27595	0.60976	-6.34739	11.06660
-246.09375	0.02253	4.63909	6.14351	4.21680
-242.18750	-1.58983	0.20684	9.36693	-5.45344
-238.28125	2.43882	-0.19618	4.12902	7.44033
-234.37500	0.02055	-2.61380	7.35257	8.24620
-230.46875	10.09321	-3.82268	4.53210	1.39647
-226.56250	14.92769	1.81826	-4.73531	5.42585
-222.65625	0.42154	5.44466	-3.92947	3.00832
-218.75000	-3.20540	2.22118	1.30869	0.99373
-214.84375	4.85259	-4.62866	-4.33217	11.46998
-210.93750	4.04604	-0.59939	-4.33204	14.29062
-207.03125	1.62772	6.65332	7.35302	1.79989
-203.12500	0.41833	2.62401	-3.92892	-6.66149
-199.21875	-0.38811	-0.19655	-8.76393	-1.82619
-195.31250	4.84939	1.01227	1.71235	-1.02017
-191.40625	6.05761	-5.43461	8.15932	6.63570
-187.50000	-2.00169	-12.68739	-1.51095	9.05344
-183.59375	-7.24049	-1.80830	-9.16658	-0.21388
-179.68750	-5.22654	7.45907	-7.15185	-3.84025
-175.78125	1.21968	2.22093	-2.71946	-9.48124
-171.87500	0.01022	0.20630	2.11587	-4.64599
-167.96875	-12.07832	1.41507	-0.30163	2.20384
-164.06250	-7.24384	1.01204	5.33936	-9.88396
-160.15625	4.44054	-0.59964	8.15991	-9.48092
-156.25000	3.63411	3.02676	-10.37489	3.81595
-152.34375	-1.60460	-0.59957	-9.16594	11.06881
-148.43750	-0.79941	-7.85229	8.96613	5.02494
-144.53125	1.21456	-5.43483	5.74276	-4.24236
-140.62500	-1.20367	-1.00261	0.50469	3.81637
-136.71875	-2.01023	2.22078	-5.94212	5.83106
-132.81250	-4.42847	6.65300	-22.05920	-5.85387
-128.90625	6.04704	13.50272	-9.97126	0.19024
-125.00000	13.29912	15.51728	8.56366	12.68118
-121.09375	-4.83344	-1.40585	8.16086	2.60805
-117.18750	-11.28096	-7.44981	4.53452	-12.70316
-113.28125	-6.44639	-2.21177	-6.74754	-20.76169
-109.37500	-8.05883	-1.80890	3.72865	-11.09133
-105.46875	-4.03022	-1.40604	17.42831	-9.07663
-101.56250	6.84828	-0.19733	8.16093	0.19085
-97.65625	1.20660	3.83185	2.11696	3.01143
-93.75000	-5.24085	4.63767	-3.92695	-1.42055
-89.84375	-0.40619	3.42879	-7.15032	3.41488
-85.93750	0.80212	4.23448	0.50532	5.83282
-82.03125	-2.01881	5.44310	-12.79140	5.83331
-78.12500	2.41320	5.44302	-18.83530	3.01330
-74.21875	-1.21339	1.41367	-4.32967	-2.62717
-70.31250	-9.67505	1.81650	-5.53840	-4.64122
-66.40625	-8.06334	3.02520	4.53491	-3.02875
-62.50000	-9.67483	-1.00422	14.60826	-5.84825
-58.59375	-2.01889	-4.63074	-1.10585	-3.02658
-54.68750	-5.24194	-3.42224	-13.99962	1.00394
-50.78125	-10.88242	-1.81078	-5.53804	1.81112
-46.87500	-4.03216	1.00944	8.56470	3.42415
-42.96875	-6.44935	-3.42313	15.81760	-3.02138
-39.06250	-2.41964	-1.40881	15.01186	-4.63176
-35.15625	7.65400	5.84368	6.55050	4.63689
-31.25000	11.28064	9.46979	2.92435	2.22042
-27.34375	2.41623	7.45481	6.55081	3.02729
-23.43750	7.25138	1.81350	2.52162	11.08682
-19.53125	12.89237	3.02211	-6.34258	11.49046
-15.62500	14.10096	3.82778	-9.56587	11.49106
-11.71875	20.95039	5.43939	-15.20668	5.04462
-7.81250	18.93528	3.82742	-14.80354	6.25384
-3.90625	16.51713	0.60376	-9.56526	13.90983
0.00000	9.66663	1.81243	-3.92416	8.26894
3.90625	6.84532	7.45331	-0.70063	0.61332
7.81250	12.88839	9.87076	-0.70050	4.64255
11.71875	10.06700	2.61795	-3.52087	6.25415
15.62500	7.24544	-5.84367	-4.72956	7.46270
19.53125	9.25896	-5.03775	-6.74415	14.31225
23.43750	9.25783	0.60329	-13.59393	11.89431
27.34375	11.67428	3.82676	-9.96745	9.47628
31.25000	10.86724	2.21516	4.13532	9.07293
35.15625	4.82210	2.21525	10.98523	3.83434
39.06250	4.41788	-0.60524	4.13550	1.41619
42.96875	0.79026	-5.03746	0.50911	1.01269
46.87500	0.38598	-2.61976	-1.90846	-1.00250
50.78125	1.59343	-2.61964	-3.52012	0.20576
54.68750	3.20380	-1.81377	-5.53484	5.04036
58.59375	4.81423	-3.82836	-4.72897	3.02516
62.50000	5.61877	-7.05173	1.31506	-4.22814
66.40625	8.03509	-2.61933	-3.51999	-5.03458
70.31250	6.42207	2.61884	-5.13160	3.02340
74.21875	12.46475	1.81299	-0.29628	0.20234
78.12500	26.56607	-3.02204	1.31546	-3.42458
82.03125	19.31204	-5.84245	1.31547	2.61886
85.93750	-3.65630	-1.41021	-1.90796	2.21538
89.84375	4.40110	2.21624	-2.31087	9.46762
93.75000	10.44389	-0.60420	-2.71388	9.06427
97.65625	-2.45103	-4.63341	-5.93730	1.40817
101.56250	2.78596	-2.61865	-5.53431	-0.60683
105.46875	-2.85618	-2.61859	1.31556	1.00454
109.37500	-14.54228	-5.84203	-15.20450	1.40718
113.28125	-6.08179	-4.63325	-20.03963	-1.01071
117.18750	1.97572	5.84284	4.13635	-4.63737
121.09375	-0.84589	6.64874	6.15111	-7.86111
125.00000	-3.66745	2.21647	-6.33957	1.40600
128.90625	-4.07140	4.63409	-10.36885	-5.04118
132.81250	-5.28118	3.82825	-3.11592	-17.53236
136.71875	-1.65576	4.23128	-1.50409	-11.48862
140.62500	3.58140	3.82840	-0.29527	1.40506
144.53125	7.60976	1.41089	1.71940	6.24012
148.43750	6.40003	1.00790	-0.69812	1.00188
152.34375	8.81681	3.42549	0.91370	-0.60996
156.25000	9.21889	3.02253	0.51091	-4.23648
160.15625	2.77124	-4.23028	-5.12999	-2.22190
164.06250	5.18798	-4.23030	-16.81478	1.40443
167.96875	5.99307	5.84289	-17.62070	-2.62496
171.87500	1.15710	2.61940	-9.56209	-5.84847
175.78125	1.15625	-1.41007	1.72006	-3.02806
179.68750	11.22864	5.84271	12.59923	6.23925
183.59375	6.39257	6.64866	8.57008	2.20989
187.50000	-2.47272	3.42518	1.31749	-11.89270
191.40625	2.36165	5.43977	-3.11450	-15.51915
195.31250	-0.05673	1.81327	-14.39637	-12.69860
199.21875	3.56893	0.20153	-10.36696	-5.44582
203.12500	0.34474	-2.21605	-5.93464	-5.84876
207.03125	-8.52038	-3.82766	-6.33740	-8.66918
210.93750	-1.26838	-3.02183	-1.50225	-11.08671
214.84375	-1.67212	-3.42482	-6.74025	-8.26621
218.75000	-11.74619	-2.21611	-3.11376	0.19533
222.65625	-9.32944	-1.00745	4.13906	-3.83397
226.56250	-2.88333	0.60419	-2.30775	1.80716
230.46875	-3.28693	-0.60459	0.91577	-3.02789
234.37500	-1.67589	-1.81347	0.10996	1.80745
238.28125	2.35275	-4.63402	-8.35141	4.62805
242.18750	1.54623	-4.23114	-0.29272	-7.86273
246.09375	5.57484	1.40988	8.97476	-2.62462
250.00000	5.57412	2.21568	5.34844	4.62815
253.90625	1.94698	1.81270	-7.54520	6.23991
257.81250	5.97561	1.40976	-7.14222	3.82245
261.71875	1.54263	2.21556	8.16925	1.80785
265.62500	-1.27856	-3.42550	6.55769	5.03132
269.53125	2.75010	-6.24601	-0.29189	3.41980
273.43750	-4.90622	3.02135	-3.91825	-4.63863
277.34375	-9.33907	3.42418	-11.97690	-7.45899
281.25000	-7.32512	3.02108	-13.58864	-9.87646
285.15625	-9.74330	3.42393	-5.12717	-11.48802
289.06250	-10.54973	-0.60535	6.96085	-9.87603
292.96875	-12.96790	-1.81414	8.16984	-4.63768
296.87500	-9.74501	-3.02296	7.76709	-5.44330
300.78125	-12.56612	-4.63466	0.91737	-5.44310
304.68750	-16.19304	-4.63466	-8.75289	-5.84588
308.59375	-10.14973	-4.63467	-3.11177	-10.68075
312.50000	-11.76206	-1.41128	-5.12636	-8.26299
316.40625	-10.15099	1.40924	-19.22877	-8.26276
320.31250	-1.69002	-1.00840	-7.94665	-3.02443
324.21875	-7.33168	0.20036	5.75313	-3.02419
328.12500	-10.95860	1.40914	8.17081	-5.84447
332.03125	1.12867	2.21495	10.99149	4.63193
335.93750	3.54561	3.02074	2.12723	6.24383
339.84375	1.53033	1.81186	-1.49898	0.20005
343.75000	6.36489	3.42358	0.51575	2.21483
347.65625	1.93200	3.82645	3.73923	0.60324
351.56250	-0.08328	3.82645	-9.15458	1.00625
355.46875	5.55709	3.02063	-12.37797	0.20053
359.37500	1.52712	0.60304	4.94824	-3.42574
363.28125	-9.75549	-1.00867	-0.69260	-3.82856
367.18750	-8.54729	-2.21753	-8.34811	-5.44013
371.09375	-1.29517	2.21463	1.32221	0.20092
375.00000	9.18039	9.87028	4.54569	9.06548
378.90625	9.58271	1.81161	-1.09521	7.45385
382.81250	-1.29704	-3.02361	-7.13912	-4.23104
386.71875	-8.14751	0.19982	-5.12434	-10.67769
390.62500	-4.11886	1.00570	-0.28901	-6.64831
394.53125	5.14784	-1.00890	-10.36220	-3.42479
398.43750	0.31205	-4.63522	-7.94452	-5.03639
402.34375	-8.95593	2.61755	-2.70638	-4.63333
406.25000	-9.35949	3.82620	-5.52682	-16.72122
410.15625	-11.77767	-2.21783	-0.69151	-22.36213
414.06250	-15.80758	-2.62074	-5.92951	-16.72108
417.96875	-12.58479	1.40860	-17.61448	-15.51219
421.87500	-6.13850	5.84084	-18.01729	-12.28867
425.78125	-8.15387	1.81154	-2.70601	-15.91499
429.68750	-11.37807	-3.02370	-2.30309	-18.73556
433.59375	-6.14064	2.21440	-3.10891	-12.28857
437.50000	0.30554	2.21446	3.33811	-9.87095
441.40625	-5.73918	-6.65000	-0.69100	-11.48270
445.31250	-6.14290	0.19985	-2.30252	-5.03580
449.21875	2.72082	7.85550	-1.89944	2.61988
453.12500	-6.14452	5.84085	4.14472	-5.03588
457.03125	-12.18917	3.02035	4.95067	-7.05059
460.93750	0.70397	3.02033	-1.09306	-2.21546
464.84375	3.52370	3.42322	-7.94268	-3.42430
468.75000	1.10527	0.60263	-8.74826	-7.45369
472.65625	-0.10430	1.00554	-0.68954	-9.46839
476.56250	-4.13432	5.43782	8.98080	-2.61846
480.46875	-2.52331	5.84073	-4.31587	-6.24486
484.37500	0.69938	4.63189	-8.34508	-7.05077
488.28125	-3.33070	-0.60633	5.75756	-4.63322
492.18750	-6.15203	-2.21817	3.34007	-6.64793
496.09375	7.54695	2.21403	2.53434	4.63411
500.00000	9.56100	4.22868	4.54906	9.87228
503.90625	-5.34818	-5.03873	2.93740	-1.40980
507.81250	-8.97536	-14.30610	2.53460	-4.23044
511.71875	-9.78205	-10.67986	0.92318	-7.05106
515.62500	-6.55957	-5.84482	8.17618	-8.26001
519.53125	-2.53106	-2.62136	9.78803	-6.64825
523.43750	1.09458	3.42258	3.34129	1.41038
527.34375	6.33188	9.46643	-7.94063	7.45432
531.25000	-0.51861	9.46630	-9.95515	1.41040
535.15625	-2.93690	1.81051	3.74463	0.60461
539.06250	3.91214	-3.02473	13.81803	-0.60417
542.96875	-0.92384	-3.42778	6.96827	-4.63347
546.87500	-5.75962	0.19855	-10.35769	-2.61874
550.78125	3.91012	6.64547	-9.55145	-3.42448
554.68750	8.34165	7.45126	-0.68668	-5.84202
558.59375	-0.52353	-0.20462	0.52229	-3.82730
562.50000	1.49047	-2.21940	6.96933	-0.60370
566.40625	3.90745	0.19816	12.20753	3.02281
570.31250	1.08627	-1.01064	7.37234	3.02290
574.21875	-0.92899	0.60102	-9.55068	-0.20036
578.12500	-0.12372	3.01851	-5.11836	-1.81201
582.03125	-2.94488	0.19790	2.53746	3.82912
585.93750	-7.78069	-0.20509	-7.53560	6.24675
589.84375	-4.15497	-3.42855	-3.90910	-0.60294
593.75000	-0.12637	-2.62273	4.14977	-0.60286
597.65625	-6.17101	2.21238	7.77628	2.62065
601.56250	-1.73939	4.63001	9.38816	4.23242
605.46875	3.09513	1.40645	6.56779	0.60618
609.37500	1.88568	-4.23479	2.13560	2.62098
613.28125	6.31732	2.61498	-1.89369	8.66506
617.18750	3.09328	3.42077	-7.53462	2.62121
621.09375	-2.14544	-3.02612	-4.31103	-5.43725
625.00000	-5.77240	-1.01147	-0.28154	-13.09283
628.90625	-10.20533	2.21194	1.33034	-8.25766
632.81250	-5.37085	-4.23494	-4.71346	2.21864
636.71875	0.67251	-9.47302	-9.95144	0.20409
640.62500	-6.98379	-2.62323	-1.08677	-1.81050
644.53125	-10.20790	1.00302	-7.13056	-9.86903
648.43750	-4.16461	2.21180	-11.96557	-5.83970
652.34375	-6.58279	2.21181	-6.72740	-1.40741
656.25000	-0.53949	3.42056	0.52547	-7.85428
660.15625	10.74189	0.59989	11.00177	5.84542
664.06250	8.32364	-5.84699	13.82226	7.45724
667.96875	-11.42063	-1.41480	14.22525	-9.86870
671.87500	-33.17948	2.21153	5.36098	-25.58296
675.78125	-43.25348	-2.62373	-1.89146	-41.29720
679.68750	-46.07467	-5.04145	-2.69707	-44.11761
683.59375	-51.71632	-2.22092	-9.94964	-48.95266
687.50000	-57.76094	-3.02675	-7.12909	-51.77314
691.40625	-48.09130	-3.42970	1.33254	-38.47640
695.31250	-38.82457	-4.63839	4.55617	-32.02941
699.21875	-32.78131	-6.25010	5.76513	-30.41749
703.12500	-31.57318	-2.62368	3.75061	-22.35881
707.03125	-28.35041	1.80850	-1.48734	-21.14995
710.93750	-25.12775	3.42014	-9.54568	-23.16459
714.84375	-27.54596	0.19658	-5.11323	-21.95576
718.75000	-24.32312	-3.42989	-4.30721	-23.97032
722.65625	-23.92099	-1.41530	-13.97737	-26.79075
726.56250	-26.33928	1.80817	-2.29223	-29.20828
730.46875	-20.29593	0.19648	5.36354	-29.20820
734.37500	-22.71419	-5.84756	2.14038	-26.79059
738.28125	-25.93828	-6.25059	-1.88875	-22.76119
742.18750	-21.50671	-3.02723	-5.51506	-13.49365
746.09375	-16.26932	-0.20682	1.73784	-13.89647
750.00000	-17.88178	2.61373	8.99070	-19.53743
753.90625	-28.35860	-4.63906	5.76736	-21.14902
757.81250	-26.74763	-4.23625	-0.27647	-19.13440
761.71875	-25.13670	0.19597	-7.12621	-16.31390
765.62500	-17.48171	-0.20700	-4.70841	-17.92555
769.53125	-15.87059	-3.02745	2.14162	-12.68734
773.43750	-22.31815	-3.02744	-1.88755	-17.11941
777.34375	-21.51299	2.21065	0.12724	-21.95461
781.25000	-21.51368	5.03116	2.14205	-17.52234
785.15625	-18.29088	1.80764	2.14211	-18.32807
789.06250	-13.05338	3.01634	2.94803	-13.49292
792.96875	-12.65114	4.62806	-4.30465	-11.47832
796.87500	-9.02543	3.41928	-3.90160	-18.32812
800.78125	-8.62313	5.03098	0.12785	-17.11922
804.68750	-13.45894	5.83680	-0.27494	-13.89573
808.59375	-19.10047	2.21043	-0.67774	-11.88093
812.50000	-15.87771	-2.22181	0.93420	-3.41927
816.40625	0.23886	2.21040	-0.67740	0.20718
820.31250	5.87931	9.86605	-6.31825	-3.82204
824.21875	19.17537	9.06015	-9.94453	14.71278
828.12500	38.91830	5.03084	-7.52677	37.67990
832.03125	50.19970	6.23959	-3.49732	46.94738
835.93750	65.91338	9.06009	-5.51183	51.78254
839.84375	82.83575	8.65718	-5.10884	62.66175
843.75000	98.14660	8.65718	-3.09405	73.13805
847.65625	102.17529	1.40443	-6.31727	79.18202
851.56250	95.32476	-0.61027	-3.09369	92.88177
855.46875	101.36811	4.22484	1.74168	102.95501
859.37500	104.59086	-0.20746	-1.07862	100.53746
863.28125	105.79899	-3.43095	-1.07841	101.34342
867.18750	108.21590	1.40424	2.95111	102.95512
871.09375	94.91856	1.40427	-0.27220	100.53751
875.00000	85.65057	0.59839	-8.33062	93.28475
878.90625	86.45567	2.21017	-6.31567	94.89649
882.81250	83.23154	1.80726	9.39870	87.24081
886.71875	80.81315	-2.62493	18.26329	73.54118
890.62500	76.38027	-5.04253	9.80189	68.30305
894.53125	71.14153	-1.41619	0.53469	67.09421
898.43750	63.08217	-1.01327	-3.09155	63.06489
902.34375	51.39657	-1.41627	2.54955	52.18573
906.25000	54.21635	3.01597	12.62301	50.97693
910.15625	54.61858	5.83644	7.38516	52.18576
914.06250	49.78275	4.62766	-5.50845	42.11251
917.96875	50.18510	3.41885	-10.34354	43.32127
921.87500	47.76683	3.41881	-3.89648	46.14171
925.78125	42.93100	0.59823	-1.07576	43.32126
929.68750	40.51272	-2.22230	-3.09032	44.12720
933.59375	40.10915	-0.20768	-2.68728	41.70963
937.50000	35.67624	2.61292	4.96860	38.88918
941.40625	33.25804	-2.22227	13.43033	36.06873
945.31250	34.46623	-7.46046	9.80408	37.68047
949.21875	28.01877	-1.41658	7.38665	36.06889
953.12500	28.42114	1.00100	10.20740	32.84558
957.03125	33.25570	-5.04295	10.61046	36.87502
960.93750	34.46394	-3.02834	5.77552	33.24876
964.84375	28.82228	3.41854	-5.90929	23.57861
968.75000	18.74847	-0.61076	-15.98239	17.93774
972.65625	17.94207	-4.64007	-15.17640	13.50570
976.56250	17.13561	1.80676	-4.70003	14.31177
980.46875	17.94086	5.43315	1.34415	18.74404
984.37500	17.53734	6.23900	-0.67028	21.16178
988.28125	19.14851	3.01561	1.74745	19.14730
992.18750	16.32731	-2.62537	9.00026	15.52102
996.09375	11.89444	-7.05763	11.41794	13.50659
1000.00000	14.31142	-5.84877	6.58285	12.29805
1003.90625	10.28156	-1.81945	-1.07269	13.10409
1007.81250	9.07199	-1.81942	-0.26678	14.71575
1011.71875	15.92094	0.19530	4.56851	21.96832
1015.62500	11.89072	-1.01337	-1.87822	20.35644
1019.53125	1.81637	-5.84840	-6.31024	8.67119
1023.43750	3.02408	-4.23662	-0.66922	6.65622
1027.34375	14.30500	-1.41604	0.94258	10.68517
1031.25000	9.46873	1.00162	0.94265	6.65552
1035.15625	0.20025	1.80750	4.16618	2.62593
1039.06250	5.43728	4.22517	6.18092	3.02857
1042.96875	6.24204	1.80764	4.97224	0.20782
1046.87500	4.62929	-3.83332	-1.87752	-4.22471
1050.78125	6.64297	-1.01273	-5.50389	-6.23959
1054.68750	2.20975	6.24016	-5.90677	-1.40463
1058.59375	-0.61174	7.85194	-3.48899	1.01269
1062.50000	-1.41856	1.40514	-2.68298	-5.03145
1066.40625	1.40099	0.19641	-9.12967	-0.19645
1070.31250	5.02642	3.41988	-3.89142	9.07069
1074.21875	1.39918	4.22574	1.74974	9.87627
1078.12500	1.39832	2.21107	-3.48822	8.66725
1082.03125	8.65020	1.80813	-4.29398	7.86117
1085.93750	9.85810	2.61411	-5.50271	6.24920
1089.84375	2.20154	3.01704	-5.09974	4.63735
1093.75000	5.82713	3.41998	-9.12896	-2.21266
1097.65625	14.28779	4.22586	-15.57567	5.03991
1101.56250	5.42253	1.80824	-4.29351	5.84571
1105.46875	-17.54524	-0.60933	-0.66698	-19.53901
1109.37500	-45.34814	2.61416	-10.74017	-46.53552
1113.28125	-78.79217	3.42000	-13.96348	-80.78471
1117.18750	-106.99813	-3.42987	-11.54565	-108.58709
1121.09375	-108.20776	-2.22114	-4.69571	-111.40778
1125.00000	-122.31108	3.82278	-7.11318	-108.58744
1128.90625	-136.81728	-0.20653	-9.12772	-113.42274
1132.81250	-127.55065	-4.23580	-2.68065	-122.28741
1136.71875	-121.50742	-4.63861	-2.68051	-121.07871
1140.62500	-115.86707	-4.23567	-7.91847	-116.24364
1144.53125	-110.22675	-3.42983	-6.30646	-102.94698
1148.43750	-91.69259	-2.62396	-6.70932	-88.44159
1152.34375	-80.00831	-1.81812	-16.37956	-86.02415
1156.25000	-78.39717	-4.63862	-18.79700	-75.54803
1160.15625	-69.93630	-4.63862	-15.17048	-64.26614
1164.06250	-59.86376	-6.65329	-10.73810	-57.41650
1167.96875	-43.34433	-8.66785	-10.33508	-46.94039
1171.87500	-38.50979	-1.41507	-9.52901	-48.55217
1175.78125	-38.91332	2.61422	-0.66433	-41.70237
1179.68750	-32.06415	2.61419	-2.27584	-34.44964
1183.59375	-26.82668	1.00247	-2.67864	-33.64387
1187.50000	-29.24493	-3.42976	6.58887	-23.57064
1191.40625	-23.60453	-4.63848	9.81239	-15.91503
1195.31250	-19.97888	-4.63843	2.15686	-9.06537
1199.21875	-16.75620	-1.81790	-12.75131	-9.06551
1203.12500	-13.13043	1.40559	-5.90140	-9.06560
1207.03125	-17.16014	-0.60903	8.60427	-10.67715
1210.93750	-11.11649	-2.62366	8.20154	-14.70628
1214.84375	-7.49051	-3.83246	4.57531	-13.90006
1218.75000	-5.87905	-3.02665	-5.90063	-11.88500
1222.65625	-1.44706	0.19672	-7.10915	-4.63190
1226.56250	0.56724	2.21127	3.77026	-7.04922
1230.46875	-0.23911	-1.01223	4.57633	-9.86954
1234.37500	-7.49230	-7.45914	4.57649	-4.22841
1238.28125	-4.67217	-1.41516	3.77087	-4.22825
1242.18750	-6.28437	6.64354	-2.67577	-6.64561
1246.09375	-10.71694	4.22590	-2.67554	-5.83960
1250.00000	-7.09094	5.03171	4.57745	-4.22772
1253.90625	-9.10608	6.64346	-0.66043	-5.03345
1257.81250	-8.30074	3.42005	-3.48077	-6.64508
1261.71875	-3.86900	4.62891	5.78670	-10.27143
1265.62500	-8.30172	1.00250	4.98096	-11.88304
1269.53125	-12.33154	-2.62385	-4.68922	-5.43605
1273.43750	-6.69098	8.65824	6.59301	-2.21257
1277.34375	2.57592	13.09045	17.06941	-5.03304
1281.25000	0.15777	1.40542	5.38461	-4.63011
1285.15625	-13.13949	-6.25033	-7.10599	-2.21251
1289.06250	-10.72246	2.21118	-3.07646	-4.22711
1292.96875	-3.47023	2.61412	4.98227	-8.25634
1296.87500	-2.66493	2.61406	2.16187	-5.43567
1300.78125	-5.48600	7.85206	3.77379	-2.21224
1304.68750	-5.88944	3.82277	5.38571	-8.65908
1308.59375	-9.51641	1.40518	2.56543	-10.27078
1312.50000	-20.79900	2.21088	-8.31349	-9.46486
1316.40625	-24.02299	3.41960	-12.74555	-11.07648
1320.31250	-15.15905	3.01665	-5.08978	-10.27055
1324.21875	-5.89220	0.19619	-0.65733	-9.46461
1328.12500	-1.86347	-2.62428	4.58096	-11.07623
1332.03125	-11.93727	-4.23604	13.84860	-12.68789
1335.93750	-13.54954	-5.44482	17.87821	-3.42044
1339.84375	-13.95294	-4.63892	9.81990	-6.24089
1343.75000	-21.60921	-1.01259	6.59664	-15.91109
1347.65625	-15.56581	2.61383	-2.26767	-13.09056
1351.56250	-14.35753	-1.01255	-13.14668	-13.49346
1355.46875	-17.98447	-8.66824	-6.29654	-10.67284
1359.37500	-18.79081	-5.84769	5.38859	-9.06113
1363.28125	-16.37369	-1.01253	17.87966	-11.07572
1367.18750	-14.35963	1.40505	20.29747	-6.64341
1371.09375	-13.15137	4.22552	7.80682	-8.25517
1375.00000	-10.73434	3.01670	-5.89270	-7.85220
1378.90625	-6.30277	0.59910	-10.72777	-4.62873
1382.81250	-5.09460	3.01669	-0.65430	-7.04631
1386.71875	-9.93037	4.62840	13.04558	-9.46393
1390.62500	-10.33398	1.40493	10.22523	-8.25513
1394.53125	-7.91704	-1.41573	9.01658	-3.41996
1398.43750	-4.69424	-5.04215	15.86661	-1.80827
1402.34375	-1.47139	-5.84801	7.00240	-0.19646
1406.25000	-1.47192	2.61358	-1.45901	9.47383
1410.15625	-3.08425	7.85153	-3.87639	9.87676
1414.06250	-4.29369	4.62808	-6.69671	2.62401
1417.96875	-1.47381	2.61342	9.82349	2.62398
1421.87500	0.13724	7.44849	12.64411	1.81808
1425.78125	-2.28097	6.23969	1.76530	-1.00248
1429.68750	-2.28158	-1.81886	-3.87548	-1.00249
1433.59375	-2.68512	-2.62464	1.36285	0.20633
1437.50000	-11.95315	-1.81878	11.43637	-6.64342
1441.40625	-14.37135	-1.81882	1.76628	-5.83762
1445.31250	-6.31327	3.82211	-3.47153	-0.19657
1449.21875	-12.76070	6.64262	0.15502	-7.44933
1453.12500	-14.77587	1.40453	6.60207	-9.86691
1457.03125	-7.92653	-2.22188	6.60221	-5.43461
1460.93750	-6.71832	1.80735	5.39353	-6.24054
1464.84375	-0.67501	2.21026	8.21420	-1.80833
1468.75000	3.75659	3.01611	4.58801	5.84738
1472.65625	-5.51144	-1.01315	-6.29084	1.01220
1476.56250	-10.34722	-4.23658	-16.36397	-4.22592
1480.46875	-4.30389	3.82202	-10.72277	-1.80833
1484.37500	-4.70735	1.80744	2.57405	-2.61415
1488.28125	-9.14011	-7.86272	5.79765	-9.86691
1492.18750	-6.72306	-2.22169	9.02120	-8.25527
1496.09375	-8.33537	2.61353	7.81248	-9.06119
1500.00000	-14.37994	-0.60997	-0.24604	-12.68766
1503.90625	-12.36592	-2.22175	-5.08119	-11.07604
1507.81250	-6.72551	0.19585	-0.64886	-13.09073
1511.71875	-6.32320	1.40470	-0.64873	-9.86737
1515.62500	-5.92077	-1.81866	-7.49840	-1.40586
1519.53125	0.52556	-2.22161	-0.24553	-2.61471
1523.43750	7.77772	-3.83343	6.60442	-1.40596
1527.34375	9.79185	-1.01297	7.41044	1.81749
1531.25000	2.94144	1.00162	5.79896	-0.60007
1535.15625	5.76153	-1.41603	2.97869	-0.59996
1539.06250	3.74638	-3.83358	1.36718	1.01185
1542.96875	-5.52155	-2.22193	-5.48232	-1.80855
1546.87500	-4.31318	-0.61013	1.77073	2.62383
1550.78125	-9.95467	-7.05705	2.57686	-0.19657
1554.68750	-10.76110	-11.89231	-4.27267	-5.43459
1558.59375	-3.50881	-11.08640	-2.25770	-1.80814
1562.50000	-8.34456	-11.08644	-0.64577	-4.22563
1566.40625	-5.12169	-10.68362	1.77195	-4.22558
1570.31250	0.51889	-9.47485	3.78672	-3.82257
1574.21875	-0.28749	-10.68370	6.20445	-5.43424
1578.12500	1.32370	-14.71307	-1.45110	-1.00204
1582.03125	0.92018	-19.14533	-7.09200	1.41560
1585.93750	10.58991	-20.35405	-3.46539	0.20681
1589.84375	8.17168	-10.28073	-1.04755	-1.00203
1593.75000	-8.75196	-5.84849	0.56443	-8.65768
1597.65625	-2.30574	-9.47492	0.56464	-11.07522
1601.56250	4.54357	-5.84852	0.96769	2.22158
1605.46875	3.33422	-5.04262	7.01179	4.23632
1609.37500	2.93070	-8.26608	3.78850	-7.04565
1613.28125	8.16826	-7.05730	-7.09040	-6.23974
1617.18750	7.36189	-9.07196	-11.11938	-5.43379
1621.09375	0.51147	-12.69840	-6.28388	-3.01621
1625.00000	-0.69793	-7.46033	2.98368	-1.00147
1628.90625	-4.32490	-5.44567	5.80436	-7.04541
1632.81250	-6.34014	-11.89253	4.19284	-11.07468
1636.71875	-2.71434	-10.28074	5.80471	-8.65707
1640.62500	0.91129	-6.65436	2.17854	-6.23965
1644.53125	-1.50720	-7.86301	0.56700	-4.62820
1648.43750	4.53569	-8.66893	5.80517	-3.41978
1652.34375	6.54923	-9.07181	1.77599	-7.44955
1656.25000	4.93627	-6.65428	-8.70012	-9.06188
1660.15625	-2.72059	-5.84835	-10.31178	-1.80973
1664.06250	-13.19795	-6.25125	2.58221	-2.21325
1667.96875	-9.16985	-9.07169	4.59701	-7.04905
1671.87500	-4.73878	-9.07165	0.16482	-4.22918
1675.78125	-2.32237	-6.65410	4.19425	-3.42384
1679.68750	-1.11472	-5.44529	7.01487	-0.60385
1683.59375	-1.92172	-1.81887	7.01504	-4.63364
1687.50000	2.10650	1.00170	-0.23755	-7.85756
1691.40625	7.34355	0.59883	-9.90775	-5.84336
1695.31250	-0.71610	-5.04214	-5.47537	-1.41144
1699.21875	2.10344	-8.26557	5.00105	0.19995
1703.12500	0.49077	-7.45970	5.80709	-3.42673
1707.03125	-5.95710	-4.63916	4.19551	-7.45632
1710.93750	-7.56977	-3.83328	6.21028	-9.87415
1714.84375	-5.55601	-7.05681	7.41923	-4.63625
1718.75000	-2.73633	-5.44509	-0.63925	-5.84524
1722.65625	-4.75184	-3.02743	-7.48893	-7.45714
1726.56250	-3.54390	-3.43038	-5.87703	-2.62211
1730.46875	-1.12721	-5.84798	-1.44458	-0.60761
1734.37500	1.28960	-4.63922	-0.23560	7.04795
1738.28125	4.91515	0.59877	2.58510	2.21265
1742.18750	5.31727	2.21044	1.37644	-0.20503
1746.09375	0.88429	-2.22188	-1.44393	0.60065
1750.00000	-3.14579	-4.63948	-3.45838	-11.48740
1753.90625	-8.78761	-1.41604	-9.09930	-7.86108
1757.81250	-15.23525	1.00157	-3.05508	-3.83181
1761.71875	-18.45935	-1.41604	-2.24900	-13.90505
1765.62500	-16.04243	-9.07170	-7.08405	-11.48744
1769.53125	-10.40214	-13.50397	5.40700	-7.05516
1773.43750	-6.37353	-8.66875	13.46592	-6.65220
1777.34375	0.47561	-2.62467	8.22812	-5.44343
1781.25000	0.47496	2.21047	-3.05368	-8.66682
1785.15625	-4.76371	3.82217	-3.85940	-6.65200
1789.06250	-1.13793	1.40464	0.97598	-2.62259
1792.96875	-5.57071	1.40463	-1.03844	-6.24886
1796.87500	-11.21228	2.21042	-4.26167	-7.86040
1800.78125	-8.79529	-3.02777	-4.26144	-7.45737
1804.68750	-10.81052	-5.44547	0.57392	-5.84558
1808.59375	-6.78183	-1.81915	4.20053	-4.23379
1812.50000	-1.94726	1.80715	0.57435	-9.47180
1816.40625	-4.36543	4.22475	-6.67815	-11.88919
1820.31250	-0.73961	-1.41631	-5.87200	-6.65100
1824.21875	2.88622	-3.43097	-6.27455	0.60182
1828.12500	-1.14359	3.41889	-5.46844	-4.23326
1832.03125	-5.57641	2.21012	-5.06528	-11.08297
1835.93750	-9.20334	-2.22208	-8.28843	-14.30632
1839.84375	-6.78625	0.19550	-5.87066	-8.66523
1843.75000	0.86886	2.21009	-4.25872	-0.20364
1847.65625	6.10640	2.61301	-1.43801	-1.81541
1851.56250	10.13515	2.21000	0.57688	8.25787
1855.46875	9.73168	1.00122	-11.51074	14.70478
1859.37500	4.09012	-1.01332	-15.13691	5.43744
1863.28125	-1.55133	-1.01326	2.99520	5.43754
1867.18750	-3.56649	-5.04257	9.84523	0.19947
1871.09375	-1.95538	-5.84839	-1.43661	-1.81520
1875.00000	-1.55298	1.80733	-0.22763	-0.20341
1878.90625	1.26698	2.61325	5.41360	-5.44146
1882.81250	2.07232	0.19561	4.60805	-3.02388
1886.71875	3.28068	1.80728	-3.04732	-0.20320
1890.62500	8.51833	-2.22202	-9.89688	4.22909
1894.53125	3.68269	-6.65430	-9.49365	11.88485
1898.43750	2.87636	-1.41625	3.80342	11.48199
1902.34375	-0.34747	-1.81919	9.04190	5.43831
1906.25000	-5.98875	-0.20754	2.99836	5.03573
1910.15625	-1.95962	0.59828	7.02807	7.45375
1914.06250	6.50176	-2.22227	-3.85073	9.46884
1917.96875	9.72505	1.00112	-19.96764	8.66347
1921.87500	8.51609	5.03038	-8.28226	5.84345
1925.78125	5.29253	1.80695	7.83532	-1.00591
1929.68750	-3.97498	-0.61063	7.43262	-0.19952
1933.59375	-10.82487	-1.41658	-3.04326	0.20383
1937.50000	-7.60163	-4.64004	-10.69862	1.81600
1941.40625	-8.81056	-4.64013	-11.50410	4.63686
1945.31250	-8.81079	0.19501	-8.68334	4.23420
1949.21875	-6.79642	-1.01379	-0.62439	-0.19767
1953.12500	-4.78203	-7.46070	7.43460	-4.22670
1957.03125	4.08214	-0.61084	11.46423	4.63811
1960.93750	2.47012	10.26822	-4.65272	5.04128
1964.84375	2.46973	11.87987	-9.89031	2.22103
1968.75000	9.31917	7.44756	3.00403	6.65356
1972.65625	0.05143	1.80652	4.21330	-1.00186
1976.56250	-7.20163	0.19481	3.40777	-5.03089
1980.46875	-4.38143	1.00061	6.63156	-3.01599
1984.37500	-1.56119	1.40350	7.43780	1.01355
1988.28125	3.27362	3.01513	2.60314	5.04308
1992.18750	9.72013	2.20927	0.58891	5.44623
1996.09375	4.07869	-1.41709	0.58923	5.04344
2000.00000	-5.18912	-0.20826	2.60415	0.61141
2003.90625	5.28666	-2.62573	-0.61903	3.83505
2007.81250	11.33015	-3.02868	-1.02163	11.08791
2011.71875	2.86815	3.41819	-1.82725	1.41769
2015.62500	7.70296	7.04453	-3.84156	-0.99974
2019.53125	13.34356	5.83569	-8.27337	7.05903
2023.43750	0.04648	-0.61118	-7.46714	4.64154
2027.34375	0.04610	-0.61120	-5.85514	0.61233
2031.25000	6.49259	4.22390	-5.85487	5.04459
2035.15625	10.52142	3.41805	-1.82526	5.44766
2039.06250	14.55024	-3.43176	-13.50983	4.64189
2042.96875	12.93805	-4.64050	-18.74756	8.67120
2046.87500	12.53462	1.00055	-7.06230	12.29761
2050.78125	16.16054	5.43284	-9.07669	9.47721
2054.68750	24.21875	5.83570	-4.24127	4.23920
2058.59375	15.35379	-1.41708	5.83221	1.82169
2062.50000	4.87709	0.59756	9.86181	9.88031
2066.40625	17.77037	13.89426	11.07095	15.11842
2070.31250	15.75523	12.68545	-5.44886	15.92431
2074.21875	12.12838	3.82094	-21.56579	10.68627
2078.12500	12.53086	1.40340	-7.06013	5.85113
2082.03125	2.86002	-1.82007	10.66894	5.04522
2085.93750	0.84488	-8.66994	10.26633	5.44824
2089.84375	9.30588	-7.86401	0.59633	13.10400
2093.75000	10.91710	-1.01422	-7.46193	9.88055
2097.65625	14.94584	1.40343	-0.61178	10.28347
2101.56250	11.72182	5.43273	-4.64071	16.32745
2105.46875	3.25974	5.02974	-6.65507	16.73029
2109.37500	11.31776	1.80625	3.82138	16.32734
2113.28125	2.85560	1.80620	1.80696	11.49206
2117.18750	-5.20356	3.41795	-0.20748	6.25392
2121.09375	2.85453	6.23847	5.43384	1.82171
2125.00000	6.48038	4.62676	10.67230	3.03042
2128.90625	3.65925	2.20914	5.83745	6.65673
2132.81250	-2.38536	1.40327	4.62894	7.86542
2136.71875	0.03167	-3.43193	7.44973	8.26824
2140.62500	3.65755	-5.04362	-2.62321	10.28288
2144.53125	8.89511	-7.86410	-7.05519	14.31229
2148.43750	8.08878	-4.64061	7.45052	10.28295
2152.34375	-1.17911	0.59754	9.46541	4.64196
2156.25000	-4.00005	0.19469	2.61586	3.83616
2160.15625	-5.61212	-1.41701	1.40731	-0.59600
2164.06250	-6.82119	-0.61103	3.82508	-5.83398
2167.96875	-9.23907	3.82126	0.19883	-6.63965
2171.87500	-6.82167	5.03012	-6.24782	-1.80436
2175.78125	-1.98669	2.20969	-8.66529	-0.99830
2179.68750	-2.38985	-0.20783	-5.44161	1.01658
2183.59375	-1.58411	2.20979	0.60261	-0.99782
2187.50000	-0.37551	1.00095	-2.21765	-5.02687
2191.40625	-7.22546	-1.01371	-1.41163	-4.22078
2195.31250	-6.41977	1.00094	-5.44070	-8.24986
2199.21875	0.83286	-2.22246	-0.60528	-8.24966
2203.12500	2.84733	4.62747	20.75027	4.64433
2207.03125	8.48820	8.25388	17.92991	13.10609
2210.93750	3.65287	1.80700	1.00708	2.63015
2214.84375	-2.39133	-1.01346	5.03659	-6.63698
2218.75000	-2.39153	2.21004	12.28963	-1.39870
2222.65625	6.87561	3.82175	3.42545	4.64541
2226.56250	12.51636	-1.41637	-9.87092	-2.60716
2230.46875	10.50142	0.59826	-6.24414	-8.65099
2234.37500	8.88935	4.22462	-4.63220	3.83996
2238.28125	2.03922	5.43340	-8.66123	9.88399
2242.18750	-4.81095	2.61293	0.20352	5.45183
2246.09375	-9.64649	-1.41642	13.50060	2.22844
2250.00000	-9.64678	-4.23690	13.50094	-1.80081
2253.90625	-7.63244	-2.22224	12.69542	-3.00954
2257.81250	-10.85623	0.59829	4.63715	0.61696
2261.71875	-7.63321	-2.62506	-4.62998	0.61709
2265.62500	-0.38076	-3.02798	0.60845	-1.39744
2269.53125	-0.38102	-2.22209	0.60878	-0.99447
2273.43750	-5.21648	1.80722	-0.59983	1.82620
2277.34375	-11.66372	0.19561	0.60917	-2.60591
2281.25000	-7.23186	-3.02778	2.62414	-5.82936
2285.15625	2.84098	-3.02779	-13.89563	-0.59127
2289.06250	-8.03845	-7.86292	-11.07480	-5.82925
2292.96875	-15.29143	-6.65426	9.87798	-6.63483
2296.87500	4.04921	4.22491	11.89298	3.84177
2300.78125	4.04934	1.00151	13.50506	5.45408
2304.68750	-1.18859	-8.26582	5.04379	9.88699
2308.59375	16.13767	4.22512	-1.40282	19.15508
2312.50000	14.92925	3.82223	-3.01414	13.91772
2316.40625	8.07969	-1.41584	1.01567	13.51547
2320.31250	2.03600	1.40470	8.67184	11.09857
2324.21875	-0.78432	-1.41592	-0.59516	5.45815
2328.12500	2.03628	0.59870	-6.23574	7.47330
2332.03125	6.06562	2.61349	5.85252	9.89132
2335.93750	4.85685	-0.20702	17.53792	8.68295
2339.84375	6.87155	-4.23632	10.68842	12.30974
2343.75000	18.15359	-7.05677	-3.01082	15.13064
2347.65625	10.09464	-3.02747	-12.68091	7.87805
2351.56250	0.82673	2.21053	-5.02526	11.10137
2355.46875	3.24363	-3.83340	11.89800	8.28047
2359.37500	2.03399	-7.45968	10.68947	-1.39019
2363.28125	11.30044	2.21074	12.70440	2.23573
2367.18750	14.11997	4.62839	8.27246	5.45863
2371.09375	1.62813	0.19617	-2.60641	-1.39182
2375.00000	-2.40219	-2.22142	1.82611	-5.82474
2378.90625	4.84959	-5.44488	9.07910	-1.79610
2382.81250	4.44583	-5.84777	8.67642	8.27660
2386.71875	3.23625	-1.01257	4.64734	8.27621
2390.62500	15.32339	5.83724	6.25934	8.67879
2394.53125	13.71091	1.80789	1.82735	9.48423
2398.43750	-1.19834	-1.41559	-6.23106	1.82820
2402.34375	5.24785	0.59917	-5.02218	-0.18680
2406.25000	9.27649	1.80807	-1.79846	3.43918
2410.15625	8.87290	3.41980	3.43995	5.45351
2414.06250	8.87227	1.40513	5.85790	7.46781
2417.96875	8.46874	0.59924	3.44060	5.85582
2421.87500	12.49740	-1.41538	4.64970	3.03505
2425.78125	10.07921	-1.41540	1.82954	5.04950
2429.68750	4.84056	-4.63885	4.24740	6.25811
2433.59375	8.46641	-4.23597	6.26227	7.06379
2437.50000	5.64536	-1.81837	3.84496	7.46649
2441.40625	-2.41383	-2.62421	3.44236	5.04874
2445.31250	1.21204	-2.22131	-0.18359	3.83984
2449.21875	9.27018	-3.02710	-3.80956	0.21333
2453.12500	-0.80353	-0.60946	-6.62965	-4.21901
2457.03125	-2.81871	0.19643	-15.09093	-1.39857
2460.93750	0.80716	-1.81816	-8.24086	-3.41335
2464.84375	0.80672	0.19658	5.05617	-1.39878
2468.75000	-1.20837	-1.81803	3.84768	1.82457
2472.65625	-3.62635	-1.41509	1.83333	-0.59308
2476.56250	-0.40348	-3.83255	-0.58398	0.21271
2480.46875	-5.64207	-7.86176	-1.79251	-0.59325
2484.37500	-4.43369	-1.41496	-5.41856	0.61550
2488.28125	-0.40485	1.40558	-3.00056	1.42123
2492.18750	-1.61407	-1.81780	3.04376	-1.80232
2496.09375	6.44408	-0.20601	3.04405	2.62992
2500.00000	4.83190	0.19699	-1.38794	7.06205
2503.90625	-0.40668	-2.62345	-4.61106	2.22669
2507.81250	-3.22765	-0.60879	8.68600	3.83839
2511.71875	-1.21345	3.82338	13.11857	-0.19101
2515.62500	3.62130	5.03219	-5.01300	-5.83226
2519.53125	17.32053	6.64403	-8.63901	9.47899
2523.43750	18.12606	8.65878	4.65795	15.11992
2527.34375	2.00836	1.40607	8.68748	7.86700
2531.25000	-0.00679	-3.42916	5.46427	6.65802
2535.15625	-3.23062	-0.20565	1.83823	-3.01243
2539.06250	-13.30424	0.19739	1.83853	-12.27987
2542.96875	-15.72223	0.19744	3.45054	-13.48871
2546.87500	-8.87276	1.80922	-0.57841	-9.05653
2550.78125	-5.24688	2.61523	-4.60736	-6.63905
2554.68750	-7.66493	1.80940	1.03392	-5.43039
2558.59375	-4.44187	-5.04030	-2.18938	5.04561
2562.50000	5.22806	-1.41391	-5.00977	17.53637
2566.40625	7.24228	9.86821	5.06385	17.53626
2570.31250	1.19787	6.64478	-11.85891	0.21013
2574.21875	-6.05536	2.21261	-13.47021	-8.25153
2578.12500	-8.87635	-1.01071	7.88548	-6.63987
2582.03125	-1.62404	-5.44288	6.67697	-1.80483
2585.93750	3.21069	0.19826	1.03633	1.41856
2589.84375	-0.41628	2.61598	-1.78382	3.43298
2593.75000	-2.43157	-4.23377	9.49847	7.46196
2597.65625	-4.04393	-8.66593	15.94557	4.64118
2601.56250	-10.08849	-8.66585	3.85795	-2.20890
2605.46875	-7.67157	-4.63643	1.84361	-1.80621
2609.37500	1.19236	-0.60707	6.27619	0.20821
2613.28125	1.19175	2.61643	7.48532	-0.59788
2617.18750	0.78819	7.85446	-0.97578	6.25171
2621.09375	2.39934	5.03394	-14.27219	5.44567
2625.00000	0.38409	-7.05398	-10.24253	-3.82188
2628.90625	-2.03403	-10.27742	-12.65970	-5.03081
2632.81250	-2.84043	1.00465	-15.88286	-11.88073
2636.71875	2.80000	6.24283	-7.01815	-9.86629
2640.62500	8.84346	4.63120	5.87588	-3.41959
2644.53125	-1.63320	5.84001	21.99347	-3.82271
2648.43750	-6.06604	4.22840	21.99387	2.22105
2652.34375	-6.46956	1.40797	18.36786	7.05606
2656.25000	-0.82901	-3.42718	15.54767	2.22071
2660.15625	10.85542	-1.00957	9.50401	5.44401
2664.06250	5.61676	-0.20372	3.86331	4.63797
2667.96875	-6.06872	-3.02418	-4.19499	-2.61490
2671.87500	-2.03995	0.19929	-2.18000	-3.82383
2675.78125	4.40639	3.82570	3.46127	-1.00350
2679.68750	-0.02641	-1.81522	0.64103	-1.40655
2683.59375	0.37600	-10.67973	-7.01429	-2.61550
2687.50000	9.64284	-1.81526	-1.37280	5.03994
2691.40625	13.26864	7.45216	8.29794	5.84568
2695.31250	9.23880	7.45220	4.67185	2.21916
2699.21875	5.20896	5.43760	-0.16299	7.45714
2703.12500	7.22312	3.42300	4.67246	8.66586
2707.03125	0.37284	-1.81507	5.88159	5.84530
2710.93750	-5.26870	-1.00918	-12.65275	4.23354
2714.84375	1.98356	1.40849	-19.50230	3.02466
2718.75000	7.22122	5.43784	3.46507	-3.82522
2722.65625	-0.03196	10.27299	13.94166	-10.67501
2726.56250	-3.25589	5.43786	9.10688	-9.46638
2730.46875	3.19058	1.00566	1.85445	-3.42244
2734.37500	-2.04795	5.03503	1.85479	3.02438
2738.28125	-1.64548	8.66152	10.71960	3.83021
2742.18750	3.18923	8.66158	5.88479	2.21835
2746.09375	1.97997	4.22936	-5.79983	-2.21401
2750.00000	9.63522	1.40885	-7.00828	-3.42280
2753.90625	5.20254	1.81175	-3.78456	-1.81112
2757.81250	-8.09457	-5.44094	2.66270	1.41233
2761.71875	-9.30387	-8.66433	2.66314	-1.00530
2765.62500	-12.52789	-5.44087	1.85772	-5.84056
2769.53125	-4.46980	-3.02325	3.06688	-3.82601
2773.43750	-1.24684	0.60313	-0.15627	0.60609
2777.34375	-4.47079	-0.20270	-1.76771	-0.60280
2781.25000	-4.06836	0.20030	-6.60255	-5.03512
2785.15625	-2.45722	0.20037	-7.00512	-1.81181
2789.06250	8.82427	5.43856	4.27737	11.08182
2792.96875	10.03256	6.24446	11.53044	10.27575
2796.87500	1.16760	-0.60527	1.86041	-2.61819
2800.78125	-0.04170	-9.06673	-4.98910	-2.61832
2804.68750	6.80763	-8.26086	-2.57109	1.00799
2808.59375	5.59840	3.82708	5.48795	5.84312
2812.50000	-1.65475	2.61844	6.29425	9.46942
2816.40625	3.58315	-1.81377	5.08582	5.03725
2820.31250	5.59771	-1.41079	4.68323	-0.20061
2824.21875	2.77711	0.20108	1.46011	3.02301
2828.12500	2.37419	1.81283	-0.15119	5.84395
2832.03125	1.16543	3.02168	-1.76244	8.66496
2835.93750	0.35965	-0.60466	-8.61171	5.03902
2839.84375	1.97146	-0.60466	-11.43172	1.81611
2843.75000	7.61268	-1.00755	3.47706	4.23423
2847.65625	2.77764	-6.24563	13.14785	1.41432
2851.56250	1.97206	-2.61923	5.08969	5.04131
2855.46875	4.79286	-0.20170	1.46372	3.43027
2859.37500	9.22539	0.20130	3.47883	4.63972
2863.28125	4.79341	0.60425	3.88223	7.05797
2867.18750	-4.07081	1.00725	6.30024	1.01456
2871.09375	0.76453	-3.82782	5.09187	2.22393
2875.00000	3.58524	-8.66299	-2.96627	2.62746
2878.90625	1.97364	-4.63364	-5.38342	1.41919
2882.81250	3.58548	1.81323	1.46685	2.62849
2886.71875	8.82356	3.42507	-1.75609	1.82307
2890.62500	4.39137	1.00762	-4.57604	3.03220
2894.53125	-0.44382	1.00771	-0.14330	1.42089
2898.43750	2.37670	-2.21569	3.88645	1.82412
2902.34375	-4.07023	-3.02149	12.34850	-2.60784
2906.25000	-2.86150	-0.20094	9.52842	-6.63681
2910.15625	2.77944	2.21668	-3.36485	-1.39845
2914.06250	-6.48801	-1.81263	-9.40843	-2.20408
2917.96875	-5.27931	-3.42437	-0.14063	-5.02425
2921.87500	4.79377	-1.00674	5.50079	-1.39758
2925.78125	-0.84744	-5.84185	4.69535	-0.18855
2929.68750	-6.48873	-3.42425	4.69581	-3.41182
2933.59375	2.77839	1.81392	-6.58575	-7.84393
2937.50000	3.58405	1.81399	-9.40582	-5.02333
2941.40625	-5.28067	0.20239	-4.57025	-1.39682
2945.31250	-6.89263	-2.21507	0.26529	-3.81428
2949.21875	-9.71339	-2.21499	5.90670	-5.02294
2953.12500	-8.10181	0.60558	5.10119	-3.81403
2957.03125	-1.65510	-0.20020	1.47519	-4.61980
2960.93750	-5.68472	-4.63233	-1.74774	-5.42558
2964.84375	-10.52016	-6.64695	0.67041	-7.03732
2968.75000	-1.65592	-1.40878	5.50608	-6.23140
2972.65625	-1.65619	0.60596	2.28310	-0.59031
2976.56250	-4.47700	-0.60268	2.28352	2.23028
2980.46875	-2.46265	0.20327	3.08985	-6.23120
2984.37500	3.17808	5.44141	-0.13316	-2.20191
2988.28125	8.81875	9.87370	3.49362	4.64798
2992.18750	7.20680	0.20345	-4.96753	-2.60466
2996.09375	-1.25505	-4.22874	-2.54950	-4.21637
