 	TP9	AF7	AF8	TP10	
-1000.00000	-6.95046	0.36734	-0.78231	-14.07949
-996.09375	13.76655	2.38226	-1.99096	0.99663
-992.18750	14.60220	0.77077	-1.18505	2.29278
-988.28125	15.67997	-5.67587	1.63556	13.47776
-984.37500	24.66282	-5.27266	-0.37898	22.71844
-980.46875	19.86332	-6.48121	-8.03457	23.58923
-976.56250	29.98150	-10.10727	-5.21393	29.70691
-972.65625	41.30050	-13.73336	1.63594	36.56174
-968.75000	45.86927	-8.09201	9.29173	43.62444
-964.84375	51.26733	-7.68883	12.51526	53.96207
-960.93750	45.55395	-14.94129	4.45667	51.62708
-957.03125	46.55326	-9.29993	0.83041	42.28551
-953.12500	55.39133	-4.86739	2.03931	57.48452
-949.21875	57.08831	-7.68766	2.44231	68.51389
-945.31250	53.79078	-10.50786	0.83073	50.59013
-941.40625	49.17963	-8.08997	-2.39264	42.23585
-937.50000	48.99231	-4.46335	-1.58675	48.81291
-933.59375	55.26275	-1.64258	4.05434	52.16853
-929.68750	60.60283	-2.04519	5.66609	57.11427
-925.78125	62.44184	-8.08882	4.86035	61.75480
-921.87500	57.34270	-8.08850	6.47217	59.88723
-917.96875	58.26836	-2.44721	1.63712	58.96661
-914.06250	61.87037	1.58238	-1.58621	59.69976
-910.15625	61.23340	1.58269	2.04033	58.98000
-906.25000	54.64398	-3.65513	4.45801	56.02168
-902.34375	53.93242	-5.26654	5.26401	49.38177
-898.43750	45.38760	-4.05745	7.68164	46.16056
-894.53125	28.07633	-0.43082	4.86128	49.45870
-890.62500	38.01358	1.58412	-0.37671	50.73588
-886.71875	45.69364	2.79323	-0.77956	47.88979
-882.81250	40.96716	1.58474	2.84691	41.34318
-878.90625	39.37784	-5.26476	6.87628	40.62158
-875.00000	46.15911	-4.86153	4.86173	39.98390
-871.09375	56.60903	4.80905	2.04133	37.21267
-867.18750	50.48370	3.60057	-2.79378	45.81379
-863.28125	40.20676	-2.84596	-3.59955	39.39745
-859.37500	38.24117	-3.65158	4.86206	32.68592
-855.46875	35.94533	-1.23369	7.27975	34.90628
-851.56250	34.00593	-0.42755	8.08569	38.95607
-847.65625	31.92813	-0.83012	8.48871	40.11594
-843.75000	27.87729	-0.42690	2.84773	41.93150
-839.84375	30.71133	-2.44126	4.05662	49.35622
-835.93750	30.08399	-0.42636	6.07135	49.54269
-832.03125	25.39777	1.18568	6.87729	42.26372
-828.12500	24.66168	0.38011	7.28035	30.78912
-824.21875	25.73341	2.79792	6.87751	32.82603
-820.31250	26.07057	-0.02229	9.69812	35.43691
-816.40625	25.76824	-3.24543	8.08650	30.71273
-812.50000	26.34708	-1.23047	5.26610	23.36160
-808.59375	26.25000	-4.05065	6.07205	18.22926
-804.68750	16.84624	-4.45330	6.87798	15.70426
-800.78125	12.64700	-1.63250	8.08688	25.58520
-796.87500	20.59534	-0.42339	3.65473	27.58061
-792.96875	25.97141	-0.42309	-1.58326	15.69230
-789.06250	22.17041	-2.03448	-1.58318	20.15837
-785.15625	18.53349	-1.63130	0.43154	27.63161
-781.25000	12.21040	1.18954	6.07266	17.79032
-777.34375	11.76075	1.99567	7.28154	8.72454
-773.43750	14.59972	-0.42164	4.86403	18.85326
-769.53125	14.82397	0.78747	8.49053	17.63173
-765.62500	12.65260	-1.22687	6.87891	15.01300
-761.71875	11.47320	-3.64416	2.44678	18.09933
-757.81250	12.17474	0.38550	4.46153	23.71201
-753.90625	14.39492	1.19166	6.87921	24.78744
-750.00000	18.29772	-6.06077	4.46165	20.31382
-746.09375	22.96433	-4.85168	3.65587	22.56825
-742.18750	18.50127	-0.82210	3.25309	22.08256
-738.28125	8.96082	-1.22475	1.64144	13.31966
-734.37500	12.06485	3.20779	1.64157	13.75383
-730.46875	17.66926	6.83442	1.64168	20.14020
-726.56250	13.59397	4.82004	0.83591	18.45941
-722.65625	11.13832	2.40278	2.85063	23.29404
-718.75000	15.83590	1.19427	-1.58158	11.40067
-714.84375	13.25731	4.41798	-3.19321	5.90269
-710.93750	7.28472	8.85044	4.46251	7.83918
-707.03125	11.92537	7.23904	2.44797	13.15599
-703.12500	14.36833	3.21005	-3.19292	8.84054
-699.21875	15.49076	4.01620	-3.99867	3.45670
-695.31250	17.57841	8.04581	-1.58100	11.31175
-691.40625	17.75623	8.44910	0.43378	11.61191
-687.50000	9.88385	4.01716	1.64268	17.53011
-683.59375	7.23874	3.21161	2.04573	24.25226
-679.68750	13.58256	6.83826	2.04580	22.53444
-675.78125	19.39816	5.62975	4.06052	25.95700
-671.87500	26.10809	3.21250	4.06062	26.62034
-667.96875	23.16660	3.61567	-1.58032	15.05453
-664.06250	10.29613	3.21307	3.25500	13.11703
-660.15625	7.30566	3.21338	9.70191	13.84133
-656.25000	16.71460	3.61658	6.88146	-0.92483
-652.34375	12.99287	1.60224	0.03175	-4.75671
-648.43750	3.40474	1.60255	0.43476	6.52754
-644.53125	6.61243	1.60286	4.06129	14.11296
-640.62500	11.17959	1.60315	-1.57966	20.09290
-636.71875	18.80979	3.61810	-1.57962	8.03496
-632.81250	20.31176	0.79791	3.65850	7.33323
-628.90625	21.09425	3.61869	4.86735	15.71494
-625.00000	23.17648	7.24539	0.03226	9.50723
-621.09375	21.18721	3.61929	0.83816	13.49169
-617.18750	21.26751	6.03721	2.85287	23.83271
-613.28125	20.66434	6.44048	0.03245	21.38905
-609.37500	20.21142	7.64957	-2.78803	16.01703
-605.46875	18.47697	9.66452	-1.57917	12.99524
-601.56250	13.16266	6.84431	-1.98199	12.57629
-597.65625	14.03068	7.65057	-1.17607	25.12034
-593.75000	12.03645	8.45676	6.88258	17.26511
-589.84375	11.21604	0.80141	2.04747	17.09738
-585.93750	10.23062	-5.24222	-2.38469	22.15334
-582.03125	9.27472	-0.00382	2.45056	10.49894
-578.12500	8.39805	-1.21231	1.64481	11.50185
-574.21875	-0.73326	-6.04713	0.43613	10.27518
-570.31250	1.74916	0.80299	-2.78720	5.25111
-566.40625	7.69146	2.01211	-8.02523	7.96513
-562.50000	11.14100	-1.61396	-1.98118	9.27679
-558.59375	12.04299	-1.21069	2.45107	8.36955
-554.68750	10.16376	0.80425	2.85412	13.31659
-550.78125	10.33284	-0.40423	1.64544	21.97496
-546.87500	9.63635	-3.22441	0.03387	18.77518
-542.96875	14.33268	-1.61240	1.24276	17.37111
-539.06250	16.52107	4.83483	0.83990	16.93876
-535.15625	12.50146	6.04394	1.24295	14.30504
-531.25000	13.98847	0.40326	2.45179	20.12136
-527.34375	7.99037	-3.22283	-2.78619	18.71528
-523.43750	1.92711	-4.43130	-1.57726	10.60557
-519.53125	4.92530	-3.22218	4.06392	7.80202
-515.62500	8.30451	1.21038	0.43760	12.03680
-511.71875	6.66250	0.80772	0.03478	12.58111
-507.81250	-1.69567	0.00216	-3.99442	4.15218
-503.90625	-1.90209	-0.80338	-10.84418	0.66348
-500.00000	0.64100	-2.81774	-3.99421	-5.33481
-496.09375	5.64378	-3.22042	1.64689	-6.37622
-492.18750	5.67364	0.00329	3.66162	13.05154
-488.28125	2.31937	1.21234	4.06470	17.38642
-484.37500	-8.44126	-3.62260	-2.38207	3.65971
-480.46875	-10.82313	-4.02518	-3.99367	5.73896
-476.56250	5.33918	-1.60732	-1.57606	11.05041
-472.65625	7.39091	-1.60702	1.24457	2.99661
-468.75000	4.70698	-1.60670	0.84168	-2.02887
-464.84375	8.49330	0.00538	-3.59049	-3.77943
-460.93750	3.58579	2.02033	-7.21675	-0.07075
-457.03125	8.21157	0.40895	-4.39616	5.49580
-453.12500	6.57358	3.22978	0.84207	7.80084
-449.21875	-0.99673	5.64762	2.45387	6.33908
-445.31250	0.54096	2.42452	2.45394	4.93511
-441.40625	3.18268	0.00721	1.24530	9.07133
-437.50000	8.63659	-0.39544	0.43947	10.00714
-433.59375	3.22220	0.41080	-1.57510	7.72145
-429.68750	-7.15186	-0.79767	-3.18670	4.20535
-425.78125	-6.11862	-1.60326	-1.57490	5.62209
-421.87500	-1.14453	-3.61760	-2.38059	3.35124
-417.96875	6.22813	-0.79675	-0.36581	2.02738
-414.06250	2.98026	0.00940	3.26069	1.95437
-410.15625	1.53739	0.41267	5.27544	1.23426
-406.25000	10.25927	4.84518	9.70774	11.16945
-402.34375	5.92145	2.02500	8.49912	12.18495
-398.43750	1.40602	-2.80985	3.66400	12.58982
-394.53125	6.25599	-2.00371	3.66407	12.26136
-390.62500	-0.32687	-3.21220	2.85829	7.49431
-386.71875	-13.19619	-0.79429	4.47007	2.23035
-382.81250	-6.64052	2.02651	2.85845	-6.33130
-378.90625	-0.97705	3.23562	-0.36491	-1.41216
-375.00000	-8.29827	2.43009	0.84401	-4.46776
-371.09375	-6.71272	0.41576	3.66464	-12.47741
-367.18750	-3.57051	0.01310	0.44132	-9.51765
-363.28125	-4.98290	-2.80713	-3.18493	-3.04053
-359.37500	-3.72500	-3.61278	-2.37901	-3.30545
-355.46875	0.02313	-1.59787	-3.58774	0.12339
-351.56250	0.09839	-1.19463	2.05335	8.60509
-347.65625	2.45288	0.82032	3.66509	9.36172
-343.75000	9.28131	2.43238	1.65054	7.95360
-339.84375	13.72716	2.83558	3.66528	14.16921
-335.93750	4.23546	1.22420	2.85951	10.72902
-332.03125	-3.27120	-0.79012	0.84493	-3.40010
-328.12500	1.23088	-1.99861	0.03919	1.24209
-324.21875	2.30271	-5.62470	0.03931	9.72552
-320.31250	-6.62749	-3.20679	-1.97526	3.06876
-316.40625	-4.10916	-1.59479	-1.97524	1.56765
-312.50000	-1.91852	0.01726	-0.76651	-0.14284
-308.59375	-8.05945	-0.78829	-4.39279	-2.85793
-304.68750	-6.18112	-1.19095	-3.98971	-3.36866
-300.78125	-0.70999	2.43577	-1.57207	-7.18776
-296.87500	1.59739	1.63018	-4.39251	-10.02779
-292.96875	-5.51744	-0.38416	-3.58658	-0.96405
-289.06250	-4.48328	-0.78674	-1.57181	1.08406
-285.15625	7.59404	2.43703	1.65175	3.72180
-281.25000	7.31500	3.24318	8.50168	10.40032
-277.34375	-3.61078	-1.99463	10.51641	6.57235
-273.43750	-10.44207	-1.99431	2.45785	2.19536
-269.53125	-6.18842	0.02062	-6.00354	-5.07024
-265.62500	-5.94212	-6.42598	-3.58588	-7.28635
-261.71875	-9.53907	-8.03737	-2.37696	-6.61786
-257.81250	-4.00228	-4.41073	0.44366	-7.04942
-253.90625	0.63548	-4.81332	3.26438	-5.57131
-250.00000	-6.34077	-6.42475	0.04104	-4.80713
-246.09375	-14.56797	-6.82732	-1.16766	-13.43214
-242.18750	-5.33138	-6.02115	-4.79392	-15.12697
-238.28125	10.51284	-7.22964	-9.22601	-7.77300
-234.37500	10.39341	-5.21471	4.47364	-6.53323
-230.46875	-0.92525	-4.00561	10.92066	-7.80272
-226.56250	0.64057	-3.19946	4.07099	-2.63413
-222.65625	-3.82963	0.42724	2.45932	-0.21733
-218.75000	-3.96711	3.24804	-0.76405	-4.45527
-214.84375	15.21262	2.44251	-1.97269	-5.11841
-210.93750	13.67236	-0.78062	-3.58433	-3.18214
-207.03125	2.19581	-2.39205	-5.19592	-1.49193
-203.12500	2.22124	-4.40638	-0.76364	-5.00172
-199.21875	1.32912	-6.42072	2.86283	-7.16244
-195.31250	1.80519	-6.42040	2.05707	-10.99268
-191.40625	-5.67252	-6.42010	3.66888	-4.64883
-187.50000	-7.09801	-8.03151	2.46018	-3.56606
-183.59375	-5.71381	-6.41952	0.44558	-8.52928
-179.68750	-4.20511	-1.58407	1.25154	0.22872
-175.78125	0.80469	-1.58375	-0.36011	4.85975
-171.87500	2.27650	-0.37464	-1.97174	2.70221
-167.96875	1.34977	-2.38897	-3.58346	4.83580
-164.06250	2.98486	-4.40334	-1.56874	4.50968
-160.15625	2.41208	-2.38843	2.86359	-1.21324
-156.25000	-1.47560	-1.58229	3.66951	-2.68302
-152.34375	-0.36209	-0.37319	4.07258	-7.72399
-148.43750	4.15244	-0.77580	4.07273	-12.55729
-144.53125	8.16596	1.23915	4.87870	-2.95761
-140.62500	1.85412	4.46291	5.28172	-4.23063
-136.71875	8.27566	4.86611	-3.98563	-4.20100
-132.81250	5.74833	1.64295	-4.38848	2.34971
-128.90625	-2.73652	0.43452	4.87902	0.65788
-125.00000	4.58380	2.04652	6.08795	-1.52088
-121.09375	5.41500	-0.37077	2.05875	-8.81879
-117.18750	1.86900	-3.19096	1.25298	-2.10442
-113.28125	-1.15177	-1.57896	6.49115	1.09251
-109.37500	-1.60469	-1.17568	7.70007	-3.47394
-105.46875	1.09311	1.64512	4.87966	2.77129
-101.56250	0.61390	2.85420	4.87973	1.94895
-97.65625	0.67601	-4.39825	0.85051	-5.65386
-93.75000	4.32284	-6.41259	0.04474	-7.46549
-89.84375	-0.52696	-5.20348	-2.37281	-7.23061
-85.93750	-11.98856	-5.20315	-4.38737	1.04844
-82.03125	-13.75026	-1.17356	-1.56681	-0.13007
-78.12500	-5.35951	5.27361	0.04495	-7.18615
-74.21875	4.44690	4.87096	0.85080	-7.20444
-70.31250	4.51166	2.85661	-0.76087	-9.81138
-66.40625	6.02174	1.64807	-4.79005	-3.47154
-62.50000	15.91805	1.24544	-2.37237	-2.96621
-58.59375	13.19358	2.05158	1.65699	-4.67973
-54.68750	3.65854	2.85773	-2.37223	-5.77710
-50.78125	1.00687	4.06683	-1.56630	-5.98372
-46.87500	1.92190	0.84365	1.25433	-12.00451
-42.96875	2.58881	-2.78245	0.44849	-13.81193
-39.06250	-0.46111	-2.37931	4.47784	1.87250
-35.15625	1.96599	2.45615	-1.96891	7.69987
-31.25000	-0.57645	4.87395	-5.59522	4.24840
-27.34375	-4.15714	2.45666	-1.56582	7.27413
-23.43750	0.65855	-1.16947	-3.98324	11.25190
-19.53125	0.03036	0.44259	0.44908	12.88027
-15.62500	3.00656	-0.76590	0.85211	3.01197
-11.71875	0.96155	-3.58614	1.65804	-2.89107
-7.81250	-8.60551	-5.19753	-0.35653	-0.84420
-3.90625	-11.63258	-9.22655	-0.75943	0.50184
0.00000	-17.55111	-6.80866	3.67288	-3.48225
3.90625	-13.35422	-1.57033	1.25544	-5.32987
7.81250	-4.86292	-1.16708	-3.98254	3.62121
11.71875	1.45305	-6.40490	-3.98246	2.31468
15.62500	5.60081	-5.59878	-5.19118	2.28727
19.53125	4.42766	0.84841	-5.99691	-4.09524
23.43750	0.04041	2.05754	-3.57925	-20.13953
27.34375	2.09207	4.07251	-4.38497	-12.88235
31.25000	0.21395	5.68450	-3.57901	3.44718
35.15625	-9.69930	2.86429	-6.39941	-6.36228
39.06250	-8.15998	4.87925	-14.45790	-17.15942
42.96875	5.33030	5.28251	-14.86076	-9.98156
46.87500	-2.75458	1.65642	-8.81673	-2.84180
50.78125	-12.74245	-1.16378	1.25668	2.14306
54.68750	-4.35485	1.65701	3.67433	-4.90228
58.59375	3.12207	6.08955	-5.59297	-8.01913
62.50000	4.14369	3.26933	-5.59288	-10.30714
66.40625	-3.68841	-0.75968	-1.96637	-7.75794
70.31250	-6.80970	-3.57994	-5.18969	-5.63327
74.21875	2.28218	-3.17667	-0.35444	-4.61964
78.12500	2.01823	0.04712	-0.35436	2.37657
82.03125	-2.69709	-5.19068	-8.41288	5.48458
85.93750	-1.91566	-5.19039	-1.96592	5.81414
89.84375	4.29720	-0.75785	3.67515	10.33169
93.75000	10.60147	0.85412	2.86939	6.16388
97.65625	-0.98929	0.45148	-2.77163	1.13488
101.56250	-11.95165	2.06344	-6.39791	6.37448
105.46875	-7.90756	-2.36856	-5.18898	4.03088
109.37500	-10.86408	-5.18878	-0.35372	-3.55700
113.28125	-8.42207	-1.15918	-0.75657	-8.41838
117.18750	-4.28394	2.06456	-3.57696	-5.29536
121.09375	-5.87320	4.88537	-2.77100	-6.42047
125.00000	-6.34462	2.87103	-3.17379	-1.41781
128.90625	-4.35622	0.05083	-1.56198	0.64553
132.81250	2.41232	1.25993	-3.17358	-4.05071
136.71875	6.64098	2.06607	-1.15884	-1.20021
140.62500	2.66080	2.06636	5.28813	-3.07724
144.53125	-2.05268	-0.75385	8.91455	-8.51323
148.43750	-0.76869	-1.15653	6.09411	-10.91103
152.34375	-0.42888	4.48479	-2.36740	-6.93127
156.25000	-6.89719	2.87331	-6.39662	-1.08697
160.15625	-1.64545	-1.55866	0.45329	0.29320
164.06250	-2.67565	0.45633	3.27390	-3.14732
167.96875	-16.22621	-0.34928	-0.35245	-6.80059
171.87500	-17.76805	-0.34898	-1.96406	-5.38205
175.78125	-10.24932	1.26306	1.25948	-8.18083
179.68750	8.21978	-2.76595	-0.35216	-8.39099
183.59375	9.93221	-5.98909	-3.97840	2.59858
187.50000	-6.41195	-4.77999	-3.57542	2.09667
191.40625	-10.13530	-3.16803	-2.76948	-12.70661
195.31250	-7.85403	-2.36189	4.08046	-14.02341
199.21875	-8.02392	-1.95862	6.90104	-10.58999
203.12500	-15.78981	0.86216	0.85716	-6.98340
207.03125	-14.44298	3.28005	-1.96325	-5.17267
210.93750	-2.52971	1.66858	1.26027	-5.13949
214.84375	-0.12268	-2.36042	2.46910	3.94475
218.75000	-5.63980	-1.55427	-3.97762	6.19073
222.65625	-5.68654	-2.35981	-8.40975	3.16825
226.56250	-2.04173	-6.79172	-3.17160	-2.01503
230.46875	-3.83205	-5.58269	-0.35103	3.61260
234.37500	-8.82380	0.46164	4.48421	10.66359
238.28125	-16.85297	-1.14981	9.31949	4.07893
242.18750	-18.16604	-11.62571	10.12540	-11.66428
246.09375	-16.75165	-7.99899	5.29034	-17.84220
250.00000	-18.48974	-4.37235	-5.99164	-14.66073
253.90625	-13.42014	-2.76030	-10.02092	-5.55696
257.81250	-8.61567	0.46344	-9.61792	0.80651
261.71875	-4.45639	0.06077	-8.40907	0.50455
265.62500	0.25946	0.06106	-1.96207	-3.09115
269.53125	-7.43272	-1.55042	4.88783	-6.37562
273.43750	-8.68743	-1.95302	-1.96187	3.62788
277.34375	-8.32245	-3.96739	-6.79700	4.43266
281.25000	-6.44524	-8.39937	0.85879	2.20906
285.15625	0.64657	-9.60788	7.70866	3.15731
289.06250	5.15025	-2.35486	4.88825	-3.36828
292.96875	8.98510	0.06302	-4.37901	-3.29021
296.87500	8.20464	-0.33965	-3.97594	-5.99451
300.78125	8.92413	2.48119	2.47101	2.32062
304.68750	15.04114	3.28730	0.05356	10.98093
308.59375	16.02496	1.67583	0.85951	8.05709
312.50000	6.54093	-0.74142	6.50060	7.12494
316.40625	-4.16268	1.27351	-1.15494	10.62300
320.31250	-3.45977	0.06502	-8.00465	7.69585
324.21875	5.98241	-3.56106	5.29222	3.86512
328.12500	6.64853	2.88615	6.90402	6.94544
332.03125	6.12482	8.52751	-5.98959	9.07876
335.93750	5.74532	9.33365	-2.36315	3.51433
339.84375	9.60483	9.73689	10.12777	-1.40295
343.75000	10.95531	6.51374	2.47214	-6.09639
347.65625	-4.45131	0.47010	-7.60102	-7.51119
351.56250	-12.42760	-1.94720	-2.76577	-10.73298
355.46875	-10.83157	3.29119	1.66663	-14.02734
359.37500	-6.66725	0.47098	1.66677	-10.86840
363.28125	-3.87206	-3.15511	-2.36244	-16.47997
367.18750	-3.98168	1.68035	-3.97407	-8.72068
371.09375	-4.81087	0.06894	5.69629	-0.33949
375.00000	-8.77255	-3.55715	12.54623	1.51090
378.90625	-11.56770	-2.34804	10.53168	5.09185
382.81250	-6.65209	-3.55654	9.72589	-0.28193
386.71875	-8.46402	-2.34742	8.92019	0.09432
390.62500	-10.52864	2.08514	2.47342	-0.84601
394.53125	-5.41311	0.07080	-1.95864	-3.46542
398.43750	-3.87732	-6.37578	-0.34682	-3.07917
402.34375	-7.44121	-9.19596	-0.34670	0.19698
406.25000	-7.01741	-6.77804	1.26514	-3.22653
410.15625	-11.06087	-2.74843	2.47395	-9.84168
414.06250	-24.53668	0.87822	2.87703	-10.02447
417.96875	-15.01589	2.89316	8.92109	4.10802
421.87500	-0.98366	1.28176	7.30948	3.90141
425.78125	3.18216	2.49087	2.47436	6.30053
429.68750	6.87381	3.69991	1.26568	10.54322
433.59375	1.93734	-4.35838	-3.16648	-8.90473
437.50000	-7.10365	-4.76095	-7.59861	-16.86109
441.40625	-2.17199	-1.94014	-3.56922	-13.73964
445.31250	5.61940	-1.93984	0.05726	-10.00210
449.21875	-5.49342	-1.13369	-7.19538	-9.80601
453.12500	-7.39846	-1.53635	-5.18063	-9.78309
457.03125	-3.10481	0.07568	0.05757	-5.54675
460.93750	-8.97481	2.89646	5.69868	0.87005
464.84375	-2.11505	4.50853	6.50466	1.86204
468.75000	-1.43368	1.68829	0.46084	-7.23063
472.65625	1.02993	-0.32607	-1.15074	-15.08429
476.56250	2.62248	0.88303	2.07280	-9.89796
480.46875	2.39748	0.48046	2.87871	-4.64347
484.37500	0.13587	-1.93682	2.87878	-8.46797
488.28125	-5.13234	-2.33944	-2.35919	-4.70078
492.18750	3.83576	1.28730	-4.77661	5.00164
496.09375	5.24123	0.88465	-1.15008	7.95916
500.00000	4.96403	4.91425	-0.74711	10.82471
503.90625	10.36989	6.12336	3.68523	17.43833
507.81250	15.23512	1.28850	2.47652	14.70428
511.71875	14.29862	-0.72585	-3.56734	-3.92849
515.62500	16.02900	2.90079	-2.76143	4.10248
519.53125	18.07947	6.12455	2.87972	17.46329
523.43750	12.08072	3.70726	5.29740	8.26871
527.34375	16.95312	6.12516	2.87989	7.46708
531.25000	11.85187	6.93129	3.28293	14.12599
535.15625	5.96811	4.11108	2.88010	16.00125
539.06250	15.16333	2.90259	-6.38715	19.30641
542.96875	19.78929	3.70873	-2.35776	12.38151
546.87500	7.27230	1.29147	2.47747	8.23900
550.78125	2.52262	-0.72287	-1.14877	-0.47617
554.68750	16.95429	3.70964	1.67182	-2.68665
558.59375	13.55213	4.11291	1.67188	8.29878
562.50000	7.32116	4.91905	-1.55152	16.88951
566.40625	17.21817	6.12815	-5.58079	22.66182
570.31250	24.17019	6.53140	0.86615	21.56268
574.21875	17.14495	2.90529	0.86624	21.77011
578.12500	11.64298	-1.92954	-7.19221	15.06648
582.03125	10.95725	-2.33218	-4.37155	18.17434
585.93750	1.66565	-1.52607	1.26967	28.57698
589.84375	3.04349	0.08595	8.52252	26.64754
593.75000	14.18308	2.50384	2.47857	24.09125
597.65625	13.06876	0.08652	-6.78876	11.00345
601.56250	13.79150	-1.92783	-2.75941	5.36362
605.46875	17.83574	0.89295	4.09048	13.49593
609.37500	13.26766	1.69908	4.09054	16.38393
613.28125	5.63650	2.50529	1.27016	13.93987
617.18750	1.31319	-1.52377	-2.35608	19.48021
621.09375	10.60316	-2.32934	-3.96761	20.77231
625.00000	11.34062	0.08852	3.68818	17.71611
628.90625	7.68814	2.50639	10.53818	27.03193
632.81250	11.23337	3.31253	8.12067	25.96180
636.71875	5.79179	-0.71645	4.09146	18.33587
640.62500	6.24392	-2.73080	7.71788	16.45865
644.53125	7.97753	-1.52179	4.09159	10.21653
648.43750	-0.81148	-2.32735	-4.36989	4.19219
652.34375	-2.88910	-3.13291	-3.16102	-3.91616
656.25000	7.96867	-0.71503	0.46543	-5.32490
660.15625	3.55010	-1.11773	-0.74326	2.90480
664.06250	-4.73270	-2.32626	-1.95190	9.53728
667.96875	-3.37469	0.09164	3.68925	1.04863
671.87500	2.33631	-1.11687	6.91286	-2.36833
675.78125	9.04920	-1.92244	1.67482	8.53220
679.68750	8.58068	-0.31045	4.09246	10.73934
683.59375	1.83166	-1.11600	4.49544	12.46112
687.50000	2.81361	-1.92156	-1.54839	10.34721
691.40625	4.73135	-1.51839	-3.56294	-2.44164
695.31250	1.37170	-0.30932	-3.56284	-5.37049
699.21875	5.23119	0.09391	-1.95097	4.10658
703.12500	3.50940	0.90006	-4.36847	9.72751
707.03125	-3.20235	2.51212	-5.98008	13.55258
710.93750	-0.15339	0.09479	-2.35365	5.92982
714.84375	8.70058	-3.12839	4.09335	0.50841
718.75000	10.03334	-2.32227	4.49638	10.40982
722.65625	6.76336	-1.11317	-2.35331	6.17833
726.56250	6.78193	-1.51583	-5.17376	-4.24324
730.46875	6.60344	0.49921	2.88487	0.57834
734.37500	-3.22348	1.30540	8.92890	4.00271
738.28125	-6.41739	-3.12654	2.48209	-10.64083
742.18750	0.73119	-2.72329	0.87050	-9.46129
746.09375	5.77205	1.30629	4.49696	-0.32817
750.00000	6.85453	6.94757	2.88539	8.89693
753.90625	3.46265	1.70976	0.46788	9.94167
757.81250	6.25240	-1.91628	0.46801	5.02288
761.71875	14.84409	2.91917	1.67695	3.91482
765.62500	9.48668	1.71066	-0.74058	-0.88988
769.53125	0.18272	2.11390	0.06538	-0.95115
773.43750	0.13676	4.93469	2.88596	6.23162
777.34375	2.11346	0.90569	0.06557	9.45370
781.25000	6.81122	-1.51165	0.06565	5.21513
785.15625	7.85908	5.74136	1.27454	5.76020
789.06250	0.27493	6.14458	2.48334	0.84601
792.96875	-2.33707	0.10090	2.88636	-9.55239
796.87500	-1.10288	0.10116	2.48351	-10.64524
800.78125	-0.78613	-0.30151	4.09538	-10.79190
804.68750	5.33100	1.31052	1.67787	-9.78750
808.59375	1.88259	-1.10679	-2.35135	-8.68232
812.50000	-5.18382	0.10231	-7.58936	8.11426
816.40625	5.46789	3.32605	-6.78341	20.47658
820.31250	5.36501	-2.31472	-2.35104	3.84952
824.21875	-8.56284	-3.12028	-1.54510	-10.45773
828.12500	-1.85285	1.31224	5.30485	-3.34847
832.03125	7.69664	-0.70213	8.52840	2.41085
835.93750	9.73473	-2.71651	7.31968	9.73972
839.84375	5.13269	0.10425	8.52859	3.61335
843.75000	-3.18719	2.92504	10.54335	-0.27459
847.65625	-1.26772	3.73121	7.72290	9.99528
851.56250	-1.99132	1.31397	-0.73856	8.38493
855.46875	-4.02167	-2.31213	-4.76780	0.65808
859.37500	-3.08074	-6.74403	-1.94720	-1.01845
863.28125	-0.68848	-5.93791	2.88798	0.21946
867.18750	0.81359	-2.31129	4.49974	4.75495
871.09375	6.83420	-2.71388	2.48518	9.91232
875.00000	-1.15682	-2.31070	2.48526	14.58288
878.90625	-8.38428	-2.31043	5.70878	10.50785
882.81250	11.03671	-3.11602	6.11181	7.14831
886.71875	13.25404	0.51066	6.11189	20.01505
890.62500	-0.49561	4.54025	3.29149	17.05973
894.53125	2.20229	2.12293	1.67983	12.42527
898.43750	11.39354	-0.69728	7.72389	5.55854
902.34375	11.45575	0.91469	5.70933	5.20806
906.25000	11.47633	3.33260	0.06845	13.87213
910.15625	15.49116	-0.29349	7.32132	5.64502
914.06250	6.44719	-2.30788	8.12727	0.62682
917.96875	-3.37300	-1.09882	2.88925	2.67121
921.87500	6.62966	-2.71019	0.47171	2.86732
925.78125	6.36295	-1.09817	6.51572	3.65433
929.68750	-1.63076	0.11092	6.51582	-2.98243
933.59375	2.69990	0.91704	0.06907	7.38629
937.50000	4.13480	1.72319	-1.54260	13.12920
941.40625	3.42518	0.11181	-1.54248	2.55078
945.31250	1.94888	-2.30549	0.47227	2.25874
949.21875	-1.91141	-0.69343	1.27827	-1.17174
953.12500	3.43604	6.96248	5.71054	1.67152
957.03125	1.28250	2.93346	4.50182	-3.35973
960.93750	-2.57311	-3.51315	-1.54204	-2.18127
964.84375	7.50978	-2.30407	-1.54197	9.68957
968.75000	9.39969	-2.30378	-2.75069	1.80532
972.65625	7.02790	0.91997	-5.57108	-3.63104
976.56250	-0.24422	2.93491	-4.76515	0.34612
980.46875	-2.08116	-0.28823	-2.34747	-10.11399
984.37500	5.73025	-1.49675	-1.94443	-7.49186
988.28125	8.11757	-2.70522	-3.55609	3.93074
992.18750	13.05608	-3.51084	-5.16767	5.17135
996.09375	9.62610	0.92168	-6.77935	3.29347
1000.00000	-3.54508	5.75708	-7.18216	-10.76433
1003.90625	-4.98915	5.35446	-8.79381	-19.05941
1007.81250	4.71112	3.34013	-5.97315	-5.27358
1011.71875	15.86234	4.14629	-1.94375	10.74544
1015.62500	21.62185	6.96709	-4.36128	14.34390
1019.53125	24.47813	4.95273	-1.13779	16.01953
1023.43750	26.94091	3.34135	2.89158	20.92724
1027.34375	26.57520	6.16216	2.89172	22.13999
1031.25000	30.74124	6.16247	4.10069	19.93421
1035.15625	30.49848	4.95395	3.69785	18.58582
1039.06250	30.02327	6.96887	-1.54015	23.50246
1042.96875	30.21693	6.56626	-1.54001	23.42718
1046.87500	19.31155	4.55190	1.68357	15.65806
1050.78125	19.39701	6.56683	0.07199	17.82187
1054.68750	24.56112	4.95534	2.48965	28.90794
1058.59375	19.14420	3.74682	4.90738	30.22284
1062.50000	12.10728	5.76175	0.07236	18.66686
1066.40625	9.51337	3.34450	0.07249	13.55979
1070.31250	15.25654	6.16528	4.10193	14.87799
1074.21875	16.69267	6.16555	-0.33022	10.65284
1078.12500	10.78773	2.13653	-5.56821	1.93433
1082.03125	14.53410	4.95730	-5.56810	5.84774
1085.93750	10.07763	4.55468	0.07306	9.80321
1089.84375	8.63494	2.94320	10.54936	15.93209
1093.75000	15.74526	0.12299	13.36994	27.47822
1097.65625	12.61621	0.92913	5.31146	16.80784
1101.56250	14.54775	6.16752	-1.94117	11.57086
1105.46875	10.93622	6.57077	0.07361	12.04736
1109.37500	7.17394	6.16810	2.08837	9.29409
1113.28125	8.40722	0.93027	1.28262	9.67032
1117.18750	10.12781	-2.69579	0.47683	10.37533
1121.09375	10.55324	-0.68085	0.87988	12.47308
1125.00000	1.21735	-0.27768	-1.53758	-5.08884
1128.90625	-6.06151	-1.48620	2.49187	-9.87585
1132.81250	-0.09868	-1.08296	5.71541	7.18564
1136.71875	2.51837	-2.29149	3.70084	3.58869
1140.62500	-3.87925	-4.30587	4.10391	10.97874
1144.53125	-2.54852	-4.70847	6.92450	8.36285
1148.43750	-2.07022	0.12698	7.73044	-0.07936
1152.34375	-3.74492	1.73897	3.70127	6.72039
1156.25000	-2.55746	-4.30469	6.11896	2.08797
1160.15625	0.27674	-3.90146	4.10438	8.70573
1164.06250	0.05243	-1.48367	-3.14824	7.27933
1167.96875	-3.02187	-2.69214	-1.13345	1.61083
1171.87500	1.48024	0.12862	-1.13331	1.82004
1175.78125	1.34330	-0.27407	-1.13318	0.22940
1179.68750	-6.78107	-3.09430	3.29915	-3.20479
1183.59375	-7.08321	-1.07938	4.50800	-4.70661
1187.50000	-5.69838	0.93554	-0.32702	2.84954
1191.40625	0.65166	0.53291	-3.95328	-2.68688
1195.31250	-1.90207	2.14490	-3.95321	-8.03355
1199.21875	-10.53340	4.56279	-5.96780	-7.42129
1203.12500	0.23554	5.36892	-3.14727	-6.23292
1207.03125	5.20882	1.33992	-1.93842	-0.79637
1210.93750	1.00510	0.93725	-6.37057	-6.80774
1214.84375	-6.66101	2.54928	-7.57924	-13.43827
1218.75000	-1.70182	2.54959	-3.54981	-6.35764
1222.65625	4.69850	3.35573	0.88255	-7.76889
1226.56250	1.89656	3.75892	-3.54962	-11.74380
1230.46875	7.76202	4.16215	-2.74368	-13.36929
1234.37500	6.79961	3.75947	3.30044	-13.57158
1238.28125	-4.85593	2.95388	2.09175	-12.50112
1242.18750	-6.16890	1.74533	-1.13161	-4.87502
1246.09375	-4.35153	0.13389	-1.13151	0.63149
1250.00000	-2.46320	-2.68635	0.48030	-0.21685
1253.90625	-3.84038	-1.88020	-3.54887	0.82769
1257.81250	0.15822	3.76107	-5.16044	-1.27091
1261.71875	0.28839	0.53793	-1.13105	-3.99093
1265.62500	-5.47192	-5.10285	0.48071	-3.55774
1269.53125	-8.32886	-2.68495	0.88379	-10.46902
1273.43750	-4.34532	0.53878	1.68979	-18.19496
1277.34375	12.94279	0.13609	-3.14524	-6.10864
1281.25000	6.76146	-1.47540	-5.56272	0.93457
1285.15625	-10.32246	2.15129	0.88427	-4.56451
1289.06250	-16.69783	3.76325	3.70489	-4.24077
1292.96875	-17.29514	-2.68332	-0.32427	-9.80420
1296.87500	-13.24034	-7.92112	-2.74178	-10.49439
1300.78125	-14.53537	-7.11500	-5.15923	-5.80621
1304.68750	-17.68562	-1.87661	-4.75623	-4.39914
1308.59375	-13.88115	-0.26462	0.88491	-4.50304
1312.50000	-7.24794	-1.87603	4.51134	-1.00343
1316.40625	-6.26652	-2.27871	4.51146	1.68824
1320.31250	-9.19000	-7.51652	2.09402	-2.04542
1324.21875	-2.56841	-5.50156	0.07945	-3.45911
1328.12500	-3.91697	0.13978	0.48246	-3.60273
1332.03125	-8.87293	0.94589	0.88553	-0.26126
1335.93750	-5.22300	2.55791	-0.72615	1.82945
1339.84375	-3.37810	-0.66525	-2.74073	1.34387
1343.75000	-4.44511	-5.09722	-1.93477	5.91727
1347.65625	-2.52557	0.14116	-1.12888	3.69613
1351.56250	3.19787	0.14144	-2.74057	-5.57016
1355.46875	4.79404	-1.47002	-1.53167	-1.20934
1359.37500	7.34682	-2.27558	-2.74037	10.00767
1363.28125	12.55973	-6.70752	-2.33732	6.00738
1367.18750	8.42090	-4.28972	-1.12843	10.13978
1371.09375	5.57718	0.14280	-3.94884	12.47651
1375.00000	0.80974	-1.46872	-2.33708	-2.99972
1378.90625	-8.43228	-1.87136	1.69231	-6.67207
1382.81250	-6.74010	-0.66231	3.70703	2.05621
1386.71875	-0.89627	-1.87086	0.08075	-2.00039
1390.62500	1.47139	-3.48238	-2.33672	-8.98530
1394.53125	-0.30627	-1.04179	-1.53076	-4.39168
1398.43750	-6.50315	2.23863	-1.53064	1.59652
1402.34375	2.23467	-0.35874	-4.35101	-1.23880
1406.25000	10.78933	-0.93947	-3.14210	-12.46503
1410.15625	7.39490	3.68457	-0.72447	-12.26265
1414.06250	-0.32938	2.91461	-2.73905	-4.92790
1417.96875	-0.37937	-0.60754	-2.73897	-6.83390
1421.87500	-1.71942	0.50449	-1.93299	-5.91261
1425.78125	-6.70762	0.73837	-2.73882	-5.80195
1429.68750	-1.93309	4.47945	2.90235	-2.46931
1433.59375	1.68226	5.66347	7.33473	7.43685
1437.50000	-2.60009	0.96885	2.90261	6.13049
1441.40625	-2.79426	2.16593	0.88808	11.99722
1445.31250	-0.50909	4.03267	-0.32060	10.90799
1449.21875	0.71589	0.45007	0.08244	-1.98085
1453.12500	1.68197	-7.29925	1.29132	0.46197
1457.03125	-1.08152	-3.91083	3.30608	5.83642
1460.93750	-7.01910	0.99813	5.32082	-0.69124
1464.84375	-6.86477	0.48030	2.90329	-2.62378
1468.75000	-2.39232	2.47556	0.88868	11.76477
1472.65625	3.68120	2.30633	3.70924	11.61373
1476.56250	-0.26318	-0.33703	6.12695	1.95130
1480.46875	-4.71115	3.84981	2.50066	-3.68077
1484.37500	0.02798	0.55575	-1.12556	-2.06959
1488.28125	1.63329	-4.75572	0.88920	-2.73484
1492.18750	4.84237	-0.97626	0.88927	-6.65904
1496.09375	5.89021	-4.02290	-0.31943	-5.12442
1500.00000	8.57324	-4.18787	0.08364	-3.01134
1503.90625	11.72448	0.63112	-0.31923	-0.31763
1507.81250	7.55510	0.91701	-4.34847	-0.35162
1511.71875	5.95519	3.00075	-5.55718	1.64526
1515.62500	2.05617	4.37343	-1.93065	5.15495
1519.53125	2.22026	1.46317	-1.93056	6.15548
1523.43750	-0.36609	-1.30990	-1.93047	1.83237
1527.34375	0.06445	2.57001	2.90478	-2.43962
1531.25000	6.19842	1.34488	4.91950	-6.59167
1535.15625	-2.10766	-3.35150	2.90495	-10.32818
1539.06250	-3.21372	-0.14925	5.32268	-2.36844
1542.96875	-1.57435	4.80463	1.69640	1.56570
1546.87500	-6.73111	2.62005	-6.36205	-2.95334
1550.78125	0.31983	-1.51065	-0.31797	0.45673
1554.68750	5.06883	1.00884	5.32317	4.02537
1558.59375	-4.90416	-0.96684	-1.92949	-0.77972
1562.50000	-3.16484	-6.81456	-4.74995	-2.32087
1566.40625	2.48722	-3.36610	-1.52645	10.19727
1570.31250	-1.61958	0.47894	-3.94392	10.69789
1574.21875	4.63213	0.13012	-2.33213	6.70836
1578.12500	2.79165	-0.18317	2.10023	10.51930
1582.03125	0.92323	-4.33727	-3.54071	5.89283
1585.93750	8.38866	-7.73413	-5.55525	1.15502
1589.84375	2.38429	0.06137	3.30935	1.56465
1593.75000	-0.61399	2.07240	6.93581	-2.68769
1597.65625	5.77012	0.18734	1.69782	0.09992
1601.56250	1.43855	2.96774	0.08626	10.90096
1605.46875	-2.31191	-0.00912	0.89226	15.45476
1609.37500	5.07058	0.05755	0.89240	18.18214
1613.28125	9.86253	2.00229	2.10131	10.88638
1617.18750	9.26599	-0.25717	-1.52495	6.64232
1621.09375	4.84304	0.19104	-7.16578	11.49997
1625.00000	7.06577	-1.14499	-5.55395	7.57027
1628.90625	5.22452	-2.35306	1.69890	8.57069
1632.81250	1.39218	-2.89941	8.54887	7.93761
1636.71875	1.99109	-3.93378	8.14605	3.95421
1640.62500	1.47971	1.03131	4.92271	2.05324
1644.53125	-1.33883	6.18276	6.93749	-0.73543
1648.43750	-2.79814	4.91753	4.52005	1.33688
1652.34375	-0.65755	3.48614	-0.71790	0.14484
1656.25000	2.87514	4.47036	-0.71776	-2.72947
1660.15625	0.22507	6.29368	-3.94104	4.72582
1664.06250	-0.10976	5.85536	-7.16443	9.88389
1667.96875	10.01290	5.34875	-5.14974	-3.51945
1671.87500	11.75528	4.23734	-3.53796	-7.66223
1675.78125	2.64032	5.61570	-3.53784	-3.33866
1679.68750	9.14727	7.11327	-1.12011	-3.44582
1683.59375	8.75483	1.49758	0.08883	-2.47089
1687.50000	2.96340	2.16354	2.10359	0.04624
1691.40625	10.81270	3.78744	0.08907	1.03134
1695.31250	12.55637	2.32424	-6.76065	4.13727
1699.21875	10.52498	3.08690	-11.19273	10.58120
1703.12500	7.94669	4.38989	-7.96926	14.18428
1707.03125	9.90381	1.00202	-3.93982	17.27340
1710.93750	11.40852	-3.50349	0.08959	22.99703
1714.84375	10.04481	-0.16465	2.10439	22.91677
1718.75000	6.37757	2.27283	2.50743	16.99163
1722.65625	4.73562	0.02506	2.91052	7.47416
1726.56250	5.05290	0.65433	3.71652	5.45348
1730.46875	9.50029	2.91495	2.10493	9.07272
1734.37500	28.53342	4.19493	-0.71557	23.58059
1738.28125	12.42193	1.85129	-2.32718	19.00968
1742.18750	-21.00748	1.69883	-2.73005	-24.61006
1746.09375	-29.71162	0.71667	-7.96808	-43.46888
1750.00000	-34.00696	-3.14710	-11.99725	-37.92453
1753.90625	-41.99404	-7.56270	-5.95307	-43.43694
1757.81250	-51.12203	-7.84807	-7.96762	-59.92128
1761.71875	-55.56676	-8.31957	-9.57917	-61.91635
1765.62500	-57.30950	-16.13864	-5.54973	-58.57438
1769.53125	-54.65371	-15.24248	-0.31151	-55.14087
1773.43750	-52.87373	-11.26006	2.50907	-53.63640
1777.34375	-53.70794	-12.31894	-4.34068	-63.46516
1781.25000	-50.57512	-10.28745	-6.75825	-59.31127
1785.15625	-42.67264	-8.41103	-6.35523	-45.09670
1789.06250	-38.74675	-11.61266	-7.96687	-42.98133
1792.96875	-33.13400	-13.74555	-8.36963	-38.45208
1796.87500	-27.17190	-11.15757	-0.71389	-25.06668
1800.78125	-29.38825	-9.44386	3.31554	-19.20761
1804.68750	-31.72020	-10.75406	1.30099	-12.29839
1808.59375	-24.97124	-11.19543	-3.93701	-20.38530
1812.50000	-21.07005	-7.36174	-3.93693	-24.08041
1816.40625	-26.31968	-3.15399	-0.71346	-14.83852
1820.31250	-23.82514	-1.76038	-1.11623	-19.76956
1824.21875	-15.16902	-4.23155	-5.95120	-14.16654
1828.12500	-19.37299	-8.34994	-7.56279	-11.12598
1832.03125	-15.49037	-8.22462	-0.30995	-18.18271
1835.93750	-4.01855	-4.02145	-0.30987	-19.48694
1839.84375	-7.68507	-4.56360	-3.13028	-18.28313
1843.75000	-11.13413	-5.36535	-0.71268	-14.43202
1847.65625	-3.01326	-2.67393	0.09335	-9.15926
1851.56250	-3.51741	-1.02147	-2.32410	7.03773
1855.46875	-8.63191	-0.86458	-7.15915	-3.55828
1859.37500	-4.73293	-2.54238	-9.17371	-17.16306
1863.28125	4.98002	-2.06904	-1.92086	-8.65677
1867.18750	5.17315	-0.61489	7.34667	-4.81392
1871.09375	-2.89528	1.35494	9.76434	-0.80531
1875.00000	1.73124	3.49737	2.10879	-3.72373
1878.90625	2.76610	5.91475	-0.30874	-1.09610
1882.81250	0.55387	6.86460	-6.75553	-2.87880
1886.71875	-0.04557	1.45253	-9.57591	-7.75807
1890.62500	-1.14645	-0.69147	-0.71135	-5.45239
1894.53125	-2.35782	0.60449	2.10935	0.96434
1898.43750	-2.91360	1.06441	1.30367	6.54946
1902.34375	-5.05479	-0.72718	-1.51674	2.10221
1906.25000	-3.75284	2.72138	2.10976	2.96362
1910.15625	-2.31208	4.52494	11.78014	5.58332
1914.06250	-5.20115	-1.48309	3.31876	0.42697
1917.96875	-6.05704	-0.97596	-7.56031	-5.50863
1921.87500	-7.39703	3.76243	-7.96317	-9.01985
1925.78125	-6.74414	3.59330	-3.93366	-6.49187
1929.68750	-5.59591	1.29039	-1.91885	-4.77114
1933.59375	-6.81576	2.07147	-2.72464	-8.16186
1937.50000	-2.63660	-1.01157	-1.91864	-1.81269
1941.40625	-2.83081	-1.02325	-2.32148	0.02449
1945.31250	-5.78378	0.44055	-6.35065	-12.34705
1949.21875	5.11145	2.90186	-6.75348	-8.71600
1953.12500	10.50966	6.43452	-1.51524	0.57639
1957.03125	7.74611	6.59941	0.49955	6.75634
1960.93750	7.04666	5.86728	-4.33549	13.52527
1964.84375	6.39513	2.12599	1.70856	11.59260
1968.75000	3.61486	-1.11684	10.17022	9.46078
1972.65625	0.82402	-4.10663	4.93224	4.47436
1976.56250	1.71497	-3.52654	0.50010	8.51134
1980.46875	10.16074	-0.95147	-0.30564	12.54941
1984.37500	13.69121	1.79837	-1.91721	6.90769
1988.28125	6.02925	-0.69258	2.91805	17.12128
1992.18750	-0.83480	-0.53955	3.32112	11.98809
1996.09375	-3.41321	2.45781	-1.11103	-8.63862
2000.00000	-1.13310	0.27815	-1.91680	0.32417
2003.90625	-7.65205	-2.96141	2.11261	-5.44373
2007.81250	-9.40373	0.14503	2.51561	-13.93949
2011.71875	0.68132	0.21411	0.50103	-7.10762
2015.62500	-4.02355	-4.86010	2.91872	-3.59826
2019.53125	-13.52978	-0.51762	1.71004	-7.03023
2023.43750	-11.68402	3.15621	1.30727	-5.30962
2027.34375	-8.83592	0.99214	0.09862	-1.52321
2031.25000	-3.50786	-0.63599	-1.11004	7.62129
2035.15625	5.10910	-2.10896	-2.72169	6.70507
2039.06250	10.85289	-0.11554	-2.72160	1.77082
2042.96875	7.25415	2.82371	-0.30391	6.91344
2046.87500	1.29144	3.86258	-3.12433	-4.05271
2050.78125	2.29842	3.76119	-3.52719	-6.28397
2054.68750	0.19757	2.25139	0.90518	11.79002
2058.59375	-4.13435	-0.53017	-0.30350	6.17883
2062.50000	-4.00676	-3.96038	-6.34734	-9.06212
2066.40625	-4.39864	1.90567	-5.13846	5.47048
2070.31250	-15.35529	3.33307	-2.72086	8.38847
2074.21875	-15.14758	-5.47734	-3.12367	-0.83938
2078.12500	-9.33244	-5.79066	-1.10892	-1.46081
2082.03125	-9.58904	-2.28906	1.30878	-0.84936
2085.93750	-6.15284	-2.05950	2.92059	-3.57270
2089.84375	-0.47207	-5.94905	-3.12325	-6.78959
2093.75000	2.97666	-4.34088	-6.74958	-7.81856
2097.65625	-6.75626	0.62398	-1.91431	-11.07497
2101.56250	-17.93752	-0.22199	-4.73479	2.14356
2105.46875	-20.07619	-3.60182	-7.15221	-11.83760
2109.37500	-17.12586	-2.72934	-2.71989	-22.40700
2113.28125	0.96288	3.64760	-2.31685	-5.93002
2117.18750	4.79859	4.61161	-1.51087	3.52539
2121.09375	-3.25061	3.44818	3.32449	9.99455
2125.00000	-5.86290	2.91803	1.71283	5.25891
2128.90625	-4.07764	2.51583	-1.10755	-0.59064
2132.81250	-1.46299	4.38707	-4.73382	-0.01511
2136.71875	-6.50511	3.35271	-9.16585	-0.77522
2140.62500	-5.80764	2.27381	-2.71887	0.54710
2144.53125	-0.16460	2.18719	-1.50997	-3.85343
2148.43750	-4.44441	2.13076	-0.70401	-7.42229
2152.34375	-10.76527	-0.10647	8.96649	-3.37641
2156.25000	-9.24733	-2.34570	8.96662	1.80766
2160.15625	-4.64473	-1.73119	7.75791	3.21874
2164.06250	-7.39719	-4.18415	6.14633	4.75028
2167.96875	-6.94488	-3.07898	-2.31508	6.25519
2171.87500	-5.20246	1.85350	-0.30031	0.90342
2175.78125	-7.46762	0.00844	2.92326	-1.62306
2179.68750	-9.42221	-2.52326	0.10284	5.92525
2183.59375	-2.15900	-0.08039	-5.94102	3.67652
2187.50000	0.91402	3.40605	-4.73221	-2.26818
2191.40625	-4.13048	2.61242	3.32650	-0.07452
2195.31250	-6.01337	-0.46255	4.13246	-0.19233
2199.21875	-10.46234	-2.92343	4.53550	-4.22480
2203.12500	-10.62303	-6.05264	8.16203	-7.47168
2207.03125	-1.01030	-2.99359	10.98265	-2.36815
2210.93750	2.91207	0.55956	7.75932	-5.10632
2214.84375	-1.67514	-1.74257	0.50669	-7.20145
2218.75000	4.32797	1.09785	-5.13423	-2.24763
2222.65625	8.32703	2.47638	-5.53711	-3.70659
2226.56250	-3.04059	1.89680	-1.50769	0.31653
2230.46875	-5.44301	-0.27484	2.11885	11.99419
2234.37500	-7.76515	-6.24761	-0.70158	-4.12088
2238.28125	-14.20629	-6.17369	2.92492	-15.13899
2242.18750	-5.32812	-3.50569	8.16312	-4.76627
2246.09375	-2.75013	-2.47320	3.32811	-8.31396
2250.00000	-10.67177	-1.50182	4.93988	-10.02256
2253.90625	-8.98833	-0.67928	1.71650	-3.85012
2257.81250	-8.44597	1.05001	-5.93901	-3.81441
2261.71875	-14.90516	1.78731	-8.75943	-8.22719
2265.62500	-13.42431	0.01219	0.10520	-4.48235
2269.53125	-3.51569	-2.31513	3.73169	4.59201
2273.43750	0.27895	-3.16792	0.50836	0.85816
2277.34375	-2.97271	-3.82383	3.32902	-10.17950
2281.25000	-5.88380	-2.59819	2.92615	-8.04037
2285.15625	-12.48674	-1.52770	-3.11771	-3.49630
2289.06250	-12.59006	-4.32640	-5.53520	-6.61917
2292.96875	-4.15682	-4.44464	-3.52045	-3.70175
2296.87500	-2.62699	-1.45373	3.32948	0.41603
2300.78125	-0.00824	-4.17234	6.15007	3.85744
2304.68750	-4.75778	-5.07961	0.50914	2.70796
2308.59375	-11.30552	-3.10339	-2.31124	3.48546
2312.50000	-4.98676	-2.89614	-3.11697	6.63996
2316.40625	-3.78958	-0.70310	-1.90806	2.58496
2320.31250	-9.75664	-2.13001	1.71838	1.68299
2324.21875	0.10832	-4.19829	5.34490	-2.78741
2328.12500	3.55999	-6.30207	4.13622	-4.17910
2332.03125	-4.24235	-4.16214	-4.72813	0.44909
2335.93750	-6.47007	-1.57068	-6.33965	5.18882
2339.84375	-9.33065	-2.11287	2.52494	-2.47178
2343.75000	-7.13870	-0.49705	4.94267	-15.54371
2347.65625	-3.85292	-0.62620	-2.71288	-19.53827
2351.56250	0.07531	2.23503	0.10781	-11.39985
2355.46875	-0.20389	4.00354	4.94306	0.56832
2359.37500	0.87469	-0.09183	0.91387	2.27490
2363.28125	2.12614	-0.42437	-4.32414	1.91677
2367.18750	-2.11293	-1.79083	-2.30937	3.74498
2371.09375	-1.71971	0.17905	-1.90625	1.70970
2375.00000	0.48931	5.54488	-1.90610	-1.61164
2378.90625	-0.08764	3.93296	6.15263	-3.41616
2382.81250	0.92361	1.25638	5.34689	0.03926
2386.71875	2.74185	0.67950	-3.51749	6.84495
2390.62500	-1.17945	0.55014	-0.29391	4.31542
2394.53125	0.42970	1.84607	3.73551	-2.56461
2398.43750	3.90322	2.30598	-0.29369	-3.42646
2402.34375	1.35920	2.12614	-0.29357	6.22873
2406.25000	8.30223	-0.87214	-2.71106	5.88130
2410.15625	11.75774	-3.50085	-4.32261	-1.97520
2414.06250	11.68909	-0.64440	2.12443	-1.89355
2417.96875	4.38631	-0.13726	5.34800	-2.99416
2421.87500	-1.38596	-2.65166	7.36277	-4.08785
2425.78125	0.87869	-0.40317	4.94526	2.06644
2429.68750	-5.22585	0.92030	0.91604	3.78702
2433.59375	0.00126	3.31308	-2.71031	4.02249
2437.50000	4.98636	5.87111	-3.11311	0.29824
2441.40625	0.76279	5.45648	0.51335	-8.34096
2445.31250	0.63037	2.48801	-7.14219	-7.01302
2449.21875	-0.56230	0.51704	-9.15671	-0.56162
2453.12500	3.22424	2.03507	1.31964	5.10425
2457.03125	-2.76275	-0.62051	2.12564	-2.81839
2460.93750	-8.29733	-6.59074	1.72284	-8.13741
2464.84375	-2.09902	-6.70566	4.14059	-5.23503
2468.75000	-0.04414	-3.90457	2.93190	-5.75521
2472.65625	1.59716	-1.25332	1.72319	-6.30943
2476.56250	-5.97352	0.93849	2.93212	3.36838
2480.46875	-12.43614	3.91650	0.11172	-0.24932
2484.37500	-12.12918	0.21943	-6.73805	-7.90582
2488.28125	-4.88283	-0.65984	-7.14084	-0.51276
2492.18750	2.35565	1.10493	0.11205	-3.22846
2496.09375	-1.02868	0.47586	4.54436	-2.50006
2500.00000	0.84843	3.13138	0.91809	0.82160
2503.90625	7.22313	3.51813	-1.09650	0.29156
2507.81250	1.84504	-0.22529	3.73874	-5.78675
2511.71875	-0.56072	-1.76800	4.94766	-7.41649
2515.62500	3.19594	0.41057	1.72428	2.53975
2519.53125	-1.87812	0.72371	2.93315	9.18089
2523.43750	-4.46453	-0.43764	-1.90189	-2.39542
2527.34375	-4.83983	-1.79592	-3.91642	0.98789
2531.25000	-5.55568	-3.42397	4.54519	5.29694
2535.15625	-2.98267	-4.09109	-0.69280	-6.49865
2539.06250	-5.29759	-2.90359	-4.72201	-10.22437
2542.96875	3.19158	0.03568	-0.28964	3.37974
2546.87500	5.69051	5.10393	-3.11001	15.38044
2550.78125	-6.19636	4.19665	-5.12455	14.35787
2554.68750	-5.07383	-0.13374	0.51656	3.01775
2558.59375	2.27920	-1.70650	4.94891	-0.17600
2562.50000	2.40668	-2.71911	-2.70670	2.71467
2566.40625	-6.04388	-2.89703	-3.10948	0.72696
2570.31250	-2.09214	-1.06670	3.33755	-3.20503
2574.21875	5.36837	2.21081	1.32297	5.29585
2578.12500	-7.75418	0.28576	2.93471	11.12106
2582.03125	-6.39922	-0.64490	0.92019	8.91181
2585.93750	6.30427	3.21102	-1.90016	4.57650
2589.84375	5.53802	-0.67857	-2.30297	0.55352
2593.75000	0.92800	-4.30853	-6.33213	-4.10204
2597.65625	-1.14941	-3.37299	-3.91440	-2.92647
2601.56250	-0.64578	0.21319	2.12965	-1.79599
2605.46875	-2.38164	2.07151	2.53262	-8.92749
2609.37500	-1.04311	1.33222	-2.70539	-9.02092
2613.28125	0.12248	1.66525	-5.52576	-1.81155
2617.18750	-4.50344	0.21168	-4.31680	-2.83249
2621.09375	-9.32927	-1.35467	-1.89907	-5.22803
2625.00000	-15.56803	-1.88483	3.74201	0.10933
2628.90625	-11.76819	-2.69003	3.33921	7.55627
2632.81250	-5.52713	-3.63936	-0.69001	19.41363
2636.71875	-2.91353	-2.25606	-1.09275	19.45920
2640.62500	-4.63367	-0.91745	-6.33075	4.66411
2644.53125	-6.64626	-1.80992	-7.53947	2.27816
2648.43750	-2.06167	-1.46349	-1.09248	7.57357
2652.34375	2.49650	2.34326	0.92227	-2.88625
2656.25000	3.20859	4.93915	4.54869	-0.92575
2660.15625	-3.47085	2.33019	5.75758	4.51452
2664.06250	1.02941	1.48894	2.93721	1.61363
2667.96875	6.31705	4.20575	3.34032	2.71538
2671.87500	7.65656	3.90006	0.51993	5.82502
2675.78125	12.24119	1.24907	-1.89749	9.74540
2679.68750	-0.99542	1.94078	-1.89743	1.57924
2683.59375	-5.82004	1.96605	-1.89734	7.79197
2687.50000	2.49106	1.42316	-4.71777	10.30871
2691.40625	3.08764	0.62945	-5.92638	8.07001
2695.31250	-1.21271	-2.04261	-1.09111	11.57851
2699.21875	-2.03532	-0.47414	3.74419	6.33709
2703.12500	-5.82243	-1.99169	3.74434	6.31348
2707.03125	-7.49168	-7.39421	3.34159	4.97001
2710.93750	-0.34580	-2.63230	4.95344	8.67867
2714.84375	9.16957	7.15342	6.16241	17.86551
2718.75000	11.54635	4.75568	6.96840	9.52250
2722.65625	8.69566	2.91081	3.34221	3.22828
2726.56250	8.20715	2.73412	4.55109	7.25131
2730.46875	4.19298	0.96540	2.13368	11.27315
2734.37500	-2.15854	2.24537	-2.70139	14.09570
2738.28125	-0.94403	-1.71008	0.11927	15.16544
2742.18750	5.11360	-4.28016	6.56623	7.40612
2746.09375	6.48276	-0.83012	6.56636	6.67886
2750.00000	5.81386	1.34998	5.76065	3.76134
2753.90625	8.30297	2.97837	6.16378	4.69546
2757.81250	6.02474	2.69295	5.35811	1.91050
2761.71875	1.98310	-0.19617	0.92600	-3.30843
2765.62500	-0.16251	1.65503	-3.10317	-1.57849
2769.53125	-3.95362	2.14827	1.73211	8.30159
2773.43750	-7.41170	1.29547	4.55271	8.99986
2777.34375	-7.03697	1.84835	5.35873	-3.24677
2781.25000	-3.09825	2.67105	3.74708	-1.10789
2785.15625	-0.83679	2.93571	-3.10263	3.83893
2789.06250	2.68615	2.95748	-7.13181	5.55105
2792.96875	-2.98312	1.22751	-3.10234	4.84191
2796.87500	-3.06496	0.99497	-0.68464	-0.30779
2800.78125	5.19483	2.70856	3.34488	-5.32807
2804.68750	6.89222	0.59250	0.12157	-3.65727
2808.59375	0.74735	-0.65481	-3.90760	1.14930
2812.50000	3.43970	4.38763	1.73352	3.49772
2816.40625	6.65147	4.56604	4.15123	2.66600
2820.31250	-4.55367	3.13912	4.55424	1.76387
2824.21875	-4.35908	4.69722	4.15146	4.94896
2828.12500	-1.71335	2.99634	3.34574	8.79505
2832.03125	0.55741	4.73332	-1.89225	6.97605
2835.93750	3.56756	6.51889	-3.90683	5.67141
2839.84375	-4.53130	3.15617	-1.48920	8.48667
2843.75000	-3.14536	0.33970	1.73439	1.05544
2847.65625	7.39297	4.23984	9.79311	1.49270
2851.56250	4.87416	3.47458	1.33170	5.60151
2855.46875	5.40055	-3.21838	-7.53269	8.70480
2859.37500	3.25554	-0.06102	-0.68272	1.94958
2863.28125	-7.58104	1.21813	2.94385	-4.85569
2867.18750	-16.65541	-4.17757	0.52637	-2.62491
2871.09375	-12.63606	-0.19311	0.12358	-5.46644
2875.00000	-6.39795	3.96386	0.92956	-5.56468
2878.90625	-5.36330	1.14316	1.73553	-3.74315
2882.81250	-8.78439	1.28705	-1.89068	-5.92900
2886.71875	-8.57811	1.91896	-2.29347	-7.98814
2890.62500	-10.08212	-2.23974	4.15359	-3.66820
2894.53125	-12.09955	-3.36147	2.54198	-8.93685
2898.43750	-5.80568	-5.72209	-1.08421	-15.84291
2902.34375	-9.55867	-9.52828	2.13940	-8.20261
2906.25000	-11.48031	-5.67684	2.54243	-3.71518
2910.15625	1.24244	0.15605	0.12503	-2.70753
2914.06250	5.20303	-2.62855	0.12519	-6.65535
2917.96875	-2.09993	-3.73318	1.73703	-8.56196
2921.87500	-4.64887	-0.60657	4.15476	2.83488
2925.78125	-2.38437	-1.98447	-0.27736	11.80935
2929.68750	-1.23622	0.95069	-8.33580	8.29160
2933.59375	-0.03849	0.92583	-3.09753	0.87121
2937.50000	7.76705	-0.94845	3.75245	2.38487
2941.40625	7.16975	4.68085	5.36436	6.23627
2945.31250	3.00778	5.74158	7.37915	-2.10645
2949.21875	3.42667	3.77068	3.75285	-1.69927
2953.12500	5.60136	2.46817	-1.08224	-2.88358
2957.03125	8.88157	1.02134	-1.88802	-4.35971
2960.93750	-0.68263	3.91551	-5.11135	-0.00888
2964.84375	-4.96073	6.21808	-10.34934	-3.15082
2968.75000	3.13801	6.60157	-6.31994	-1.65661
2972.65625	8.00261	5.22348	1.73876	3.42979
2976.56250	3.25233	1.77420	1.33596	-0.18927
2980.46875	2.83350	2.73750	2.94776	-2.59842
2984.37500	5.96081	4.27847	5.36546	-10.25512
2988.28125	-3.31298	1.38451	-3.49893	-13.33855
2992.18750	-1.31272	-0.88005	-7.93107	-3.56368
2996.09375	1.74967	-5.53847	-10.34851	-5.65589
