 	TP9	AF7	AF8	TP10	
-1000.00000	-4.45396	2.18147	6.68789	-6.42477
-996.09375	-2.99701	4.19610	6.68788	-8.91351
-992.18750	-10.67901	-4.66842	-0.96784	-11.21048
-988.28125	-10.84823	-8.69771	-11.44406	-14.43055
-984.37500	-9.89327	-5.07134	-14.26457	-12.68320
-980.46875	-2.62552	-1.84794	3.86730	-9.10064
-976.56250	-0.70725	-4.66858	12.32876	-7.63739
-972.65625	-2.25062	-3.45986	9.50822	-10.90877
-968.75000	-3.75464	-5.07162	7.09057	-8.65555
-964.84375	-5.26550	-4.66879	-1.77386	-8.06152
-960.93750	-0.86461	1.77809	-2.98261	-15.02134
-957.03125	2.27944	2.58391	-2.57967	-10.43455
-953.12500	0.53093	-1.04250	-7.41490	-8.19740
-949.21875	-8.64384	-2.25133	-2.17675	-12.91462
-945.31250	-10.63418	1.37507	2.65853	-12.67219
-941.40625	-1.17193	2.98671	2.25556	-8.46635
-937.50000	-0.48812	2.18080	5.88192	-6.82986
-933.59375	5.70718	2.58368	6.28479	0.54278
-929.68750	3.08437	2.58367	3.86730	-2.63365
-925.78125	-6.24457	5.40424	1.85274	-6.76877
-921.87500	-1.92036	-0.63977	-3.78830	-1.11503
-917.96875	1.06285	-3.46026	-2.57958	2.37113
-914.06250	5.20376	-1.84850	0.24080	-2.42303
-910.15625	12.48287	1.37493	-4.99736	-4.81317
-906.25000	8.71926	7.01589	-4.59441	-3.24159
-902.34375	4.15912	5.00121	-1.77394	3.41338
-898.43750	0.48638	2.98653	-4.19157	4.67915
-894.53125	0.21410	3.38946	-4.19156	3.85197
-890.62500	2.61691	2.98650	1.85243	13.98487
-886.71875	6.46228	6.61278	10.31386	18.05809
-882.81250	8.21858	4.59803	11.11972	10.76626
-878.90625	8.66548	-2.25180	2.65807	0.49950
-875.00000	9.25880	2.98626	4.67257	1.63380
-871.09375	6.91662	9.03014	0.64321	1.77674
-867.18750	5.52473	0.97145	-7.41545	-5.72569
-863.28125	3.42517	-0.64043	-5.40076	-5.23998
-859.37500	3.44497	3.38887	-9.43011	-3.71745
-855.46875	2.10546	0.97127	-2.98316	-2.23181
-851.56250	-6.06144	2.58292	3.86670	-6.38868
-847.65625	-9.40197	0.97118	-4.99785	-3.67699
-843.75000	-4.56367	1.77698	-0.96864	0.93201
-839.84375	0.14463	5.00032	5.07523	2.10554
-835.93750	2.91902	-0.23785	3.86645	11.18926
-832.03125	2.75156	-1.84959	1.04588	12.44933
-828.12500	0.76696	0.97084	-5.40097	3.65420
-824.21875	3.20606	-2.65562	-7.81857	3.09770
-820.31250	0.78992	-2.25272	-1.77461	8.70583
-816.40625	-1.20242	1.77653	-0.96874	6.03376
-812.50000	8.76131	-0.64109	1.04587	-1.75207
-808.59375	10.24240	-4.67039	7.89571	-7.90940
-804.68750	4.18528	-4.67041	5.47814	-7.60143
-800.78125	0.96055	-2.25286	2.65763	0.77790
-796.87500	1.41852	-0.64120	1.44876	6.87850
-792.96875	-2.15250	-1.04415	-0.16311	3.78391
-789.06250	-7.97740	-1.04421	-2.98367	3.53381
-785.15625	-3.62761	-0.23841	-7.01294	-0.94170
-781.25000	2.28151	-2.25309	-4.19244	-6.36192
-777.34375	2.71874	-2.65609	0.64276	-8.43909
-773.43750	1.01899	-3.05903	1.44859	-1.97521
-769.53125	4.12276	-1.85028	3.46325	5.34264
-765.62500	2.34363	-2.25324	5.07501	2.93454
-761.71875	-0.87318	-4.26788	6.28383	7.43930
-757.81250	2.69608	-3.05909	3.46328	5.20956
-753.90625	2.54498	0.56726	-0.16312	4.33462
-750.00000	3.82291	1.37315	0.64283	12.01852
-746.09375	5.99182	-1.44744	2.65746	12.89501
-742.18750	-5.66732	-4.67090	-3.38656	4.31241
-738.28125	-13.96030	-3.46210	-7.01301	2.69681
-734.37500	-6.45431	0.56720	0.64266	5.78416
-730.46875	6.82680	2.98480	3.46312	7.43917
-726.56250	9.74314	2.98484	4.67188	3.96060
-722.65625	2.01861	0.97020	4.67183	4.81390
-718.75000	9.16319	3.38775	1.04545	10.21597
-714.84375	16.31448	4.19356	-1.77500	5.18933
-710.93750	12.71906	-3.46220	-2.58082	0.46379
-707.03125	7.15698	-1.44763	-0.16327	-6.13804
-703.12500	6.48731	7.01390	5.47779	-3.94336
-699.21875	4.37956	2.17873	3.86610	-2.44998
-695.31250	-1.68931	0.56697	-4.19259	-3.49866
-691.40625	-2.69052	4.59628	-3.38671	-3.67561
-687.50000	0.25135	6.61093	1.85134	-0.88038
-683.59375	0.09955	4.59626	-2.17804	-3.41844
-679.68750	6.75110	1.37284	-7.01313	-3.86888
-675.78125	11.24424	4.99914	-0.56614	-4.97225
-671.87500	8.93414	7.01376	2.65734	-6.19429
-667.96875	11.18841	6.61075	7.08948	-1.62236
-664.06250	9.06154	4.99901	7.89528	-4.48443
-660.15625	13.06383	3.79020	4.26883	1.12863
-656.25000	12.79760	0.96964	1.85133	7.21213
-652.34375	4.46331	-1.44798	-5.80429	5.39188
-648.43750	0.47975	2.17847	-4.19255	-0.70958
-644.53125	-0.05436	4.99895	-2.17788	-0.28583
-640.62500	4.79488	4.19303	-6.61008	1.26569
-636.71875	7.39576	6.20764	2.25432	0.01238
-632.81250	3.62418	3.38717	8.29822	0.05089
-628.90625	1.56494	-1.85088	5.07474	-2.17375
-625.00000	1.37375	-5.88017	-3.38678	-1.29393
-621.09375	3.31232	-3.05967	-4.99857	-0.22864
-617.18750	9.13561	0.16380	-3.78978	8.48207
-613.28125	14.45789	3.38729	-0.96926	18.87493
-609.37500	11.61692	3.38728	3.06002	14.93418
-605.46875	2.47959	-4.67139	-7.81913	5.79233
-601.56250	-1.84496	-6.28307	-3.38693	9.94865
-597.65625	-0.92255	1.37261	7.89509	8.44524
-593.75000	-2.53810	2.98431	3.86582	6.65630
-589.84375	-8.45587	-3.46259	-1.37228	2.25892
-585.93750	-8.41049	-5.88014	0.23938	0.02458
-582.03125	-7.43782	-3.46260	-0.96939	11.65792
-578.12500	-5.45373	-1.85084	-3.78980	18.43808
-574.21875	-1.84939	-0.23917	2.65709	19.80003
-570.31250	2.17788	-0.23921	2.25408	12.98272
-566.40625	11.82541	1.37252	-5.80457	12.43111
-562.50000	5.08470	1.77543	-5.80464	19.00790
-558.59375	-7.27602	-5.07436	1.04511	12.27122
-554.68750	-2.42819	-4.67147	4.26856	7.93367
-550.78125	-0.81560	-1.04509	-3.38709	7.20962
-546.87500	-2.07992	-5.07439	-1.77542	16.41996
-542.96875	0.68469	-8.29780	1.04512	20.32007
-539.06250	3.68853	1.77546	3.05980	14.52585
-535.15625	0.14393	5.40183	2.25396	8.52465
-531.25000	3.09869	0.56663	-2.98410	6.28879
-527.34375	4.67548	1.77541	-3.38703	10.78318
-523.43750	7.18049	2.17834	-2.98422	9.15402
-519.53125	11.73177	2.98416	-7.41648	8.28265
-515.62500	4.64574	0.16365	-7.41646	2.22888
-511.71875	0.60923	-5.07449	-0.56667	-9.52901
-507.81250	1.06848	-3.86572	3.86556	-6.89670
-503.90625	-3.21345	-1.85108	6.28316	2.84217
-500.00000	-6.50672	-1.04526	5.07437	4.82803
-496.09375	-7.46764	-0.64238	4.26850	7.57736
-492.18750	-1.85315	-1.44821	4.67143	10.51836
-488.28125	5.23025	0.96939	1.04503	5.28367
-484.37500	0.54401	3.78987	-3.38716	3.40475
-480.46875	-9.91736	4.59568	-0.96963	9.00206
-476.56250	-7.99926	0.16347	-0.56664	4.42161
-472.65625	-3.09585	-1.85119	-0.56663	4.77673
-468.75000	-10.24100	-0.64246	-5.80474	5.82125
-464.84375	-13.76652	-3.86588	-10.63989	-5.26962
-460.93750	-10.97753	-5.07468	-2.17842	-4.17092
-457.03125	-11.46004	0.96926	1.04505	4.44513
-453.12500	-14.01446	1.77512	-7.01353	6.68225
-449.21875	-8.68375	3.38689	-3.79008	-2.06431
-445.31250	-1.00380	6.20739	9.50664	-4.23946
-441.40625	0.39975	4.59563	5.47734	-3.65988
-437.50000	1.08359	3.38685	4.67149	-2.42620
-433.59375	1.23477	2.58087	-1.77545	-4.72381
-429.68750	0.62649	1.37207	-11.04292	-7.90016
-425.78125	1.77373	0.96910	-4.99900	-0.35023
-421.87500	9.32129	5.80423	4.26839	10.54175
-417.96875	8.67804	4.99839	5.07425	5.16351
-414.06250	8.78964	6.20721	-0.56675	-3.65988
-410.15625	10.02466	4.59546	0.64203	1.60562
-406.25000	4.64904	-1.85137	5.88008	3.98311
-402.34375	4.52112	-2.25433	-0.16396	-1.44979
-398.43750	8.50397	1.77493	-6.20792	-4.61605
-394.53125	2.59056	1.77488	-2.98453	-6.24905
-390.62500	-5.88568	1.37193	-3.38747	-5.78645
-386.71875	-9.29310	2.17776	-4.19338	-2.11606
-382.81250	-8.34264	2.58067	-0.96995	-2.96077
-378.90625	-7.89576	4.59529	0.23882	1.68103
-375.00000	-6.09358	4.59527	0.64173	8.85938
-371.09375	-1.58591	2.58065	-2.58177	9.40531
-367.18750	-3.38064	-1.44866	-4.99943	11.97616
-363.28125	-4.27136	0.96893	1.85037	1.17993
-359.37500	0.18057	4.19237	5.47674	-10.59416
-355.46875	3.67613	-0.23989	2.25334	-5.07912
-351.56250	-1.26741	-0.64287	-3.79063	-1.58027
-347.65625	-12.26374	3.78940	-2.98484	-7.33005
-343.75000	-3.39612	6.60994	-2.98490	-16.01773
-339.84375	4.53554	6.60995	-6.20845	-16.05303
-335.93750	-0.34583	4.59532	-3.79093	-12.20740
-332.03125	2.71011	6.20709	0.64128	-9.73857
-328.12500	5.56043	4.19243	1.44715	-9.66939
-324.21875	3.56707	2.98362	4.26770	1.05616
-320.31250	2.76237	-0.64283	0.23840	7.47004
-316.40625	3.18733	-2.65752	-2.58213	1.57427
-312.50000	9.52448	1.77474	1.44714	4.26445
-308.59375	11.00528	4.19237	1.85003	14.62710
-304.68750	4.54501	6.20703	-5.80567	4.45873
-300.78125	10.99036	2.17773	-7.01444	1.95883
-296.87500	14.26848	-3.86623	2.65591	11.68566
-292.96875	11.90588	4.19233	5.87934	9.79962
-289.06250	8.90125	10.23627	4.67052	4.71416
-285.15625	-0.04587	2.17771	1.04409	-3.38782
-281.25000	-0.18092	1.77479	0.23822	-1.15242
-277.34375	1.86775	2.17774	0.64112	3.62017
-273.43750	-4.26449	-0.64282	3.05862	-7.24203
-269.53125	-8.81661	-0.23988	3.46161	-13.62390
-265.62500	-0.92554	2.98358	-1.77644	-0.72075
-261.71875	3.91608	1.37188	-5.80573	1.76919
-257.81250	-5.40854	-1.04574	-2.98525	3.56864
-253.90625	-16.03601	-1.04574	2.65579	1.08196
-250.00000	-18.78761	-2.25452	-1.77646	-4.12786
-246.09375	-13.39542	-2.25446	-2.17941	0.37495
-242.18750	-0.87896	-2.25440	6.28214	-5.79021
-238.28125	1.70702	-1.44852	6.68507	-5.39123
-234.37500	-4.08393	0.56615	-5.80580	-1.90109
-230.46875	-0.47334	-0.23968	-7.82046	-2.26082
-226.56250	5.26328	-0.64263	0.23814	12.39244
-222.65625	10.83517	1.77498	8.29673	18.88668
-218.75000	8.30907	0.16331	5.87918	4.54502
-214.84375	2.56634	-1.04547	-2.58236	-5.71990
-210.93750	1.79108	-4.26889	-2.17946	-3.19281
-207.03125	-6.99482	-9.90992	4.26746	5.11364
-203.12500	-6.85891	-5.88058	10.71439	11.74045
-199.21875	-1.71424	-0.23960	5.87923	9.20450
-195.31250	-1.73945	-5.07474	-1.77649	2.11180
-191.40625	4.51176	-10.71580	4.67038	3.94938
-187.50000	-0.60537	-9.10406	4.26742	12.38549
-183.59375	-8.41326	-7.08943	-2.98528	5.81805
-179.68750	-4.17955	-4.67189	-0.56763	-5.51158
-175.78125	-3.71598	1.77502	3.46166	-9.03279
-171.87500	-8.04107	2.17798	3.46159	-10.25487
-167.96875	-11.83101	0.56625	-5.80587	-14.14453
-164.06250	-6.70542	-0.64251	-5.00003	-6.93348
-160.15625	-4.71797	-3.46300	4.67036	-0.51458
-156.25000	-10.62545	-1.85127	-0.16479	-6.92188
-152.34375	-11.30432	2.58093	-11.44682	-17.20371
-148.43750	-8.03540	5.40152	-16.68491	-20.48471
-144.53125	-4.94359	5.40153	-11.44683	-18.44931
-140.62500	-1.30336	0.96928	-6.61163	-24.15058
-136.71875	1.70025	-1.44830	-5.40282	-20.56870
-132.81250	2.76351	4.99862	-7.01460	-8.03943
-128.90625	7.55389	6.61030	-4.19413	-1.39963
-125.00000	3.33323	-1.44829	-2.58235	-2.53449
-121.09375	-3.18990	-2.25412	-2.58229	-1.46915
-117.18750	6.66258	5.80449	3.46169	6.03279
-113.28125	8.76120	2.17818	-2.58225	14.00807
-109.37500	9.94935	1.37237	-6.61155	15.30556
-105.46875	7.66158	6.20755	-3.38810	9.38707
-101.56250	2.12800	2.17826	-2.58227	5.48479
-97.65625	8.28826	1.37241	-0.16476	8.01075
-93.75000	13.11943	4.59580	-0.56768	9.84819
-89.84375	7.60448	2.58116	-2.58233	10.68890
-85.93750	5.23210	0.96949	0.23819	9.26036
-82.03125	8.62222	2.98416	6.28218	7.99980
-78.12500	8.59157	4.99882	7.08807	3.49784
-74.21875	4.54014	6.61055	1.85001	-4.40759
-70.31250	0.91166	3.79011	-0.16471	-2.76322
-66.40625	-1.52889	2.98431	3.46171	-4.12074
-62.50000	8.25034	9.02829	4.67050	-11.24367
-58.59375	8.78323	8.22247	0.64118	-5.48950
-54.68750	-2.08343	1.37271	-11.04379	-10.22994
-50.78125	-2.88871	-1.44781	-11.44673	-12.16273
-46.87500	-8.98844	0.16396	-0.56757	-12.21975
-42.96875	-13.07375	4.19332	3.86472	-15.97525
-39.06250	-12.89059	4.59627	3.46177	-8.87564
-35.15625	-8.77955	-1.04467	-1.37336	-4.80337
-31.25000	-7.43668	-3.86510	-0.56748	-15.50065
-27.34375	-9.88931	-3.05921	0.23841	-14.63261
-23.43750	-8.59322	-2.65631	-0.97040	1.87025
-19.53125	-8.87721	-3.46215	-4.99973	2.20780
-15.62500	-2.66672	-3.05919	-13.46130	-4.65182
-11.71875	6.59329	2.58183	-3.38799	-3.51590
-7.81250	3.82904	4.99943	6.68528	-1.68938
-3.90625	3.17342	1.77601	5.07350	-0.41195
0.00000	1.49179	0.97019	1.44713	0.76811
3.90625	0.53086	4.99951	5.47645	5.12932
7.81250	-1.51043	-1.44735	2.65597	3.23527
11.71875	-8.12680	-5.07364	-7.01439	-4.81994
15.62500	-7.17212	-1.44726	0.64128	-0.25197
19.53125	-4.33688	-3.05896	7.49103	7.76298
23.43750	-2.41886	-3.86482	2.25295	18.89685
27.34375	-2.35084	0.16451	3.46179	13.20799
31.25000	-1.84055	3.38798	7.89403	-3.07361
35.15625	4.70695	0.56745	9.50574	3.96735
39.06250	8.70451	-0.23837	6.68528	8.28955
42.96875	2.58074	0.16459	4.26766	8.44413
46.87500	1.23489	-0.64132	-3.38797	7.45784
50.78125	0.92424	2.58212	-4.19386	1.53185
54.68750	-5.09567	-0.64132	3.46186	2.58012
58.59375	-2.88647	-4.67060	4.67071	6.78595
62.50000	-3.81451	-4.67062	2.65611	11.24310
66.40625	-13.33378	-4.26767	-0.56733	7.73680
70.31250	-11.12176	-2.65597	9.50592	3.35173
74.21875	-0.30440	-0.64129	16.75866	-1.18628
78.12500	-4.44211	-3.46175	3.05898	-6.81451
82.03125	-12.33835	-0.23829	-7.41723	-8.56645
85.93750	-11.42110	2.98517	-4.19373	-10.54001
89.84375	-6.55982	-2.25289	-4.99953	-11.72117
93.75000	-4.68284	0.16474	-2.17901	-17.80509
97.65625	-7.22857	-4.67045	-1.77598	-15.98524
101.56250	-7.67810	-8.29676	-0.97009	-10.68998
105.46875	4.94309	6.20876	1.85044	-5.07021
109.37500	3.71927	7.01461	-1.37301	-4.60752
113.28125	-10.16464	-1.84982	-7.41702	-16.65146
117.18750	-10.82610	-1.84979	-11.44630	-27.56952
121.09375	-9.57372	2.17955	-3.79057	-24.53946
125.00000	-9.78643	5.00007	-4.19347	-18.16693
128.90625	-0.84690	2.58252	-6.61093	-9.96532
132.81250	5.01373	-0.23792	-0.56692	-9.00618
136.71875	-0.30950	0.56799	1.04479	-14.56433
140.62500	-3.51345	3.38861	1.85071	-3.77428
144.53125	0.78781	2.58272	-0.16398	-2.69152
148.43750	5.11149	-0.64070	-2.58154	-6.44540
152.34375	9.82929	3.79159	3.05944	0.29557
156.25000	13.05559	6.61211	3.05941	4.90446
160.15625	13.73432	5.80629	-0.96993	7.28676
164.06250	16.91149	8.22396	-1.77578	15.56474
167.96875	8.68510	3.38886	-2.98455	15.61604
171.87500	-2.56736	0.56834	1.44774	5.61205
175.78125	3.90059	0.97137	5.88008	4.24971
179.68750	6.31921	-0.23737	-2.17852	7.44018
183.59375	5.13223	3.38903	-2.17852	1.94746
187.50000	9.05168	2.58315	6.28304	-6.64426
191.40625	6.90593	-0.64027	6.28305	0.89792
195.31250	2.86308	4.59785	7.49184	5.63795
199.21875	4.87599	5.00084	7.89478	2.33220
203.12500	5.73650	1.37454	4.67132	6.41819
207.03125	5.79141	0.97162	-2.58142	4.53228
210.93750	5.20418	2.58335	-6.61068	-1.35891
214.84375	-2.53429	2.18051	-0.16377	-4.62564
218.75000	-3.07239	-4.26632	4.26855	-14.07520
222.65625	-1.02382	-5.47509	1.85102	-16.15238
226.56250	-7.55922	-4.26628	-0.96955	-13.71782
230.46875	-8.08223	0.16603	2.65687	-1.96781
234.37500	-3.41473	2.98657	2.25393	-5.18180
238.28125	3.44131	1.37490	-1.37240	-9.13861
242.18750	-1.04826	0.16612	-5.80461	-3.30977
246.09375	-7.64663	-2.25144	-8.62504	-7.81101
250.00000	-5.96616	-1.84844	-0.16352	-8.58859
253.90625	-9.03571	0.97208	3.86587	-10.53256
257.81250	-8.20437	2.98674	2.25414	-12.66822
261.71875	-6.42433	0.16628	5.07463	-5.01634
265.62500	-4.15677	-1.44543	6.28346	-0.31724
269.53125	-8.20200	-4.66881	2.65717	2.14363
273.43750	-4.88308	-1.44529	5.07473	9.14129
277.34375	4.71809	1.37533	1.44842	9.99465
281.25000	2.99779	-3.05688	-4.99846	5.32337
285.15625	-0.32746	-3.05683	1.85140	9.96689
289.06250	-4.32624	-6.28021	-0.56621	9.27059
292.96875	-5.45646	-6.28016	-6.20728	1.05701
296.87500	3.54376	-2.65381	-6.20727	5.66931
300.78125	7.47956	-1.04203	-3.38673	8.77441
304.68750	-0.60426	-1.04199	1.04547	4.50231
308.59375	-0.39711	-0.23610	3.06010	-3.73320
312.50000	11.00589	2.58444	5.47768	-3.35558
316.40625	14.07702	2.98747	4.67183	-0.65545
320.31250	6.22275	1.77875	4.26887	-3.92638
324.21875	6.28338	-1.84752	7.08939	-3.01506
328.12500	13.24033	-1.04162	0.23963	-1.01357
332.03125	7.03266	5.80820	-2.98381	0.33500
335.93750	-1.54153	0.16724	-0.56622	-0.10949
339.84375	-0.36008	-3.45913	-2.58087	-2.15212
343.75000	-4.65588	-1.84732	-0.56616	-9.36523
347.65625	-6.14067	-1.44438	-2.17785	-20.85576
351.56250	2.36620	1.77911	-5.40120	-17.68979
355.46875	1.02582	2.18210	-1.37186	-11.62500
359.37500	-3.79564	1.77918	1.85162	-14.10278
363.28125	-7.23907	1.77921	-3.38646	-9.71496
367.18750	-10.20517	1.77923	-3.38643	-11.69103
371.09375	-6.62368	0.16756	3.06040	-17.54198
375.00000	-6.00917	3.39106	6.68679	-8.60340
378.90625	-11.32357	0.16766	7.89559	-3.91158
382.81250	-10.73855	-5.47334	3.06039	-6.07984
386.71875	-0.58139	-2.24982	-6.20697	-8.98370
390.62500	5.03886	2.18247	-0.56584	-0.43339
394.53125	8.39198	0.16784	6.28398	11.37721
398.43750	9.30510	-0.23510	5.88108	15.53361
402.34375	2.97434	1.77959	11.52210	12.82156
406.25000	-1.86501	-2.24966	4.26940	11.43558
410.15625	2.69309	-3.86131	-1.37159	8.64986
414.06250	5.96159	0.97390	3.46355	1.58032
417.96875	8.54568	2.18278	1.44895	5.55793
421.87500	6.50017	0.57109	-4.99789	8.71171
425.78125	3.25444	1.37707	-8.22132	5.64152
429.68750	1.64047	3.79466	1.04611	-5.20505
433.59375	2.42321	2.58588	5.47841	-11.80064
437.50000	5.75535	2.18302	1.44914	-8.04434
441.40625	7.89981	7.82407	-0.96844	-2.69312
445.31250	4.68866	5.80948	2.65798	3.04263
449.21875	0.65983	2.58609	9.91074	1.51288
453.12500	-0.60485	5.40673	10.71658	-2.97632
457.03125	-5.09325	4.19803	4.67265	-9.14942
460.93750	-3.29857	2.98929	5.88146	-7.69079
464.84375	-3.61998	0.97469	7.89609	-0.39511
468.75000	-13.55936	-2.65165	4.67266	-9.88359
472.65625	-18.83267	-1.44278	1.04629	-7.40383
476.56250	-16.32795	-1.03977	0.24045	-3.39186
480.46875	-10.56815	-0.23388	1.85222	-5.06900
484.37500	-8.38712	0.57200	-2.98295	-8.70520
488.28125	-5.57419	0.97502	-2.57996	-6.36049
492.18750	2.13749	2.18391	-2.98289	1.91287
496.09375	3.09345	2.58689	-4.99752	4.39916
500.00000	0.20288	2.98992	-2.17702	3.56456
503.90625	-4.78760	-2.24810	-3.38575	-2.95352
507.81250	0.42362	-6.68027	-0.96824	2.40514
511.71875	6.70093	-2.65088	-1.77409	8.85563
515.62500	1.61162	2.58730	-6.60921	-1.08178
519.53125	4.04386	5.40790	3.86701	5.72437
523.43750	4.75301	2.58743	3.06113	17.26120
527.34375	2.80638	-3.05346	-9.42965	9.96072
531.25000	8.95761	0.57296	-5.40021	10.19933
535.15625	11.07281	5.81112	-0.96799	13.61398
539.06250	9.83227	0.97607	-6.20610	13.90700
542.96875	4.51437	-3.45606	-1.77384	20.91153
546.87500	2.76554	-3.05301	6.68771	14.68719
550.78125	4.46948	2.58804	6.68773	5.94086
554.68750	3.28461	5.00572	3.86729	7.79513
558.59375	3.88204	0.57356	1.44975	9.58346
562.50000	-2.68715	-1.44102	0.64397	4.37033
566.40625	-4.95383	0.17082	3.46452	11.34021
570.31250	-6.36830	-2.64966	0.64406	13.40202
574.21875	-2.40101	-0.23200	1.44995	10.07283
578.12500	4.34033	1.78271	8.70274	16.53261
582.03125	-4.36176	-3.85823	4.67348	21.63056
585.93750	-6.26518	-4.66408	-0.96752	21.26885
589.84375	5.44572	0.17119	-2.57917	12.43196
593.75000	14.97831	6.21520	-9.02604	5.94500
597.65625	14.85007	9.84161	-10.23476	12.60010
601.56250	9.96828	5.81239	0.64451	13.46318
605.46875	8.88976	3.79781	4.67390	5.38334
609.37500	10.08344	7.02133	3.06217	7.05480
613.28125	12.71953	3.39506	-2.17592	10.32233
617.18750	10.84912	-2.64888	-4.99637	10.68633
621.09375	8.87795	-2.24585	-3.38457	14.52227
625.00000	8.26204	-0.23113	0.24181	16.86539
628.90625	-0.12455	2.58945	1.45066	7.33798
632.81250	1.70668	3.79832	-1.36980	10.31175
636.71875	5.24770	4.60423	7.49471	14.02106
640.62500	1.23780	2.18672	0.24203	-0.17060
644.53125	-0.50504	-1.03669	-7.01069	0.50925
648.43750	-1.41959	0.17214	3.06258	12.46981
652.34375	-3.55172	0.97803	1.45093	9.94346
656.25000	-3.54900	-0.23070	-6.20472	2.86752
660.15625	-1.66165	0.17232	-10.23396	1.62358
664.06250	-10.16967	-3.05105	-5.39866	-1.78338
667.96875	-14.76979	-6.67738	1.04828	-4.95549
671.87500	-9.90518	-3.05090	1.04835	1.56069
675.78125	-4.24323	0.97845	-0.96624	1.00422
679.68750	-2.22768	-0.23033	1.45140	4.59772
683.59375	-1.80304	-2.64788	4.27190	7.56657
687.50000	3.32493	-1.84190	1.45141	5.82459
691.40625	7.22302	-3.05063	-2.98083	13.76970
695.31250	8.41812	0.17288	-0.96614	29.38894
699.21875	9.22215	2.59049	-0.96607	28.50085
703.12500	4.03858	-1.84161	-2.57772	5.18757
707.03125	10.54024	2.59069	4.27213	5.31640
710.93750	12.37050	0.97908	1.45170	11.91616
714.84375	6.24357	-4.66191	-7.00981	1.79966
718.75000	6.91403	-0.63254	-5.80097	-4.02359
722.65625	4.93313	-1.84122	-0.96579	-9.72711
726.56250	3.23284	-1.43825	-1.77161	-9.71009
730.46875	-2.52843	-0.22936	-2.57742	-7.22742
734.37500	-2.29342	-4.25858	-7.00956	-2.78571
738.28125	-4.30195	-5.87020	-2.57721	-1.10161
742.18750	-7.18006	-3.04962	8.70486	-6.95784
746.09375	-6.12274	2.18858	6.69024	-0.58003
750.00000	-12.09805	3.39746	-3.78593	-2.16350
753.90625	-16.37653	-1.03471	-5.80058	-12.16615
757.81250	-12.72486	0.57707	-0.15960	-7.45208
761.71875	-8.52739	4.60645	3.46682	-2.21784
765.62500	-3.84242	2.59189	8.30203	-3.56271
769.53125	3.79719	1.78610	5.07864	-3.51944
773.43750	-2.55438	2.99496	3.86993	-1.35695
777.34375	-5.44424	4.60674	8.30221	-0.50360
781.25000	-5.14997	4.60683	1.45251	-1.54844
785.15625	-11.29585	-0.63119	-4.59138	-0.53124
789.06250	-3.60978	0.17479	-4.18844	2.80182
792.96875	-1.91970	-1.43690	-9.82941	2.24391
796.87500	-1.38106	-1.83970	-5.39712	3.22980
800.78125	2.55457	2.99553	5.07908	1.09681
804.68750	1.72341	-1.03369	5.88506	3.67452
808.59375	3.94506	-1.03362	3.06454	8.33269
812.50000	-0.36635	3.39869	-0.96470	6.69562
816.40625	0.68998	5.01046	-0.15878	3.35168
820.31250	6.93813	5.01053	1.05007	1.28943
824.21875	1.35756	2.59301	-0.96452	3.00645
828.12500	-0.55019	0.17553	-1.36733	5.81365
832.03125	4.12101	-0.63035	4.27372	12.40024
835.93750	1.99351	-1.43615	1.45327	16.38797
839.84375	-3.27207	-1.43606	-9.42582	9.51017
843.75000	4.92272	7.02556	1.85635	10.35561
847.65625	7.46710	6.21978	5.88574	4.50606
851.56250	0.66247	-2.24167	-2.97869	-4.01301
855.46875	0.93366	-5.46503	-3.78451	0.44007
859.37500	5.78244	-0.62983	-0.96397	4.00633
863.28125	3.14479	0.57903	3.06542	-2.88787
867.18750	4.61089	-1.83843	3.46845	-3.25221
871.09375	4.16298	-0.62962	1.85681	-1.44751
875.00000	2.76268	0.17638	-2.57539	-10.64090
878.90625	7.52139	2.19112	-3.78414	-11.18727
882.81250	8.91217	4.60869	-1.76940	-4.08818
886.71875	5.77246	6.62337	-7.81328	1.46955
890.62500	4.94563	7.02640	-2.17225	5.18461
894.53125	3.06050	3.80301	3.46885	-0.33089
898.43750	-6.90561	-1.43505	-3.38089	-13.09758
902.34375	-8.80432	-1.43500	-6.60427	-19.03314
906.25000	-0.34707	0.57971	-2.57493	-13.56923
910.15625	0.58449	2.59443	1.05143	-5.87874
914.06250	-5.01156	1.78866	-4.99249	-3.27795
917.96875	-4.84516	-1.43468	-4.99244	-1.71791
921.87500	-2.86146	-1.83747	-2.17186	2.64465
925.78125	-3.68967	1.38606	-13.85670	-2.03728
929.68750	-2.88617	2.59487	-7.40980	-2.00468
933.59375	-4.92403	-1.03141	8.70751	3.48767
937.50000	-10.85940	-2.24016	8.70758	-2.82935
941.40625	-12.34143	-5.06059	7.90184	-2.31322
945.31250	-9.50870	-1.83706	13.14003	2.21379
949.21875	-8.29960	-1.03115	7.90198	-6.97165
953.12500	-5.13222	-7.47798	-4.99178	-6.22276
957.03125	-3.57677	-4.25442	-6.20053	1.30383
960.93750	-5.81146	-2.23967	-1.36528	1.95665
964.84375	-3.71547	0.58091	4.67871	1.19370
968.75000	-4.79050	-0.62778	5.88758	-4.66836
972.65625	-7.64630	-3.44818	1.85835	-1.38277
976.56250	-4.73872	-3.44807	1.85846	-1.40011
980.46875	0.21503	-6.67142	2.26150	-3.07732
984.37500	-0.82754	-4.65669	-0.96185	1.74800
988.28125	-8.49095	-2.64195	0.24702	-5.57758
992.18750	-12.86723	-0.62718	-0.15591	-7.78038
996.09375	0.98232	1.38766	-4.18521	-5.69706
1000.00000	4.53848	0.17894	2.26169	-3.71108
1003.90625	-6.89894	1.38783	6.69399	-3.78213
1007.81250	-6.52294	1.79080	5.48525	-3.25849
1011.71875	-8.70731	-1.02962	7.09701	0.37141
1015.62500	-13.39390	-3.44714	5.08246	-3.52214
1019.53125	-12.97653	-5.86461	1.05328	-8.80393
1023.43750	-15.49101	-2.23820	4.67977	-7.74335
1027.34375	-9.78222	0.58234	-1.76710	-10.61170
1031.25000	-6.04878	0.58240	-10.63155	-11.58192
1035.15625	-6.75430	-0.62631	1.85931	2.71184
1039.06250	-7.99510	-3.84962	7.90331	1.79599
1042.96875	-6.86637	0.17974	-2.97577	-10.54022
1046.87500	-0.15377	1.38863	-1.36393	-0.24435
1050.78125	9.60864	-0.62597	4.68016	8.73814
1054.68750	7.61777	-1.02878	7.90370	8.17478
1058.59375	2.97694	3.00060	6.69494	4.32214
1062.50000	0.83987	5.82122	2.66568	-0.08508
1066.40625	-1.02402	2.59790	-3.37825	2.04971
1070.31250	0.78485	-1.43129	-6.60162	1.29095
1074.21875	2.73736	-0.22240	5.48639	5.21451
1078.12500	2.22579	3.80696	13.14214	9.65959
1082.03125	-3.25299	-0.22226	3.87479	7.10187
1085.93750	-1.12722	-0.62513	-4.98964	-3.73605
1089.84375	0.91321	2.59843	3.87495	-14.99054
1093.75000	-5.67155	-1.02781	8.30724	-14.62760
1097.65625	-10.63510	-1.02773	1.86049	-14.82237
1101.56250	-6.24971	0.58407	-4.18346	-9.93001
1105.46875	-9.34303	-1.02750	-2.57167	-5.11600
1109.37500	-10.96997	-1.43033	5.08402	-8.68259
1113.28125	-6.72225	0.98738	-2.57153	-11.05607
1117.18750	-7.38406	1.79333	-9.42129	-11.90091
1121.09375	-4.52019	0.18174	-7.00361	-10.48250
1125.00000	-2.71852	0.98766	-3.78007	-6.52752
1128.90625	-6.67300	-1.02694	1.45813	-9.20501
1132.81250	-9.27418	-6.26498	0.24939	-18.31904
1136.71875	-8.15077	-2.63855	-2.57103	-20.65369
1140.62500	-6.51979	0.18209	-5.79437	-13.08702
1144.53125	-7.05400	1.79385	-0.15329	-7.57192
1148.43750	-7.96864	2.59978	9.92006	-0.84958
1152.34375	-4.86290	-3.04113	9.11425	0.65339
1156.25000	-8.88961	-3.04105	0.24981	-9.64598
1160.15625	-3.77893	-1.42926	-4.98818	-11.69583
1164.06250	-3.42262	-4.65261	-7.40566	-7.44714
1167.96875	-5.20230	-0.22028	1.05599	-7.79878
1171.87500	4.09435	0.58567	3.47367	-2.49138
1175.78125	2.10046	-2.23474	-5.79367	0.98146
1179.68750	-3.53990	0.18292	-2.57017	-11.94532
1183.59375	-0.29494	3.00349	7.90607	-13.40867
1187.50000	1.60954	2.60063	5.48850	-11.12134
1191.40625	-7.38633	-2.23442	-3.37589	-21.30809
1195.31250	-9.01195	-2.23431	-2.16705	-25.02957
1199.21875	-4.98467	0.18340	0.65362	-21.08259
1203.12500	-10.16847	-1.42826	-2.97269	-18.60842
1207.03125	-11.72557	-3.03983	-6.19606	-15.25624
1210.93750	-3.44857	-1.42804	-1.36080	-6.23900
1214.84375	-0.71121	-2.63678	0.65390	-7.08810
1218.75000	3.58554	0.98973	1.05688	-0.42035
1222.65625	8.05149	2.60155	1.45990	10.39638
1226.56250	-0.49871	-1.83056	5.48921	11.21932
1230.46875	3.00734	0.99003	9.11565	12.89620
1234.37500	9.68921	2.60183	8.71279	14.92035
1238.28125	13.32162	-1.83024	3.47481	10.56062
1242.18750	7.22000	-3.84478	-7.80714	-3.75708
1246.09375	-3.00491	-1.42715	-4.98661	-5.84073
1250.00000	-2.53344	-0.62121	1.46032	-5.00651
1253.90625	0.03782	-0.21816	6.69847	-4.93583
1257.81250	2.07769	-3.03857	7.50436	-2.63928
1261.71875	-2.18656	-3.84429	1.86345	2.19212
1265.62500	0.88653	0.58801	-2.56871	2.86181
1269.53125	8.92890	-0.21773	-2.56860	-3.94470
1273.43750	5.39760	-3.44110	2.66958	-7.42329
1277.34375	8.55151	-3.03811	0.65497	-2.54066
1281.25000	6.02513	2.20008	-3.77722	3.66728
1285.15625	-0.52375	6.22948	3.47565	5.89338
1289.06250	4.74460	5.42373	5.08744	10.83825
1292.96875	6.83752	0.99159	-2.97108	9.47456
1296.87500	6.16715	4.21516	-2.97097	6.43118
1300.78125	6.07338	1.79765	-5.38842	4.29823
1304.68750	6.85375	2.60359	-1.76200	5.26428
1308.59375	16.73092	7.43890	0.25274	4.28140
1312.50000	14.43393	1.39505	-4.17948	3.85315
1316.40625	9.44626	-3.84294	1.86457	3.32986
1320.31250	4.00925	-1.42527	8.71446	-0.34390
1324.21875	-3.58602	3.81297	6.29698	1.77623
1328.12500	-3.07616	0.18672	2.26780	4.58364
1332.03125	-3.64300	-0.61911	2.26790	7.94691
1335.93750	-0.53249	2.60444	2.26800	7.50249
1339.84375	-2.97756	-0.21595	5.49156	3.04240
1343.75000	-2.84143	-1.02168	5.49165	-5.37943
1347.65625	0.91156	0.18721	2.26824	-4.78198
1351.56250	11.02987	-1.82735	1.86539	4.83083
1355.46875	10.49497	-0.21556	2.67132	10.89571
1359.37500	-5.20592	0.59040	4.68605	4.79169
1363.28125	-6.23201	-4.64759	1.05974	0.71797
1367.18750	-3.96025	-3.03575	-0.14896	-2.46693
1371.09375	-6.42307	-0.21515	3.07459	-3.07984
1375.00000	-1.37671	0.59080	1.46299	-3.40870
1378.90625	-0.64745	2.20265	-1.35738	-5.16382
1382.81250	-6.91251	2.20275	2.67201	-0.88515
1386.71875	-6.82888	-1.02061	1.46320	0.64332
1390.62500	-3.22352	-7.06446	-6.19250	-0.47668
1394.53125	0.53238	-3.03503	-5.38655	-5.18616
1398.43750	3.86288	-0.21440	-4.17772	-9.08829
1402.34375	1.96421	-3.84061	-7.80400	-2.93582
1406.25000	1.95985	-0.21415	-0.95412	-2.70996
1410.15625	11.35294	7.44164	10.32806	-1.46625
1414.06250	8.57722	8.65052	5.09007	4.35808
1417.96875	9.54927	4.62125	-5.38601	1.88886
1421.87500	12.33864	0.99502	-3.77426	2.22225
1425.78125	8.68978	0.18929	-3.77422	3.18135
1429.68750	10.29897	0.99526	0.65813	4.01988
1433.59375	7.05223	0.18953	5.89633	4.27422
1437.50000	8.36942	3.41309	1.06120	6.01588
1441.40625	14.94595	5.42786	-0.14751	8.94951
1445.31250	12.54040	-0.61601	5.49363	10.65599
1449.21875	0.04976	-2.63052	3.47909	4.69402
1453.12500	-3.22992	1.39898	5.89684	1.41360
1457.03125	-0.46587	1.80198	5.49398	4.91082
1460.93750	-0.68618	-0.21256	-5.38504	-2.09211
1464.84375	-5.03722	0.19049	-4.17623	-6.07858
1468.75000	-11.75350	-0.21239	-3.37026	-12.34374
1472.65625	-5.74506	1.80237	-2.96730	-15.50507
1476.56250	-0.01714	0.19082	-1.75844	-2.22570
1480.46875	-10.77772	-0.21201	-8.60815	-1.08231
1484.37500	-5.37345	3.41451	-3.77287	0.92266
1488.28125	-0.14319	-1.42059	1.86831	-6.40286
1492.18750	-9.35477	-6.25564	5.09182	-13.03786
1496.09375	-10.01074	-4.64384	5.09190	-4.91040
1500.00000	-6.05176	-2.62909	2.67443	-6.95370
1503.90625	-3.78966	-5.85236	3.07741	-6.62185
1507.81250	-1.39920	-6.25519	0.65995	-6.09827
1511.71875	-3.98670	-1.82282	-2.56341	-13.34755
1515.62500	-5.04705	0.19194	-2.96630	-8.77956
1519.53125	-0.60040	3.81839	1.06306	0.04129
1523.43750	2.52601	4.22144	9.52473	-4.94197
1527.34375	2.99657	-1.82241	7.91316	-9.82495
1531.25000	0.28298	-2.22525	-2.16003	-0.31900
1535.15625	-5.25786	-5.44860	-3.36870	2.28984
1539.06250	-6.49877	-9.47779	-5.38325	-6.28165
1542.96875	-13.02578	-11.08936	-5.38313	-11.76810
1546.87500	-15.58084	-9.88048	2.67554	-8.32203
1550.78125	-5.81862	-1.41881	3.48146	-4.17480
1554.68750	-4.98925	-0.20991	3.48155	-7.96162
1558.59375	-4.79507	-3.83615	6.30218	-8.59085
1562.50000	-6.93236	-2.62732	5.09353	-3.73074
1566.40625	-7.99052	-2.62719	-0.54737	-2.40182
1570.31250	-2.15262	-1.41827	-0.54731	-0.74300
1574.21875	3.02322	0.99944	2.67624	4.79226
1578.12500	2.91439	0.99956	-0.54708	1.98465
1582.03125	-0.14701	1.80551	-1.75579	-5.00517
1585.93750	0.76988	7.04370	5.09407	1.88587
1589.84375	1.19849	4.62619	8.72054	11.18095
1593.75000	-1.35709	-4.23816	-5.38192	2.67943
1597.65625	-1.08270	-5.84976	-11.42578	-0.33586
1601.56250	-1.93556	-7.86435	-3.76993	6.57106
1605.46875	1.01497	-2.22319	-0.54638	8.96752
1609.37500	6.64069	4.62671	-2.15808	15.47424
1613.28125	2.42678	3.82102	2.67721	20.35353
1617.18750	5.79419	2.61233	11.13888	18.30008
1621.09375	13.49315	4.22416	8.72140	20.52438
1625.00000	10.05658	1.80669	3.48343	22.46475
1628.90625	9.32554	-2.22248	1.46891	18.98145
1632.81250	6.32137	-6.25167	-0.54564	23.16413
1636.71875	2.20657	-8.66917	0.66325	25.26173
1640.62500	-0.99775	-3.02799	8.31898	16.30824
1644.53125	-4.35248	-2.22202	8.72202	12.15299
1648.43750	0.77669	1.00155	2.67817	13.23435
1652.34375	3.07654	3.82220	-0.54518	8.29041
1656.25000	-7.39718	2.61355	-2.15685	1.61739
1660.15625	-8.33059	1.40493	-1.35087	-1.64117
1664.06250	-1.52754	-1.41553	-0.54495	0.59294
1667.96875	0.72186	-4.63887	0.66395	3.06197
1671.87500	-0.86075	-4.63877	-1.75352	5.95179
1675.78125	1.98042	-4.23572	-2.96222	2.97778
1679.68750	3.59268	-5.04147	-0.54455	0.93024
1683.59375	1.19643	0.59960	-1.35033	9.13722
1687.50000	8.33877	7.04659	-5.78246	0.94833
1691.40625	10.22195	4.22623	-9.40872	-7.22377
1695.31250	-3.49174	2.21172	-9.40862	-8.12474
1699.21875	-4.29967	4.22650	-8.19974	-6.99821
1703.12500	3.00730	3.42079	-4.97621	-0.89761
1707.03125	13.53799	1.80917	1.06786	2.85754
1710.93750	16.97963	0.60049	-3.36421	11.06891
1714.84375	10.44954	3.82405	-10.21397	11.42855
1718.75000	13.13448	5.43591	-6.18460	11.64933
1722.65625	9.94447	3.82426	-3.76689	9.57223
1726.56250	4.21461	1.00386	-5.78140	3.94824
1730.46875	3.28823	-3.02535	-3.76664	4.81924
1734.37500	-5.74433	-1.41354	1.47157	-1.61816
1738.28125	-12.99123	5.43642	1.87465	-3.96325
1742.18750	-11.03434	3.01893	2.68058	0.65677
1746.09375	-12.79785	-5.03956	2.27770	-7.87372
1750.00000	-13.93830	-7.85999	0.26315	-7.03949
1753.90625	-11.36719	-6.24813	-6.58657	-6.96869
1757.81250	-6.10400	1.00469	-9.80992	-9.91017
1761.71875	-4.72733	3.01946	2.27811	-4.67579
1765.62500	-3.66899	-0.20385	3.48709	-6.42359
1769.53125	-3.68537	1.00508	-6.98895	-1.94796
1773.43750	-5.60497	1.81103	-5.37704	1.02057
1777.34375	-5.67465	1.00529	2.68168	-4.16992
1781.25000	-8.20119	-1.81509	3.89055	-3.20006
1785.15625	-3.46832	-4.23257	3.89060	5.06997
1789.06250	0.59106	-1.81484	3.48770	2.35904
1792.96875	6.31021	5.43802	-2.95912	3.00990
1796.87500	11.68368	9.06449	-4.97365	14.06908
1800.78125	14.00727	9.87047	1.47338	10.72726
1804.68750	15.59330	10.67650	1.87644	5.64927
1808.59375	8.95016	3.82677	-0.13818	3.45768
1812.50000	14.30874	1.81224	1.07075	12.69984
1816.40625	11.33559	1.81238	-0.13790	9.35601
1820.31250	-7.39829	-8.66370	7.51789	-1.16764
1824.21875	-8.14400	-12.28994	7.11503	1.75835
1828.12500	-9.24606	-5.03709	-4.16694	-3.89580
1832.03125	-10.61905	0.20113	0.26539	1.88496
1835.93750	-14.35844	0.60419	3.89194	0.63469
1839.84375	-20.83298	2.61898	-2.15191	-6.64599
1843.75000	-16.26472	1.41036	0.66877	-7.41213
1847.65625	-11.70598	-1.00711	3.48937	-18.09682
1851.56250	-6.82585	-1.00697	1.87776	-18.15424
1855.46875	-3.33157	-2.21560	3.89251	-5.23957
1859.37500	1.51699	3.02268	10.33943	-3.68798
1863.28125	4.11719	2.61986	5.50432	-6.14989
1867.18750	1.55366	-6.64739	-6.58349	-9.73773
1871.09375	1.91135	-7.05012	-9.00095	-12.76829
1875.00000	-1.90686	-2.61777	-2.15102	-4.23276
1878.90625	-1.58064	-1.81174	-0.94211	-3.57025
1882.81250	-0.59310	-1.40874	-4.56834	-12.99136
1886.71875	-5.34476	-2.61740	-0.53891	-13.88057
1890.62500	-1.73960	-1.00548	5.10217	-3.71873
1894.53125	2.82182	-5.03463	1.07292	3.25662
1898.43750	5.34630	-3.42279	-3.35916	5.39833
1902.34375	7.47666	5.84474	2.68492	5.90969
1906.25000	3.44282	3.42734	1.47625	8.55306
1910.15625	-1.66981	-3.01940	-8.59687	2.54387
1914.06250	1.19539	-3.82509	-8.99969	-4.92859
1917.96875	0.95848	3.42779	4.29712	-4.98032
1921.87500	-4.71380	1.41328	9.13238	-20.36138
1925.78125	-5.94531	-3.82469	4.29727	-23.02870
1929.68750	-11.18610	-3.42165	1.87987	-13.72875
1933.59375	-16.85064	-6.24200	2.28289	-11.05693
1937.50000	-17.54828	-4.22722	-0.94047	-9.31535
1941.40625	-17.41884	-1.00366	-2.14920	-10.81400
1945.31250	-14.18349	1.01110	-1.34319	-7.49577
1949.21875	-12.16881	1.81710	-9.40174	-2.57865
1953.12500	-12.22509	0.20559	-8.59572	-11.09713
1957.03125	-9.05822	1.41455	-0.53702	-12.43506
1960.93750	-9.27853	6.24979	8.32752	-8.96175
1964.84375	-11.21210	2.62349	9.53644	-4.08365
1968.75000	-8.25807	-2.61445	0.67213	-1.48418
1972.65625	-8.29358	-2.61430	1.47810	-4.64543
1976.56250	-13.84782	-3.42003	6.71633	-2.64795
1980.46875	-12.11767	-3.82281	0.26960	-1.90753
1984.37500	0.13627	-1.40514	-1.74490	2.51489
1988.28125	8.18693	1.01258	-2.55063	8.88896
1992.18750	1.79569	-0.19611	-1.74467	1.44817
1996.09375	4.36301	-1.00184	6.71705	-3.31826
2000.00000	12.35112	3.43054	6.71722	3.09997
2003.90625	3.73390	3.02774	0.67339	5.04359
2007.81250	0.48318	-1.80724	-0.13243	5.16420
2011.71875	4.74543	-3.82176	-2.95281	6.37650
2015.62500	4.89380	-2.61288	-2.95268	-2.75512
2019.53125	6.92268	1.81950	0.67389	-7.23098
2023.43750	8.03423	4.64008	3.89749	-2.94692
2027.34375	6.49003	3.43145	6.71809	9.09316
2031.25000	-1.86463	-0.59776	0.67429	11.74948
2035.15625	-8.21132	-5.83566	-2.95195	-1.75887
2039.06250	-0.18493	-8.65609	-0.13134	-1.86878
2042.96875	-1.07102	-5.02952	-0.93707	-2.51992
2046.87500	-5.23776	4.64093	-1.33982	-5.92363
2050.78125	-5.54885	4.23819	-2.54850	2.65597
2054.68750	-9.55465	-1.80562	-4.96599	1.68970
2058.59375	-5.33121	-0.19380	-1.74241	2.67222
2062.50000	-1.42458	-0.19364	1.07823	2.69719
2066.40625	2.35231	-2.20813	-2.14508	-1.61496
2070.31250	4.16083	-3.81969	-4.56251	3.67024
2074.21875	3.69555	-4.62545	-11.41226	5.57915
2078.12500	1.97494	-1.80472	-10.60619	0.75686
2082.03125	3.74860	3.03057	1.88483	0.21391
2085.93750	9.90335	0.21020	0.67618	3.47853
2089.84375	11.54056	-0.99850	-2.54718	0.28258
2093.75000	4.55251	2.22505	1.48219	7.89822
2097.65625	-0.00846	2.22520	3.49694	13.74735
2101.56250	-1.26437	0.21071	2.28823	4.94004
2105.46875	-0.32861	-0.19210	-0.12927	5.32178
2109.37500	4.08804	-4.22123	-3.35255	6.99333
2113.28125	4.70917	-6.23574	-3.35244	0.18766
2117.18750	-3.60849	-1.80337	1.07993	-5.89513
2121.09375	-10.41511	-1.40034	-2.94920	-12.53527
2125.00000	-8.61372	-1.40018	-11.41061	-15.43014
2128.90625	-2.89804	0.21174	-6.57527	-18.91340
2132.81250	-1.06725	2.62944	2.28926	-18.75994
2136.71875	-5.18223	1.82372	2.28939	-12.63303
2140.62500	-5.16324	2.22682	-0.12807	-8.69266
2144.53125	-8.51812	2.62987	1.48382	-6.80385
2148.43750	-12.25345	-0.59343	2.28985	-4.51358
2152.34375	-5.92446	0.21260	-0.12757	-10.66620
2156.25000	2.13651	3.83905	4.30482	-8.07169
2160.15625	-0.00580	4.24213	5.51378	4.38399
2164.06250	-6.90246	-5.02511	-3.35047	-6.27566
2167.96875	-1.02671	-6.23377	-0.52984	-3.00071
2171.87500	1.82285	-2.60727	8.33468	6.73900
2175.78125	6.27556	-4.21881	12.36409	7.79436
2179.68750	12.72296	-5.02450	6.72327	18.64065
2183.59375	3.07393	0.21374	2.29117	12.74513
2187.50000	0.94875	3.84020	-0.12629	4.55631
2191.40625	11.69619	2.22866	-4.15540	9.27800
2195.31250	17.32305	3.43763	-0.93178	10.79467
2199.21875	10.06805	-0.59157	3.09765	13.13000
2203.12500	3.27229	-5.82945	1.08311	7.14270
2207.03125	4.13247	-4.21758	1.48617	-4.41346
2210.93750	5.55934	-0.18813	1.88924	-8.69287
2214.84375	1.04375	-2.20265	-4.96048	-11.15369
2218.75000	0.90800	-2.20253	-3.75157	-12.54465
2222.65625	-7.92311	-0.99357	-0.93093	-23.48617
2226.56250	-13.65309	-6.23149	-13.01866	-27.90129
2230.46875	-5.31214	-6.63424	-15.03321	-20.58346
2234.37500	-6.68909	-5.82814	-2.13936	-14.12700
2238.28125	-5.47445	-6.23092	2.69600	-13.65148
2242.18750	-1.90597	-1.79851	-0.52734	-8.62841
2246.09375	0.35972	3.03679	2.29328	-1.44463
2250.00000	5.66609	4.24576	3.90514	1.80726
2253.90625	7.43122	3.03713	-1.73579	3.08685
2257.81250	-1.00530	3.84315	-4.95908	-3.88384
2261.71875	-4.86685	6.66382	-5.76478	-6.30518
2265.62500	1.02653	3.84347	-3.75002	0.40860
2269.53125	-3.01926	-1.79742	-3.34697	-3.17442
2273.43750	-4.13317	-1.39441	-0.92931	-1.81770
2277.34375	3.04980	0.62038	4.71190	9.91481
2281.25000	4.95535	0.21762	7.53253	9.27299
2285.15625	6.06182	3.84410	7.12969	7.06682
2289.06250	0.85367	3.03841	4.71227	3.95295
2292.96875	-1.88888	-0.58782	-3.34620	-2.64896
2296.87500	3.08155	3.84457	-6.56953	-3.27479
2300.78125	2.58458	7.06816	7.13014	4.26262
2304.68750	1.75291	4.65072	12.36836	-0.00943
2308.59375	3.57129	2.63626	7.13040	-5.82739
2312.50000	0.46830	-0.18407	4.71296	0.19135
2316.40625	-2.50502	-0.58686	2.69840	-4.36127
2320.31250	-0.68944	2.63678	2.29556	-0.78225
2324.21875	0.57949	0.21940	5.51909	-0.27388
2328.12500	1.08914	-4.61564	0.28112	-1.49583
2332.03125	2.53678	-0.58620	-5.76263	5.89675
2335.93750	0.81200	1.42864	-2.94200	-3.41209
2339.84375	-4.05092	-0.98879	-0.12138	-19.55714
2343.75000	-9.15307	2.63772	-0.52415	-20.32326
2347.65625	-9.83248	9.08477	5.11702	-4.81724
2351.56250	-6.16118	5.05565	3.10254	-0.84529
2355.46875	-5.89030	-0.18225	-5.76178	-14.52394
2359.37500	-8.29461	1.02673	-8.17925	-14.98684
2363.28125	-10.12673	-3.40537	-9.79079	-9.79306
2367.18750	-5.84059	-5.01691	-4.14963	-8.14264
2371.09375	-1.05075	-4.21093	-1.32891	-2.30856
2375.00000	1.57785	-5.82248	-3.34342	-1.83155
2378.90625	-0.51362	-3.80768	0.28306	-3.18365
2382.81250	-0.33208	1.43058	2.70080	-10.99305
2386.71875	-0.24862	4.65413	0.28331	-12.68798
2390.62500	-4.70219	4.65427	-1.32828	-5.34647
2394.53125	-7.39342	1.83396	5.11871	-0.78858
2398.43750	-5.27189	1.83416	4.31306	-7.91411
2402.34375	0.88765	3.04312	-3.34237	-11.43197
2406.25000	2.09178	2.64033	-3.34221	-1.13285
2410.15625	0.60547	2.64049	-4.95384	1.72264
2414.06250	5.08228	7.47586	-7.37131	1.90593
2417.96875	10.08340	7.07308	-3.74473	1.04843
2421.87500	1.99349	1.02929	0.68769	-3.45339
2425.78125	-8.90843	-2.19399	-0.52098	-1.68836
2429.68750	-5.68774	-3.40262	0.28496	-4.47626
2433.59375	0.73562	-1.38781	-0.11787	-10.66889
2437.50000	-1.17090	-0.58179	-2.13236	-13.35947
2441.40625	0.97307	-0.98450	1.89715	-3.57592
2445.31250	-5.86496	0.62735	3.10605	0.95111
2449.21875	-13.11780	2.64215	-5.35528	-2.99615
2453.12500	-5.11558	1.43360	-6.56390	-3.85881
2457.03125	0.87169	0.22499	-0.51976	1.65320
2460.93750	5.48644	-0.98362	6.73315	1.90310
2464.84375	3.55286	1.43416	5.52448	-0.06855
2468.75000	-2.56109	1.03137	0.28648	6.33959
2472.65625	4.18301	1.03156	1.89836	7.73232
2476.56250	1.20766	-2.59467	-7.77181	-9.89250
2480.46875	-10.59172	-8.23551	-8.57747	-16.04178
2484.37500	-6.04023	-5.01191	1.09297	-2.77168
2488.28125	-3.82379	-1.78832	1.09311	2.15076
2492.18750	-10.96434	0.62937	3.10790	4.10207
2496.09375	-12.33532	-1.78804	9.55498	8.79855
2500.00000	-7.97750	-2.19086	7.54048	9.17985
2503.90625	0.63742	0.62980	2.70548	7.43793
2507.81250	4.18577	-0.98173	2.30266	2.00219
2511.71875	0.99180	0.22721	-2.93530	2.92782
2515.62500	-2.03822	0.22738	0.69127	1.31445
2519.53125	-1.39583	-2.59295	1.49729	-4.71048
2523.43750	-1.65800	-2.18979	-5.35234	-7.36782
2527.34375	2.91688	-1.78663	-0.11417	-2.17033
2531.25000	11.03504	-0.17473	1.49770	5.01471
2535.15625	15.59174	5.46650	3.51253	13.59403
2539.06250	11.98816	3.85489	7.54203	9.98310
2542.96875	0.36706	-0.17424	1.90121	1.56284
2546.87500	2.42621	0.22889	-2.93388	2.52097
2550.78125	9.08334	-0.17389	-2.12790	3.91379
2554.68750	5.10668	-3.39716	1.90162	2.93098
2558.59375	0.35799	-5.41164	0.29004	-3.95076
2562.50000	1.07089	-0.97923	-2.53028	-1.22921
2566.40625	3.90645	-4.20250	4.31967	9.22065
2570.31250	0.76734	-5.00817	7.54328	10.90501
2574.21875	-3.26478	1.03597	5.12584	5.59334
2578.12500	-2.42389	-0.57562	0.29085	-0.57283
2582.03125	-2.76762	-4.20183	-2.52951	-10.10343
2585.93750	-1.92407	-3.79872	0.69409	-9.87857
2589.84375	-1.43370	-2.99271	1.09716	3.01820
2593.75000	-7.50102	-4.20133	-6.55828	2.24355
2597.65625	-11.65219	-2.58942	-10.58741	-4.45695
2601.56250	-9.12921	-1.38044	-2.52868	-9.74866
2605.46875	-5.00552	-1.38029	1.90370	-7.63961
2609.37500	-2.36855	0.23162	0.69505	-5.24495
2613.28125	-5.98596	1.84347	0.29226	-5.10066
2617.18750	-4.34354	4.66415	-7.36329	-7.13532
2621.09375	3.34812	3.45561	-4.13970	-8.62488
2625.00000	2.30574	1.03817	1.09853	-5.01912
2628.90625	2.38041	-1.78218	-5.75111	1.42311
2632.81250	4.50589	-1.37913	-0.51278	10.15626
2636.71875	5.81881	1.44159	3.11372	9.12656
2640.62500	7.67702	3.05344	2.71095	-2.70091
2644.53125	-0.54968	4.66530	0.69642	-4.03622
2648.43750	2.72401	0.63616	-5.34742	1.25902
2652.34375	8.25954	-5.40759	-4.94435	2.08114
2656.25000	8.37378	-1.37807	2.71155	8.07018
2660.15625	6.68870	1.03972	8.35271	1.98147
2664.06250	-5.11860	-4.19821	-0.10869	-4.69508
2667.96875	-9.81571	-1.78040	-7.36130	-5.74246
2671.87500	-4.39825	1.04029	-0.10837	-3.94104
2675.78125	-0.29072	1.04048	0.69772	-1.03141
2679.68750	2.81313	0.63771	-5.34603	-1.42405
2683.59375	-0.93070	3.45844	-0.10783	-1.35772
2687.50000	-1.40902	6.27910	3.51872	-6.29006
2691.40625	-4.05877	3.45878	0.29549	-5.89620
2695.31250	-8.07376	-0.16746	-0.91310	-1.65315
2699.21875	-6.75617	-2.18193	-0.50997	0.78612
2703.12500	-9.74783	-2.58471	-4.13622	0.73548
2707.03125	-5.91849	-3.39040	-10.58291	4.84895
2710.93750	-0.39990	-5.00194	-5.34465	7.09380
2714.84375	-8.92011	-2.58421	-0.91228	5.00138
2718.75000	-12.33365	-0.97226	-0.50914	19.49561
2722.65625	-7.39519	-0.16626	3.92330	19.71440
2726.56250	-3.21343	-3.79244	6.74400	13.56608
2730.46875	-3.50429	-3.38939	6.74422	14.07415
2734.37500	2.41803	2.25183	-0.10544	10.07120
2738.28125	8.66070	-1.37438	-5.34332	16.83347
2742.18750	9.35192	-3.38882	0.29785	19.71723
2746.09375	5.88525	-2.17982	2.31270	17.03523
2750.00000	6.36018	-1.77670	1.91002	20.28008
2753.90625	11.44238	1.44691	3.11894	22.42481
2757.81250	0.23590	0.64116	-1.31312	17.78714
2761.71875	-1.81073	-2.17916	-5.74519	16.45839
2765.62500	6.45494	0.23862	-3.32736	12.83354
2769.53125	-4.66593	3.46221	-0.10380	6.36748
2773.43750	-10.45005	3.46235	2.31395	1.77191
2777.34375	-6.16279	1.04491	1.10537	5.84162
2781.25000	0.22222	2.65678	-2.92370	16.78826
2785.15625	3.31892	5.88042	-5.74400	6.59715
2789.06250	-1.13843	-1.77503	-2.11747	0.94052
2792.96875	-1.20469	-4.99829	5.94135	3.71970
2796.87500	3.58359	-0.96883	8.35907	-2.87963
2800.78125	0.14741	1.04599	1.50948	-7.09314
2804.68750	-4.74293	1.04617	-1.31081	-7.72213
2808.59375	1.21200	0.24048	3.52450	-0.84056
2812.50000	0.49666	1.44944	0.30123	10.54027
2816.40625	-2.34145	3.46424	-5.74253	11.77515
2820.31250	0.39213	1.85264	-4.93648	7.67314
2824.21875	-0.81641	-0.96770	1.91356	1.70259
2828.12500	-1.25684	-2.57933	4.73421	-5.42816
2832.03125	0.69613	1.45019	5.54024	1.28164
2835.93750	5.89406	-0.96721	3.52575	7.10047
2839.84375	9.43053	-6.20511	3.52588	5.08264
2843.75000	7.83975	-4.59324	1.10840	2.63365
2847.65625	3.93006	-3.78715	-0.90605	2.88712
2851.56250	-0.60995	-2.17528	-1.30874	4.14943
2855.46875	-3.52714	-0.56340	-5.74077	8.08418
2859.37500	-3.74899	2.66024	-0.90538	7.30110
2863.28125	-5.37201	3.06336	4.73588	7.55953
2867.18750	-8.22560	-0.96577	4.33315	2.34136
2871.09375	-7.86095	-2.57738	-3.32229	-0.19856
2875.00000	-3.19457	-1.36842	-4.12805	-0.58104
2878.90625	-6.49501	1.45232	7.55709	-11.45560
2882.81250	-4.19060	1.85538	8.76602	-11.72737
2886.71875	3.76140	-2.97960	1.11046	-7.07134
2890.62500	3.91542	-2.17358	-8.96256	-2.49672
2894.53125	-2.76877	-2.17341	-8.55939	0.85306
2898.43750	-4.83600	0.64726	0.30526	-1.21889
2902.34375	0.50520	4.27382	4.73772	0.37639
2906.25000	-2.43194	-0.96412	3.52907	1.63995
2910.15625	-4.37564	-0.96392	1.91751	2.89336
2914.06250	-7.07635	-3.38130	0.70885	-6.14460
2917.96875	-2.38167	-5.39574	-2.91741	-6.30621
2921.87500	1.46593	-1.36622	-4.12603	-3.27262
2925.78125	0.17650	-0.96305	-0.49943	-7.79422
2929.68750	-0.91516	-2.17166	-0.49925	-1.35781
2933.59375	-2.81485	-1.76853	0.70970	2.60495
2937.50000	-3.14487	-0.96248	3.12738	2.70186
2941.40625	-4.52677	-0.15641	5.14219	3.11366
2945.31250	-5.75240	-2.17086	5.54533	-0.32372
2949.21875	-10.69880	-2.97650	-4.52771	-4.77763
2953.12500	-14.96247	-2.97629	-7.75099	-11.97984
2957.03125	-12.34740	2.26200	-2.10984	-14.88474
2960.93750	-6.58638	3.47100	-4.12430	-9.47412
2964.84375	-3.70971	2.26239	0.30812	-0.93490
2968.75000	-6.34261	0.65081	5.14346	-0.92380
2972.65625	-9.26894	-4.18415	4.74074	-7.99256
2976.56250	-10.63271	-2.16932	4.74090	-8.29138
2980.46875	-5.91209	-2.97497	1.92060	-8.79958
2984.37500	-2.56951	-4.98945	-0.49680	-6.40863
2988.28125	-4.78538	-0.95998	2.32387	7.37828
2992.18750	-9.10541	-0.55691	0.71230	3.28560
2996.09375	-6.04419	-3.37723	-3.71982	-6.52347
