 	TP9	AF7	AF8	TP10	
-1000.00000	-3.76157	-3.63261	-3.17476	7.56246
-996.09375	7.32510	-1.21556	-2.94232	11.73552
-992.18750	11.01732	2.00733	-0.67906	13.45898
-988.28125	12.46568	-0.00789	-1.01516	8.55419
-984.37500	11.34366	-0.00845	-0.94693	8.53431
-980.46875	6.18723	0.39392	0.10993	10.87555
-976.56250	3.20323	-2.42712	0.74552	6.13911
-972.65625	-1.00948	-3.63645	0.91447	2.51438
-968.75000	-9.15976	-4.03988	0.52452	-2.41960
-964.84375	-8.77546	-4.44338	-0.57270	-14.03388
-960.93750	-4.00132	-5.24978	-1.04460	-11.19959
-957.03125	2.29160	-5.25032	-0.79941	-2.66924
-953.12500	6.68957	-2.43039	1.71266	1.25142
-949.21875	15.95632	-4.04265	5.69211	18.83712
-945.31250	25.11749	-6.05789	1.40366	26.64375
-941.40625	6.37152	-1.62618	-3.41590	2.98317
-937.50000	-7.49568	4.01431	-4.35475	-14.28784
-933.59375	-0.53915	5.22254	-1.91060	-7.25161
-929.68750	-0.43138	4.01318	-2.83676	-4.23020
-925.78125	-0.60565	7.23606	-4.28430	-4.01102
-921.87500	-1.37403	9.25015	-6.19919	-7.42031
-917.96875	3.66039	9.24965	-11.93689	-6.96015
-914.06250	3.49410	9.65207	-12.77588	-6.47422
-910.15625	-2.72139	9.24866	-10.95815	-5.53947
-906.25000	3.50453	10.05399	-7.56241	-0.43026
-902.34375	14.26598	7.23296	-5.36592	3.92495
-898.43750	16.42208	5.21774	-6.22118	8.43305
-894.53125	20.40123	8.44053	-5.90156	10.43460
-890.62500	22.78349	6.02238	-5.37346	11.68893
-886.71875	19.31464	1.99247	-3.19079	13.21191
-882.81250	24.68550	2.79771	-5.34840	14.85721
-878.90625	21.52522	1.58831	-8.16127	15.37029
-875.00000	17.94869	-0.02397	-5.06087	13.25510
-871.09375	16.44724	1.58717	-3.81069	11.59578
-867.18750	11.76781	2.79538	-3.65931	9.51691
-863.28125	11.75378	2.39184	-4.13273	4.82496
-859.37500	10.51103	3.19717	-4.86546	4.17861
-855.46875	4.59804	2.39069	-4.61390	-0.83350
-851.56250	-0.37805	3.59892	-2.23953	-4.60827
-847.65625	0.60465	4.00131	-3.32573	6.61809
-843.75000	-3.17347	1.58317	-3.73386	13.71761
-839.84375	-11.78282	4.80607	-0.76764	1.85245
-835.93750	-11.99380	5.20848	-0.93543	-6.44714
-832.03125	0.91408	2.38741	-2.27114	-5.09035
-828.12500	10.40173	3.99868	-4.20327	-7.16855
-824.21875	7.30377	5.60987	-2.13713	-5.20599
-820.31250	1.38689	5.60936	2.92201	-3.29554
-816.40625	1.21537	4.80302	1.54149	-6.80990
-812.50000	-2.24226	0.77323	-3.50153	-7.17451
-808.59375	-3.97172	-1.24194	-1.05194	-2.42677
-804.68750	-2.34534	1.98102	3.07567	6.88217
-800.78125	-6.38723	3.59223	1.77002	8.07357
-796.87500	-3.31846	1.57709	1.20386	3.71836
-792.96875	-0.98413	1.57658	0.91958	4.85504
-789.06250	-5.04650	4.39655	0.48871	4.32538
-785.15625	0.51535	3.18730	2.23483	0.82446
-781.25000	-0.85393	0.36625	-0.19535	-0.30575
-777.34375	2.20910	1.97751	-2.35246	2.57259
-773.43750	10.32852	3.18581	-0.69228	6.82392
-769.53125	12.41309	3.58820	0.01765	8.65764
-765.62500	17.90033	3.58769	0.57939	9.25852
-761.71875	19.19832	1.57253	2.66596	9.03721
-757.81250	14.17400	1.97497	1.75012	5.46558
-753.90625	7.51895	2.37733	-2.69627	-0.46138
-750.00000	-0.35086	0.76511	-5.28456	-3.53053
-746.09375	2.26184	1.16751	-4.30772	-2.87025
-742.18750	9.44845	1.56995	-2.94403	-1.77500
-738.28125	13.64079	1.16647	-2.20444	3.12800
-734.37500	7.50972	1.16597	-3.07802	-2.49498
-730.46875	7.42770	1.16547	-1.71675	-2.82344
-726.56250	3.56152	2.37375	-0.33718	2.31411
-722.65625	-3.91114	3.17914	-0.90859	0.69898
-718.75000	1.82136	-0.04481	-1.32403	2.40760
-714.84375	5.46609	-0.85121	-1.83806	5.15558
-710.93750	4.72105	-0.85171	-0.55986	1.91654
-707.03125	-6.00408	-1.25510	-1.20753	-2.58636
-703.12500	-8.79048	0.75908	0.71323	0.34091
-699.21875	1.68610	1.96738	4.38993	-1.12943
-695.31250	1.79211	0.75808	2.63492	-1.68514
-691.40625	-1.62330	-0.45119	0.60517	2.63297
-687.50000	-1.05305	0.35418	3.96205	-0.24436
-683.59375	-2.77180	-2.86977	2.32421	-2.04436
-679.68750	-3.68573	-3.27317	3.25085	1.78221
-675.78125	-6.73516	-2.46782	1.47547	1.15822
-671.87500	-9.99619	-5.69176	-5.07071	-0.67243
-667.96875	-0.52544	-4.48346	-2.55599	-1.94034
-664.06250	7.69916	-1.26049	1.50698	1.19803
-660.15625	3.43815	-1.66392	1.70431	7.11111
-656.25000	-1.98211	-0.45560	0.32376	6.43233
-652.34375	1.35878	0.75272	-1.06634	6.91045
-648.43750	8.46976	-0.85950	-3.03099	-0.01712
-644.53125	7.31070	-2.06872	-1.73834	-2.42347
-640.62500	-2.32467	-2.47216	-0.65408	-0.05339
-636.71875	-0.87083	-2.87559	-2.43327	-6.41343
-632.81250	-3.82439	-2.87607	-1.48392	-8.06049
-628.90625	-13.96117	-2.07066	-1.08801	-9.78425
-625.00000	-19.24939	-2.07116	-2.57612	-3.23877
-621.09375	-22.58344	-2.47460	-3.42279	0.43336
-617.18750	-17.90440	-3.28095	-1.96178	1.30152
-613.28125	-9.02628	-0.86393	0.92974	-2.87283
-609.37500	-8.18687	-2.07320	0.05142	-7.86943
-605.46875	-8.31827	-5.70012	0.20334	-4.87384
-601.56250	-6.96904	-5.29767	4.67938	-1.90680
-597.65625	-10.36965	-3.28353	4.55722	0.16155
-593.75000	-7.39768	-3.28399	1.74244	0.31279
-589.84375	-4.83253	-1.67277	1.19424	0.89391
-585.93750	-6.23356	-0.06152	-1.05506	-0.88182
-582.03125	-0.60693	-0.86792	-1.33048	-1.83763
-578.12500	3.60485	-4.09182	-1.00957	0.64157
-574.21875	0.25571	-1.67479	-1.86639	2.30342
-570.31250	-2.28913	-0.86942	3.55119	-0.81775
-566.40625	-1.71494	-5.30209	2.11169	-4.55802
-562.50000	-3.89856	-2.88501	-6.14150	-2.58371
-558.59375	3.47184	-0.46786	-3.75536	-3.30409
-554.68750	14.33618	-1.67712	-1.43558	-6.57097
-550.78125	11.12511	0.74004	-6.97925	1.10020
-546.87500	10.07075	1.94839	-6.00958	8.67703
-542.96875	5.31848	-1.67850	-2.09842	-1.32615
-539.06250	-3.91624	-1.67901	2.36234	-7.64815
-535.15625	-11.49294	-0.87363	3.84019	-4.55207
-531.25000	-14.55596	-4.09747	0.62985	-1.40906
-527.34375	-7.54584	-4.90382	0.36995	2.15766
-523.43750	-2.77178	-5.30715	1.93374	2.73966
-519.53125	8.03718	-4.09876	3.23910	4.53036
-515.62500	7.38499	-1.68164	3.48378	4.33058
-511.71875	-4.79231	-2.08500	1.80071	4.14700
-507.81250	3.05224	-2.08546	4.73166	4.09036
-503.90625	14.13922	-2.08589	5.55226	3.56854
-500.00000	5.89145	-0.87759	-0.32047	3.00931
-496.09375	1.26382	0.73369	-3.31143	1.94412
-492.18750	8.17941	-2.49026	-0.64525	3.26457
-488.28125	12.85111	-6.92304	0.63043	8.83579
-484.37500	19.78749	-4.50596	0.29579	14.05397
-480.46875	10.60164	-1.28301	0.54681	7.12769
-476.56250	-4.87313	-2.08929	-0.83226	-0.42941
-472.65625	-3.44479	-3.29851	-0.26025	1.58674
-468.75000	-0.31311	-1.68726	1.76737	4.30831
-464.84375	4.90632	-0.07594	1.47599	10.82568
-460.93750	8.47157	-2.89692	1.00411	13.25684
-457.03125	14.36139	-2.49436	2.05524	10.90799
-453.12500	14.32703	0.72867	0.53793	13.21678
-449.21875	15.53518	0.72826	-2.73535	18.31156
-445.31250	20.66691	0.72785	-2.59150	16.44779
-441.40625	22.87330	-0.48137	-1.36711	8.90436
-437.50000	29.15261	-0.07886	2.52920	14.60027
-433.59375	24.02125	-0.07930	3.36171	16.39835
-429.68750	18.89096	-2.09439	1.22676	13.77867
-425.78125	6.22587	-1.28899	2.59976	12.38614
-421.87500	1.42824	-3.30405	4.71421	11.39444
-417.96875	10.08914	-3.70739	5.02056	10.24287
-414.06250	8.31125	-2.49900	5.39044	7.10261
-410.15625	7.73696	-3.70825	3.58191	7.23159
-406.25000	10.33662	-3.70869	0.93370	2.26743
-402.34375	9.81607	-2.09737	1.11555	0.98159
-398.43750	15.59866	-0.08315	1.46905	6.69849
-394.53125	18.77215	1.12520	0.17695	10.31173
-390.62500	29.21301	-0.88980	0.30201	10.76011
-386.71875	26.95290	-0.08426	-0.33589	7.85069
-382.81250	14.19180	0.31823	0.32702	7.88401
-378.90625	8.21095	-2.09974	1.54331	11.62033
-375.00000	1.00789	-0.89143	1.42021	15.14603
-371.09375	-1.29965	-0.08595	3.07328	14.29236
-367.18750	3.28816	0.31651	5.23918	13.42198
-363.28125	0.85637	-0.48977	4.76573	13.16201
-359.37500	-6.43055	-3.31068	3.62999	11.70962
-355.46875	-1.06161	-2.90822	2.26972	8.71205
-351.56250	4.43855	-0.49105	-2.60872	6.14581
-347.65625	9.04767	-0.08850	-2.08318	7.29875
-343.75000	4.86677	-1.70069	-2.08841	2.31028
-339.84375	-5.75712	-2.90990	-3.95733	-5.12267
-335.93750	-8.38560	-4.92495	-2.91632	-6.16951
-332.03125	-2.73037	-6.94000	-2.23736	-1.18639
-328.12500	-0.89836	-5.32866	-0.94601	1.57053
-324.21875	0.03299	-4.52324	-2.90915	0.71261
-320.31250	2.57759	-3.71782	-3.89392	3.42876
-316.40625	5.22662	-3.71823	0.76955	8.37593
-312.50000	5.39538	-4.92746	0.96457	8.81722
-308.59375	10.11265	-5.33078	-5.45028	3.08871
-304.68750	10.53015	-3.31652	-5.75486	-1.30211
-300.78125	-5.59964	-2.91400	-1.82242	-0.11068
-296.87500	-3.73968	-1.30264	-4.80619	-1.64544
-292.96875	10.27960	2.32328	-3.47869	-0.50880
-289.06250	16.29048	4.33750	-1.08907	0.57304
-285.15625	20.24053	4.33707	-2.16357	2.31010
-281.25000	21.69161	4.33664	1.45022	7.22377
-277.34375	9.44302	7.55967	1.30768	7.28142
-273.43750	-0.56943	4.73876	1.35610	4.27986
-269.53125	1.11213	1.11192	0.45422	2.08418
-265.62500	5.39037	1.11148	-1.80459	-1.74733
-261.71875	13.94104	1.91695	-4.15029	-4.38631
-257.81250	4.88749	2.31942	-5.46902	-5.54041
-253.90625	-4.18506	2.31900	-4.27435	-9.85578
-250.00000	-5.20496	3.52740	-4.44505	-13.32779
-246.09375	-1.38334	1.51233	-2.25940	-11.45870
-242.18750	2.98301	-0.50276	-2.50742	-9.15466
-238.28125	0.72863	2.31729	-1.76782	-11.50438
-234.37500	8.70027	2.71983	1.38788	-1.81591
-230.46875	7.81262	-2.92165	-1.28014	11.55533
-226.56250	-2.90329	-2.92208	-4.73568	6.61973
-222.65625	-10.77878	-1.71370	-0.06902	-9.50093
-218.75000	-19.95473	-2.92290	3.94785	-19.47720
-214.84375	-16.30989	-3.72915	0.21043	-17.93799
-210.93750	-14.23451	-2.92373	-0.92895	-16.74490
-207.03125	-20.52755	-4.13288	3.66155	-22.05371
-203.12500	-21.70225	-4.93920	2.76177	-24.36448
-199.21875	-23.31359	-0.91031	1.60329	-25.02903
-195.31250	-11.52264	-0.50778	2.26591	-21.15262
-191.40625	-10.90879	-4.53747	4.26549	-12.40229
-187.50000	-14.77070	-6.14959	3.99605	-7.62395
-183.59375	-8.43085	-4.94118	0.74659	-6.60344
-179.68750	-7.33019	-3.73277	0.46447	-10.83561
-175.78125	-9.97666	-4.53902	-0.50508	-11.05671
-171.87500	-8.80556	-4.13647	0.20147	-6.03763
-167.96875	-7.39338	-1.71934	1.10448	-5.29094
-164.06250	4.05450	-0.10802	1.13811	-9.00236
-160.15625	3.41982	-1.72025	-1.08204	-14.37135
-156.25000	-8.04448	-2.52655	-1.65668	-8.20036
-152.34375	-7.92713	-2.52699	0.17670	-0.87254
-148.43750	-10.08350	-5.75089	-0.57916	1.46726
-144.53125	-7.21306	-6.55718	0.31067	12.76059
-140.62500	-0.32804	-5.75175	5.42428	15.13074
-136.71875	2.33474	-9.78148	8.88321	1.92103
-132.81250	-0.21581	-7.36432	4.19157	-1.33767
-128.90625	-4.71142	-2.52963	2.57291	0.56507
-125.00000	-3.55264	-0.11246	7.53174	-0.14208
-121.09375	3.18667	-0.51585	6.28218	-1.30506
-117.18750	11.08916	-2.93389	1.29629	-2.45146
-113.28125	8.28237	-4.54602	1.77035	1.83583
-109.37500	-3.36896	-4.94943	6.53301	4.49506
-105.46875	-11.96183	-2.93523	8.29676	0.23797
-101.56250	-14.64181	-2.93568	2.69959	-0.01834
-97.65625	-7.56626	-1.72730	0.96578	-1.57617
-93.75000	6.68772	0.28692	-1.44603	-4.24540
-89.84375	4.82058	3.50993	-2.39705	-8.90230
-85.93750	-8.66836	3.10662	-1.82579	-12.28966
-82.03125	-6.66810	0.28566	-1.69827	-12.03668
-78.12500	-6.48574	-2.13229	-2.98903	-11.97512
-74.21875	-8.62629	-2.53563	-4.24872	-8.70164
-70.31250	-6.73884	-1.73013	-0.44287	-6.98767
-66.40625	0.68539	-2.53635	-0.67352	-9.92211
-62.50000	1.72528	-0.92505	-4.49432	-5.12720
-58.59375	-1.38063	0.68630	-3.71981	6.24035
-54.68750	-0.18679	2.29758	0.61470	7.40577
-50.78125	5.86937	4.71477	0.30921	5.80947
-46.87500	-2.03498	5.11733	-1.13863	7.34218
-42.96875	-3.96688	2.29639	-2.06250	0.56249
-39.06250	9.76532	-0.92746	2.80126	2.29895
-35.15625	10.64983	-1.33076	5.89101	6.60367
-31.25000	8.39218	-0.12234	-0.54264	4.50820
-27.34375	2.10513	1.48901	-2.81708	3.64232
-23.43750	0.02876	3.10045	0.35858	0.59757
-19.53125	4.79301	3.10013	-2.76820	-0.43280
-15.62500	11.39284	1.48804	-0.91169	3.79900
-11.71875	11.30279	0.27892	2.24053	-0.41442
-7.81250	5.84993	1.48744	0.33652	-6.91860
-3.90625	2.43070	-0.93044	-0.05163	-5.02353
0.00000	-0.98247	-2.54243	-1.08901	-1.95709
3.90625	-11.25165	-3.34858	0.35236	-4.63457
7.81250	-8.76879	-1.33419	3.42158	-8.55284
11.71875	-4.09739	3.09782	-1.74955	-7.41442
15.62500	-11.26374	0.67993	-1.68119	-7.43493
19.53125	-9.97380	1.48547	0.58463	-3.88546
23.43750	-4.89949	2.69397	-0.79435	-3.78723
27.34375	-3.06849	0.67899	-0.22226	-10.23294
31.25000	2.48061	-0.53013	1.40252	-9.12336
35.15625	6.89406	0.27543	3.12594	-1.80020
39.06250	2.40059	1.48391	1.44542	-0.17486
42.96875	7.08163	0.67770	-0.32392	2.31159
46.87500	14.30011	-1.74028	0.17354	5.02353
50.78125	5.43511	-3.35237	-1.48788	1.65692
54.68750	10.96994	-1.33813	-0.53810	9.46368
58.59375	9.14717	-0.93569	1.89517	12.39668
62.50000	-5.52574	-0.53319	-1.86398	-0.84486
66.40625	-1.79241	2.28687	-0.62855	-1.86699
70.31250	-2.49011	1.07763	0.45999	-0.86003
74.21875	-8.70807	-0.53449	-4.61382	-3.46106
78.12500	-11.08793	0.67388	-2.90227	-1.63203
82.03125	-11.29121	-0.93832	2.23928	-4.39504
85.93750	-9.03950	1.07589	-0.21137	-7.93798
89.84375	-1.55501	1.88136	-0.40818	-6.60005
93.75000	-3.79038	1.07499	-2.65340	-6.72878
97.65625	-3.50492	2.28330	-6.90376	-8.82030
101.56250	2.68069	4.29746	-5.34142	-6.72958
105.46875	3.43675	3.49116	1.02212	-2.71323
109.37500	0.58117	2.28192	3.16194	-2.26450
113.28125	1.54481	2.28144	-0.29646	0.06452
117.18750	-3.15737	2.28098	-0.43940	-1.11061
121.09375	1.33831	2.28055	1.58276	-4.62657
125.00000	7.83511	3.89187	-1.76368	-3.92098
128.90625	-9.38030	1.87679	-4.13983	-4.77422
132.81250	-11.23884	-1.75004	-1.97386	-6.44992
136.71875	-2.38806	-1.34752	-1.64137	-4.69478
140.62500	0.80166	-1.75093	-1.56824	-3.32630
144.53125	3.35052	-0.13962	1.10085	-2.69721
148.43750	-0.81933	2.68043	-0.15111	-4.05420
152.34375	-3.05975	1.06822	-2.04312	-6.52722
156.25000	0.41523	-0.14096	-3.65999	-5.87429
160.15625	3.49112	-2.15605	-3.11130	-3.23375
164.06250	3.28036	-5.37994	1.55618	-2.26561
167.96875	-3.15222	-6.18629	-0.18238	2.31495
171.87500	-2.12596	-3.76912	1.51197	4.66919
175.78125	6.46113	-2.15781	3.98119	-1.42661
179.68750	4.17059	1.06513	0.57884	2.90159
183.59375	-4.05953	-2.15871	-3.21917	5.43131
187.50000	-5.50250	-5.78555	-1.00942	3.45520
191.40625	-3.20267	-1.35373	0.23150	6.99427
195.31250	-7.62030	-0.95128	-1.68477	4.21535
199.21875	-1.18610	-3.36929	-1.78153	-0.63709
203.12500	5.10610	-0.54925	-1.94465	1.05174
207.03125	0.99358	1.86790	-2.63181	0.97979
210.93750	0.55766	4.28499	0.96669	-3.57913
214.84375	1.28438	4.68752	4.32452	-8.28878
218.75000	-6.53165	1.06067	1.89434	-3.37489
222.65625	-10.72132	2.26905	-0.26274	-0.09357
226.56250	-9.45151	1.86577	-1.42307	0.12848
230.46875	-8.17260	6.29756	1.30142	-0.05240
234.37500	-0.67076	8.31178	-1.36024	-3.07793
238.28125	3.04477	3.87916	-2.90004	2.34190
242.18750	6.88486	5.49043	-0.18941	7.23186
246.09375	11.51184	7.10173	-1.41228	4.52834
250.00000	14.52120	8.31003	3.65513	5.89157
253.90625	7.86663	7.50371	5.84084	8.56659
257.81250	3.36842	3.47395	0.75766	11.67657
261.71875	4.33752	3.47351	2.30317	12.14740
265.62500	-3.00223	3.47308	4.25019	8.94217
269.53125	3.76575	3.06978	0.77640	10.62854
273.43750	11.98753	1.86056	2.55895	15.76615
277.34375	14.18527	1.05424	7.22561	12.53928
281.25000	15.48541	1.85975	4.39271	8.20395
285.15625	3.41576	1.45638	1.46115	9.74312
289.06250	-0.95578	1.05298	4.35114	7.30990
292.96875	-2.41386	-1.76792	6.12113	4.01568
296.87500	-8.82681	-4.58881	-1.62842	2.51075
300.78125	-6.81189	-4.58928	-4.80145	3.45792
304.68750	-9.52655	-1.76926	0.69633	2.09622
308.59375	-11.73337	0.64790	2.69594	-4.06192
312.50000	-6.32809	-0.15839	0.41193	-4.52163
316.40625	-2.40581	-0.96476	0.78887	0.12531
320.31250	1.51522	-0.56227	3.73028	1.93717
324.21875	-3.14612	-1.77152	1.95499	-3.92502
328.12500	-8.42194	-0.96610	-0.15881	-4.14394
332.03125	0.64582	1.85401	0.74424	1.84081
335.93750	10.07911	5.07704	1.98671	6.18793
339.84375	14.27943	3.86785	-2.65097	5.65419
343.75000	15.42632	3.42555	-3.73481	5.14096
347.65625	17.03810	3.31906	-2.12277	3.93140
351.56250	17.44100	3.67642	1.10099	1.91581
355.46875	14.62037	6.70362	4.72768	3.52658
359.37500	17.03779	3.39296	1.10175	9.56981
363.28125	-2.30302	-0.63080	-1.71839	5.53983
367.18750	-26.88197	0.13405	-1.71804	-6.14582
371.09375	-20.83804	1.71202	-1.31477	-6.14635
375.00000	-13.58518	1.45839	-1.31437	-3.32614
378.90625	-11.97313	0.51484	-2.52277	-2.11777
382.81250	-11.56990	0.94675	-2.92527	-3.72985
386.71875	-9.15218	1.37492	-1.31313	-5.34181
390.62500	-14.39009	1.76546	0.70196	-7.75973
394.53125	-13.58401	-0.15187	-0.10351	-6.55131
398.43750	-7.94282	-1.55458	1.10569	-4.94000
402.34375	-10.36034	-0.30277	0.30021	-6.55216
406.25000	-4.31637	1.80298	-1.71410	-2.92643
410.15625	-7.53991	1.82095	0.30088	-1.31537
414.06250	-12.37522	-0.54453	0.70410	-1.71906
417.96875	-12.77838	0.81247	-0.10141	-4.94335
421.87500	-20.83723	2.06879	1.51061	-6.55598
425.78125	-11.57007	-0.59681	2.31681	-2.12477
429.68750	-3.10873	-0.13717	-0.10056	-2.12576
433.59375	-4.31783	0.68305	-1.30911	-3.73847
437.50000	2.53170	1.57320	2.31756	0.69271
441.40625	4.54605	4.43582	2.31782	-0.11423
445.31250	-6.33348	3.03950	1.91511	-9.78575
449.21875	-11.57201	1.53050	3.93001	-10.19002
453.12500	-3.11080	1.11264	5.13906	-3.74434
457.03125	13.81200	1.53405	6.34810	0.28387
460.93750	5.75306	1.56115	5.54252	4.71503
464.84375	-1.90313	2.23520	0.70758	0.68461
468.75000	9.37827	4.00219	0.70782	1.48930
472.65625	25.89782	3.56402	3.93154	3.90580
476.56250	21.86794	2.30737	1.11129	-0.52761
480.46875	8.97352	1.50421	-1.70897	4.30633
484.37500	5.74944	1.42217	-0.09706	7.93163
488.28125	-3.11551	-0.37922	1.51484	7.12474
492.18750	2.92805	-1.23124	0.30634	8.33244
496.09375	14.20969	0.67021	0.30658	5.10785
500.00000	3.33031	0.63979	1.11266	3.09202
503.90625	-8.75789	1.00360	1.91875	3.49383
507.81250	-5.13191	2.48759	1.11312	2.28380
511.71875	-4.72931	2.84328	2.32212	0.26780
515.62500	-0.29740	1.05554	2.72522	-1.34524
519.53125	-0.29766	-1.83662	-2.10972	0.26521
523.43750	1.31394	-0.22900	-2.51248	1.06983
527.34375	4.53735	2.52856	-2.91512	3.48626
531.25000	5.74605	2.08697	-5.73541	4.69396
535.15625	9.77523	-0.16266	-2.10873	1.46943
539.06250	12.99850	0.52310	1.51792	6.70645
542.96875	6.55143	2.55992	3.53291	11.54048
546.87500	4.93953	4.57774	4.33904	11.94234
550.78125	6.95395	5.76606	0.71291	6.70315
554.68750	6.55082	3.86535	0.31029	2.26981
558.59375	12.59457	2.48193	0.71349	8.31272
562.50000	19.84712	0.10377	-0.49496	13.14694
566.40625	17.83236	0.17304	2.32592	12.74300
570.31250	12.19122	1.38861	6.75843	10.72737
574.21875	4.53548	-0.15681	3.13244	11.53227
578.12500	5.74417	0.41499	1.52100	14.35182
582.03125	7.75875	1.26784	2.73009	14.75356
585.93750	5.74409	0.59587	2.73040	13.94665
589.84375	9.77344	0.63866	3.13371	9.11055
593.75000	7.75888	-2.15588	2.32820	2.25970
597.65625	9.37068	-1.64715	1.92557	1.04990
601.56250	4.53563	1.62115	1.52298	1.45191
605.46875	-7.55234	2.21965	2.73215	1.45095
609.37500	-3.92602	2.30608	3.13546	1.85291
613.28125	3.32664	-0.11776	-1.29644	2.65778
617.18750	8.56469	-0.88323	-3.71365	3.05965
621.09375	10.57931	-1.65603	-1.69866	8.69968
625.00000	5.34118	-4.22352	3.13684	8.29567
628.90625	1.71466	-0.86312	7.97234	5.87704
632.81250	2.92315	-0.48985	7.97272	5.07005
636.71875	4.53469	-3.73930	6.76432	1.03968
640.62500	2.11676	-2.51882	3.54132	3.45621
644.53125	8.56333	-0.60223	2.33292	2.64923
648.43750	11.38360	-2.42359	1.12451	-0.97829
652.34375	0.10135	-1.25850	-0.88982	-2.99405
656.25000	-1.51056	-0.14137	0.31930	-4.60694
660.15625	0.50387	-0.56280	1.93134	-3.80239
664.06250	-4.73449	-0.61549	2.73753	-2.99782
667.96875	-6.34653	1.25040	1.93199	-4.61078
671.87500	-1.51165	2.00833	-0.48530	-7.02973
675.78125	-4.73542	0.24126	-0.48497	-1.79298
679.68750	-11.58553	0.99002	2.33590	-0.18253
683.59375	-4.73588	2.58695	2.73908	-2.19854
687.50000	-0.30389	4.11407	3.54529	5.45587
691.40625	-5.94510	2.45983	1.53088	4.24578
695.31250	-3.93059	-0.17353	-2.49815	-0.59068
699.21875	4.12796	-0.67956	-4.10957	-0.99487
703.12500	-2.31905	1.34966	-5.31807	3.43619
707.03125	-3.52799	1.33089	-2.09430	4.64384
710.93750	9.36558	2.10927	1.93533	0.21049
714.84375	3.72439	3.44955	2.33863	-0.99943
718.75000	-6.34907	2.08503	2.33898	2.62588
722.65625	-8.36382	2.92577	-1.28704	7.45993
726.56250	-3.52870	3.37617	-2.89836	6.65297
730.46875	6.54450	4.58179	-0.88335	7.86072
734.37500	9.76779	5.46921	-1.68884	5.44208
738.28125	9.36461	2.43498	-2.09142	0.60592
742.18750	10.97617	0.46592	-0.07641	3.42540
746.09375	17.42288	2.99617	1.13273	5.03604
750.00000	20.24336	3.42900	3.14774	5.43792
753.90625	-0.30617	3.06465	2.74515	8.25734
757.81250	-9.97650	5.60943	-0.07497	5.83878
761.71875	-10.78246	3.64151	0.32833	2.61433
765.62500	-11.99138	-0.21236	-0.88014	2.21037
769.53125	-6.75332	1.87342	-2.89446	4.62690
773.43750	0.90237	3.89159	-2.49123	2.61114
777.34375	7.75227	4.35691	0.73254	4.22177
781.25000	7.34921	1.57443	2.74751	6.63838
785.15625	-8.76821	0.60000	0.33033	1.80223
789.06250	-18.03586	4.74878	-0.07225	0.18950
792.96875	-5.14237	3.92001	3.15157	-0.21442
796.87500	2.51321	-0.11313	2.74897	0.18743
800.78125	2.51314	-0.09323	-0.47413	-2.23105
804.68750	2.11011	1.80679	0.73504	-0.21723
808.59375	1.70714	2.78666	1.94423	4.61694
812.50000	-0.71063	0.73193	3.55637	5.01888
816.40625	6.94488	-0.54674	4.36261	6.62971
820.31250	2.91563	-0.15126	5.16883	6.22583
824.21875	-5.14294	1.39348	2.34870	3.40440
828.12500	-3.12824	-0.38770	-0.06854	1.38882
832.03125	-11.18678	-1.24121	2.34944	-2.64143
835.93750	-11.58984	-0.16687	1.14100	-5.06003
839.84375	-6.35194	0.59565	-2.88792	-7.47856
843.75000	-5.54617	0.56906	-0.46997	-7.07658
847.65625	-1.91993	2.07446	1.94804	-6.27163
851.56250	-4.74050	3.64065	1.54547	-7.88423
855.46875	-3.93465	1.42984	1.14295	-4.66166
859.37500	-8.76975	1.74574	-3.69182	-4.25960
863.28125	-13.60490	2.96021	-2.48269	-1.03694
867.18750	0.90068	1.71049	2.75580	1.37988
871.09375	2.10958	3.69157	3.15916	-5.06778
875.00000	-9.57528	3.03509	3.15953	-1.03928
878.90625	-11.18681	2.09168	4.36875	0.97460
882.81250	-3.53089	4.53836	3.56332	-5.07007
886.71875	1.30456	3.35506	1.14609	-6.68247
890.62500	6.14002	4.95452	3.56406	-7.08614
894.53125	13.39297	7.46957	5.98199	-3.05754
898.43750	1.30511	3.64939	1.55013	-1.04353
902.34375	-11.99162	0.87200	1.14761	0.56756
906.25000	-7.15637	3.78363	2.75969	1.37274
910.15625	0.09656	3.80166	1.14837	0.16329
914.06250	8.15519	2.24208	1.95460	3.78899
917.96875	11.37868	2.39040	1.95501	4.59411
921.87500	4.93193	1.63204	2.76126	9.83153
925.78125	-3.93247	1.38403	5.58222	14.26306
929.68750	-0.70896	3.85825	3.97083	11.03889
933.59375	-3.12640	4.27552	1.55358	10.23221
937.50000	-13.19952	2.74807	4.37456	14.26070
941.40625	-7.96139	3.59599	7.19545	17.88612
945.31250	-1.51456	5.02011	7.59877	15.46757
949.21875	-0.30597	4.31690	3.97271	9.42263
953.12500	6.14072	1.88432	-0.45920	4.58647
957.03125	4.52877	0.29093	-1.66759	2.16785
960.93750	2.91678	1.92966	-0.45851	0.55514
964.84375	6.54296	5.42415	3.57122	4.18048
968.75000	4.93104	4.77352	3.16863	2.56775
972.65625	3.31920	5.14109	-0.45745	2.16375
976.56250	5.73667	6.30194	1.15465	8.60955
980.46875	7.34822	6.70753	6.79602	4.17627
984.37500	6.94506	5.01376	6.39352	0.95189
988.28125	8.15363	-1.62288	2.36464	5.38322
992.18750	-2.32274	-4.08659	1.15624	4.17352
996.09375	-18.44012	-0.17045	3.97715	2.15795
1000.00000	-21.26090	1.81380	5.18634	-7.91625
1003.90625	-18.44069	1.37171	-0.05140	-10.33480
1007.81250	-14.00866	-0.36763	0.35192	-5.50055
1011.71875	-3.93562	-1.22072	4.38160	-2.68108
1015.62500	-1.11534	1.02098	3.97905	3.76479
1019.53125	-5.95068	1.35229	1.96480	1.74914
1023.43750	-4.74213	-1.47230	-0.04946	-2.28122
1027.34375	0.89856	-1.53512	-0.85494	-0.26755
1031.25000	0.49542	1.24684	0.75713	-1.07445
1035.15625	9.76267	1.01193	-2.06301	-3.49294
1039.06250	7.34495	2.50370	-4.48028	-2.68804
1042.96875	-3.93720	4.94368	-2.86814	0.53449
1046.87500	-6.35491	0.11190	-5.28535	-1.88402
1050.78125	0.49482	-0.31140	-4.88201	-1.48195
1054.68750	4.12109	1.41446	-1.25529	2.54641
1058.59375	0.49463	-1.17764	-0.85197	1.73959
1062.50000	4.52378	-1.94391	0.35719	-2.29073
1066.40625	-5.54953	-3.88913	-0.04540	-7.52971
1070.31250	-8.37020	-3.47920	-0.44799	0.12493
1074.21875	-4.74399	-2.60684	-0.04471	2.54151
1078.12500	-9.98226	-2.03494	-0.44731	-5.51805
1082.03125	-7.16193	-0.37605	-1.65570	-2.69854
1085.93750	-12.80318	-1.45084	-1.65536	-2.69952
1089.84375	-14.01215	-2.21384	2.37429	-2.29759
1093.75000	-3.13333	-0.97904	0.76287	-5.52196
1097.65625	-4.34233	-2.08195	-1.25144	-11.16401
1101.56250	-7.16296	-0.82815	-0.84817	-11.56797
1105.46875	-2.73085	0.17344	-2.05666	-9.55435
1109.37500	2.50702	-0.54584	-2.45928	-7.13780
1113.28125	2.10372	1.86561	-2.05596	-7.13882
1117.18750	-0.71713	5.53251	-0.84678	-3.51337
1121.09375	0.89426	2.74517	-4.06985	0.11199
1125.00000	0.49112	-2.23982	-8.09877	-0.29190
1128.90625	5.32604	0.31486	-4.87494	-1.09876
1132.81250	11.36975	2.30002	-1.65110	1.72082
1136.71875	5.72849	1.06541	-2.05368	8.16673
1140.62500	6.93700	4.70370	-2.05332	3.73364
1144.53125	5.32517	5.00882	-0.84416	-1.90835
1148.43750	-1.52478	3.99354	3.99137	-1.10346
1152.34375	-5.15134	6.36764	4.39471	-3.52195
1156.25000	-4.74848	3.85851	-0.84300	-3.52288
1160.15625	4.11584	9.07829	1.17202	-1.10630
1164.06250	-2.73409	10.63754	0.36653	-3.12189
1167.96875	-10.79280	4.44491	-0.84193	-8.36091
1171.87500	-4.34607	6.00878	6.41117	-3.12377
1175.78125	-10.39016	5.04763	10.03788	-10.78037
1179.68750	-18.44899	6.19944	8.02360	-22.06340
1183.59375	-21.67273	13.43748	3.18878	-26.49651
1187.50000	-32.95502	13.35286	5.20375	-35.36197
1191.40625	-47.46076	9.28106	14.06854	-46.64494
1195.31250	-61.96651	11.48299	11.24842	-61.95719
1199.21875	-76.87527	12.99168	8.83117	-81.29886
1203.12500	-101.05137	13.40922	11.65205	-92.98503
1207.03125	-117.97472	17.82276	10.04065	-100.64178
1210.93750	-126.43651	23.83928	8.42931	-115.14828
1214.84375	-135.30125	22.76204	16.08531	-121.19329
1218.75000	-133.68991	21.39765	17.29448	-125.22368
1222.65625	-143.36058	23.85015	9.63918	-145.37128
1226.56250	-146.58429	24.70353	10.84831	-155.04260
1230.46875	-134.89957	27.11804	12.86333	-146.58217
1234.37500	-132.48219	24.37924	13.66956	-142.95673
1238.28125	-129.66190	21.34517	14.47579	-138.92831
1242.18750	-118.78299	24.21141	12.46154	-130.06470
1246.09375	-116.76857	22.71249	12.86486	-128.05093
1250.00000	-119.18636	17.90739	13.26811	-122.00787
1253.90625	-106.69569	17.94617	9.23916	-111.12967
1257.81250	-97.83147	15.65590	9.23949	-103.87784
1261.71875	-102.66684	10.86762	10.44867	-97.83482
1265.62500	-87.35571	13.05785	10.04609	-89.37419
1269.53125	-68.41811	14.33794	8.83765	-73.25787
1273.43750	-68.01527	12.32699	9.64391	-59.96218
1277.34375	-66.00074	6.34557	11.25596	-49.08408
1281.25000	-53.51011	2.75742	10.04753	-39.01184
1285.15625	-28.52870	1.78317	8.03325	-23.70144
1289.06250	-5.56197	-2.52943	5.21314	-11.61446
1292.96875	-1.53303	-6.17852	4.00473	0.06961
1296.87500	6.12224	-9.00271	3.19929	16.18589
1300.78125	14.18041	-9.78862	-1.23260	6.51455
1304.68750	7.33022	-11.11196	-3.64981	5.30478
1308.59375	14.17970	-12.14658	-2.44070	15.78002
1312.50000	26.67024	-9.36594	-1.63449	27.86692
1316.40625	31.50515	-11.04742	-4.05181	36.73045
1320.31250	31.90786	-10.65183	-9.28959	34.71492
1324.21875	32.31066	-3.86885	-11.70690	36.72871
1328.12500	46.41313	-4.84416	-10.90075	42.77193
1332.03125	53.66594	-11.33859	-7.67702	47.20358
1335.93750	46.41337	-11.07006	-8.48260	43.17379
1339.84375	42.38444	-8.29291	-11.30282	35.11485
1343.75000	41.98203	-8.31942	-8.88490	40.75574
1347.65625	44.40018	-10.84337	-7.67586	45.59082
1351.56250	50.04203	-11.69471	-8.48138	44.38208
1355.46875	48.43116	-9.87616	-9.68984	42.77047
1359.37500	41.58224	-11.57502	-8.48074	43.97937
1363.28125	37.15088	-10.36054	-5.25701	52.03812
1367.18750	45.21041	-7.17802	-3.24206	52.44125
1371.09375	48.03172	-6.80870	-3.24174	49.62085
1375.00000	38.36211	-9.07690	-5.25609	43.97996
1378.90625	41.98918	-10.02036	-4.44994	48.81509
1382.81250	46.42201	-7.17080	-0.42036	52.84434
1386.71875	40.78165	-5.53371	-4.04638	41.56228
1390.62500	39.17042	-7.96357	-5.25484	41.96514
1394.53125	39.57380	-7.86608	-2.43399	43.17379
1398.43750	37.15667	-6.44823	-6.05998	35.11503
1402.34375	30.71033	-6.80799	-6.86548	36.32370
1406.25000	32.72556	-9.13432	-5.65646	38.33818
1410.15625	37.56120	-9.51920	-4.85021	38.74094
1414.06250	33.93513	-6.24362	-4.84979	42.36695
1417.96875	28.29436	-4.08064	-1.62596	37.53133
1421.87500	31.11491	-4.83894	-1.22268	33.50146
1425.78125	30.30904	-4.68390	-2.83396	37.12713
1429.68750	34.74128	-5.43300	-1.22186	38.33512
1433.59375	39.97931	-4.20972	-2.83319	35.51373
1437.50000	35.54689	-4.12534	-6.45923	34.30399
1441.40625	45.21693	-3.27719	-5.25005	32.69138
1445.31250	48.84277	-2.65880	-2.42915	30.67584
1449.21875	34.73966	-2.15297	-0.41409	29.46612
1453.12500	26.27758	-0.15317	-1.21954	23.82414
1457.03125	24.66524	-3.76099	-4.44260	25.83781
1460.93750	20.63538	-4.53964	-4.03922	28.25443
1464.84375	18.21743	-1.85080	2.00515	23.82126
1468.75000	14.18767	-2.50121	2.81141	22.20860
1472.65625	10.96386	-3.34219	0.79716	21.40173
1476.56250	8.94874	-1.77815	-0.81413	18.17727
1480.46875	19.42440	0.23939	-0.81369	17.37031
1484.37500	22.24450	0.96346	-0.41036	25.02493
1488.28125	13.78248	0.77394	-1.61868	24.62083
1492.18750	12.97619	-1.68955	-0.40952	18.57567
1496.09375	7.33468	-2.20547	-0.00617	16.15689
1500.00000	10.15465	-2.63863	-1.21461	14.14094
1503.90625	18.21277	-3.88630	0.39752	14.13961
1507.81250	14.58584	-2.40206	2.00961	13.73541
1511.71875	14.98831	-0.83735	2.41297	9.70493
1515.62500	15.79375	0.19573	2.01040	6.07734
1519.53125	17.80799	1.33310	-1.21266	13.32888
1523.43750	12.16646	2.13513	-2.01810	7.68666
1527.34375	7.33079	0.05784	-1.61474	-0.77608
1531.25000	8.53909	0.82527	-1.21146	3.25209
1535.15625	6.52401	3.81399	-0.00225	9.69789
1539.06250	9.74696	0.47075	-1.21064	9.69683
1542.96875	4.50832	-3.53606	-2.41903	4.05474
1546.87500	1.28447	-3.12960	2.01363	5.26250
1550.78125	0.07543	-1.53809	2.41697	10.90253
1554.68750	-0.73064	-1.82672	-0.00022	10.90150
1558.59375	-0.32807	-4.41857	2.01482	10.49749
1562.50000	4.90969	-3.17009	-0.40241	11.30228
1566.40625	10.14746	-4.71228	-1.20788	10.09244
1570.31250	12.56463	-6.71978	2.82179	12.10600
1574.21875	12.96710	-3.02682	-0.40128	14.92549
1578.12500	9.74314	0.76865	0.00209	10.08928
1582.03125	6.11623	0.01012	2.42010	4.85016
1585.93750	2.08650	-2.27336	0.00290	6.46090
1589.84375	-1.94324	-3.43912	0.80914	6.45987
1593.75000	1.27976	-2.60703	-2.01100	2.83240
1597.65625	6.11443	-1.29227	-4.83113	3.23427
1601.56250	5.30798	1.97636	-3.21907	4.03900
1605.46875	1.27806	5.39564	-0.80111	3.23203
1609.37500	-0.33427	5.88529	-1.20366	6.85737
1613.28125	-1.14058	4.67049	-0.80033	7.25920
1617.18750	-3.55849	4.71109	0.81177	-3.62096
1621.09375	0.06746	5.14736	2.02099	-4.83082
1625.00000	3.69350	5.40064	-1.60497	-3.22017
1628.90625	11.75174	2.31444	-4.82804	-0.40062
1632.81250	4.90158	-2.55005	0.00749	2.82176
1636.71875	-6.38075	-0.96403	1.61958	0.40318
1640.62500	-3.96354	-0.14615	-2.40934	1.20804
1644.53125	-3.56095	-2.66155	-1.60306	2.41595
1648.43750	-5.57594	-2.06506	-2.40860	3.22094
1652.34375	-1.54699	-0.49677	-2.81111	7.24936
1656.25000	6.10835	1.02348	-3.21370	4.83084
1660.15625	8.12273	-0.20355	-6.43677	-1.21401
1664.06250	10.54003	-1.06181	-5.63052	0.39686
1667.96875	3.68986	0.40134	-3.21253	4.02231
1671.87500	-10.01017	-1.25816	-2.40632	2.40971
1675.78125	-4.77242	-1.01042	-0.79423	-2.82933
1679.68750	7.31515	-1.87317	1.62361	1.60197
1683.59375	3.68848	-5.11121	1.22103	12.07719
1687.50000	-0.34114	-5.59866	4.84772	6.43531
1691.40625	2.47914	-1.20882	4.44517	3.21090
1695.31250	4.89642	0.99318	-2.00140	2.80701
1699.21875	11.34308	0.89017	-1.19523	4.82077
1703.12500	1.67251	1.30777	0.41687	4.81984
1707.03125	-8.40109	1.28908	0.01425	2.40135
1710.93750	2.47779	0.45588	-0.38837	0.78870
1714.84375	6.50682	2.19916	-0.79091	-0.82386
1718.75000	12.55045	4.86409	-1.59643	3.20458
1722.65625	14.56482	2.07855	-1.19321	0.78611
1726.56250	8.92359	2.12614	2.03057	3.20285
1730.46875	7.71461	4.94366	6.86603	9.24594
1734.37500	8.11730	0.99606	4.04584	5.21583
1738.28125	11.34044	1.18547	0.82270	-1.23188
1742.18750	4.08734	2.84301	1.62884	-0.42678
1746.09375	0.05769	1.34405	0.01748	6.01926
1750.00000	1.66913	-0.23754	-0.78804	14.07708
1753.90625	-4.77809	-1.00465	-1.19067	8.43516
1757.81250	-2.76373	0.33149	0.42142	0.77860
1761.71875	1.26539	1.58716	0.42176	5.21007
1765.62500	9.32374	0.95693	-1.18962	8.43272
1769.53125	5.29409	1.83411	-0.78629	4.80552
1773.43750	0.86148	3.85246	0.82578	6.01353
1777.34375	8.51684	1.49745	-0.78554	11.65374
1781.25000	10.93412	-0.88191	-2.39691	11.65289
1785.15625	16.97774	0.15858	-0.38189	11.65201
1789.06250	10.53057	-0.52765	-1.99324	6.81597
1792.96875	6.09808	1.06139	-2.79876	2.78573
1796.87500	12.54467	2.26655	-0.38089	6.00829
1800.78125	4.08276	0.67490	0.42537	8.02206
1804.68750	-4.78203	4.18684	-0.78309	3.58900
1808.59375	9.32011	7.98733	-1.58860	0.76762
1812.50000	11.73726	5.12693	-0.37954	2.37857
1816.40625	11.73676	1.02792	0.02370	2.37774
1820.31250	5.28941	3.03535	0.82984	3.18272
1824.21875	-8.00766	3.77443	0.02428	-0.04167
1828.12500	-6.39631	0.38170	-0.37840	-0.04264
1832.03125	-8.81415	-0.06868	1.63654	0.76225
1835.93750	-12.84389	0.19996	0.02513	-11.32659
1839.84375	-10.42672	0.15673	0.02542	-8.90986
1843.75000	-1.96562	2.14501	0.02575	-4.47852
1847.65625	-3.17484	4.85934	-1.98859	-7.70276
1851.56250	-0.35475	1.59066	-1.98829	-5.68901
1855.46875	9.71815	-0.21704	-3.19680	-6.89872
1859.37500	10.12064	2.11367	-3.19649	-6.09374
1863.28125	3.67348	0.50783	2.04191	-6.90047
1867.18750	7.29948	-1.54756	3.25099	-2.87208
1871.09375	5.68738	-1.17809	1.23661	3.97685
1875.00000	-7.20682	0.98612	0.83396	3.57307
1878.90625	-3.17787	1.65459	0.02843	5.18387
1882.81250	2.86582	0.87795	0.83459	2.36248
1886.71875	0.85083	-0.70828	3.25250	2.76449
1890.62500	0.04459	-2.33211	6.47625	8.00169
1894.53125	2.46178	-0.62280	3.25310	5.98612
1898.43750	4.87889	-0.01068	0.02997	1.15013
1902.34375	3.26681	0.03263	2.44787	3.96982
1906.25000	0.44609	2.54147	0.43350	7.99831
1910.15625	4.87803	3.36546	-2.38677	6.78872
1914.06250	4.47481	4.22358	-3.19231	2.35564
1917.96875	4.87737	2.35732	-3.59490	-3.68910
1921.87500	-2.77859	-2.02728	-4.40051	-0.46646
1925.78125	-7.61403	-4.28985	-3.99725	3.15904
1929.68750	-2.37619	0.19907	-6.41454	-7.72090
1933.59375	0.84705	1.01941	-8.42887	-7.72172
1937.50000	-1.57063	-2.92556	-4.39924	-6.51377
1941.40625	-8.42073	-2.48044	-4.80181	-10.54389
1945.31250	-9.22703	-0.65333	-3.99563	-3.69493
1949.21875	-4.39232	-1.75932	-1.98065	2.34814
1953.12500	-6.81033	-2.58006	-0.77152	-4.09963
1957.03125	2.85940	-0.54698	-1.17417	-12.96505
1960.93750	15.75272	-0.51987	-6.41196	-8.53386
1964.84375	2.85840	0.15422	-7.62047	-4.90842
1968.75000	-5.20074	2.32421	-6.41135	-4.10354
1972.65625	7.28969	2.28907	-2.38175	1.13358
1976.56250	16.55676	5.06177	2.05080	4.35614
1980.46875	17.76521	5.46753	0.84230	5.56411
1984.37500	16.95898	2.96808	0.03675	7.17491
1988.28125	8.90002	4.39019	2.45465	10.39746
1992.18750	8.49670	1.92660	0.84318	9.18778
1996.09375	10.91399	-0.20109	-1.57406	2.33718
2000.00000	2.85509	2.18620	-1.17086	3.14225
2003.90625	-1.98024	2.14727	-1.17058	6.76785
2007.81250	2.45175	0.00509	-2.78200	4.34943
2011.71875	4.06319	-1.65376	-0.36416	2.33397
2015.62500	-0.36929	0.58794	4.87425	4.34781
2019.53125	-1.17542	3.73993	1.65112	2.73526
2023.43750	-9.23430	-1.90504	-2.78076	6.36087
2027.34375	-8.02575	-3.57954	-1.57167	8.77760
2031.25000	0.43562	-0.39454	-0.76553	-1.69947
2035.15625	2.04710	-0.22648	-0.76520	-2.50625
2039.06250	3.65852	-1.55517	0.04096	-0.49240
2042.96875	-0.37129	-0.32398	2.05592	3.13307
2046.87500	-6.41572	-0.32057	3.66798	7.56445
2050.78125	2.04546	-1.95261	8.50343	7.56366
2054.68750	8.49208	-0.62958	9.30957	7.96577
2058.59375	9.29760	-4.02743	4.87760	9.57670
2062.50000	5.67079	-7.61417	-1.16607	5.14360
2066.40625	4.46145	-6.73885	-3.98628	5.54574
2070.31250	10.50491	-4.71715	0.04331	8.36547
2074.21875	13.32486	-5.05359	0.04361	4.33538
2078.12500	10.10079	-5.69040	-1.16491	4.33452
2082.03125	8.08562	-3.22560	4.47642	7.55704
2085.93750	2.84710	0.13193	2.05909	4.33257
2089.84375	1.23508	0.17483	-3.17872	-1.71243
2093.75000	-7.62969	-1.41076	-1.96963	-4.13098
2097.65625	-15.28576	-0.09601	-3.17815	-4.53484
2101.56250	-9.24235	-1.66266	-2.77492	-2.11817
2105.46875	-6.42238	-3.88446	0.44880	-2.11914
2109.37500	-1.18487	-3.79786	2.86662	-0.91135
2113.28125	2.44109	-3.40102	4.07570	-2.12112
2117.18750	3.64948	-3.76338	2.86715	-2.52495
2121.09375	3.24599	-1.71557	-0.35600	2.71225
2125.00000	-2.39558	1.35804	-1.56441	0.29380
2128.90625	-5.61946	0.68937	-0.35537	-0.51292
2132.81250	2.03569	-2.56356	-0.75796	-4.14020
2136.71875	2.84102	-3.39529	-1.16060	-4.14111
2140.62500	-8.44137	-1.77169	-2.36911	1.49901
2144.53125	-8.84459	-0.66076	-0.35420	3.91555
2148.43750	-4.00996	-3.28778	-1.56267	-0.92061
2152.34375	-1.99592	-2.52540	-3.97999	-7.36849
2156.25000	0.01808	-1.00521	-1.96507	-4.95186
2160.15625	2.43504	-3.03820	-3.17359	-1.72935
2164.06250	3.64324	-3.49357	-2.36747	-2.93913
2167.96875	0.01630	-6.46269	-3.57597	-4.14895
2171.87500	0.01583	-5.70467	-4.38160	-2.94111
2175.78125	2.02996	-4.24825	-3.57541	-2.94205
2179.68750	-1.99988	-4.70812	-3.17223	-4.15181
2183.59375	-5.62671	-4.31993	-0.35143	-8.58494
2187.50000	0.01383	-3.19576	0.85766	-11.40618
2191.40625	-1.19534	0.38812	-0.75372	-7.37769
2195.31250	-7.23963	0.57530	-2.36517	-6.16973
2199.21875	-4.01656	-1.94532	-0.75310	-6.57348
2203.12500	-4.82277	-2.33363	0.85891	-3.75372
2207.03125	-12.47880	-0.74069	2.06800	-1.33703
2210.93750	-5.22635	-0.36514	2.87411	0.67675
2214.84375	7.26421	-1.03951	2.87435	0.27300
2218.75000	3.23463	0.01361	4.48633	3.09265
2222.65625	-4.82431	3.67490	0.05433	5.50940
2226.56250	-4.01879	3.72245	-5.58647	5.10556
2230.46875	2.83068	6.13698	-5.58622	1.07538
2234.37500	6.85964	2.59234	-3.97422	-4.56653
2238.28125	0.81524	-0.84470	-1.55636	-8.19371
2242.18750	-0.79697	2.02159	-1.55610	-2.95646
2246.09375	-2.00621	-0.28323	-2.76462	1.47490
2250.00000	0.41101	-1.46194	-3.57017	-4.97286
2253.90625	6.85749	-1.02027	-3.56989	-6.98829
2257.81250	-3.61900	0.71874	-3.97255	-6.18320
2261.71875	-10.06633	0.36268	-3.56931	-3.76636
2265.62500	-4.82865	-0.26759	-0.74853	-4.97589
2269.53125	3.63250	3.43005	0.46055	-6.58834
2273.43750	5.64669	5.85133	0.05787	-2.55974
2277.34375	-1.60646	0.67575	-0.74770	-0.94873
2281.25000	-6.44197	-2.50940	0.05843	4.69152
2285.15625	-7.65109	-1.87186	0.46165	4.69076
2289.06250	-2.81624	-0.94636	2.87947	3.07827
2292.96875	12.49477	-4.99825	4.89438	7.50977
2296.87500	26.19407	-5.00188	2.07415	11.13546
2300.78125	13.70290	2.27092	-3.16366	5.09089
2304.68750	-4.02626	3.76824	-3.96920	-6.59479
2308.59375	-8.45877	1.92778	-3.96890	-6.59547
2312.50000	-10.07067	5.11134	-5.98325	-4.58150
2316.40625	-9.66798	9.07091	-6.78881	-14.25246
2320.31250	-7.25066	7.85486	-5.17684	-13.85023
2324.21875	-12.08604	5.37050	-4.77359	-13.85089
2328.12500	-16.51851	5.20117	-3.96744	-17.47787
2332.03125	-11.68361	4.34783	-2.75835	-15.06100
2335.93750	-8.86318	3.81058	-4.77273	-11.83826
2339.84375	-6.04272	3.76743	-4.36957	-8.21258
2343.75000	-2.41650	4.14399	-0.74290	-7.00449
2347.65625	-3.22275	5.64950	-3.56312	-7.40813
2351.56250	-2.01461	3.58957	-7.59218	-10.63223
2355.46875	7.25213	2.18478	-8.39774	-7.40945
2359.37500	7.25163	4.11250	-7.99449	-4.58967
2363.28125	2.01306	2.90958	-5.17373	5.88584
2367.18750	4.43020	1.25707	-3.15882	6.69104
2371.09375	-9.26979	0.41781	-3.56145	-13.85926
2375.00000	-22.16386	0.56732	-2.35244	-11.84537
2378.90625	-11.68799	1.23579	-1.54627	-0.16114
2382.81250	-7.65899	1.26499	0.06571	2.65859
2386.71875	-3.22703	2.90227	2.08062	1.04616
2390.62500	-1.61564	4.50179	-1.14257	-0.16340
2394.53125	0.80155	5.80812	-2.35108	0.64174
2398.43750	4.02467	3.59981	0.87263	0.23815
2402.34375	1.60683	0.82255	1.67874	1.44627
2406.25000	-0.81119	1.71966	-0.73851	0.23665
2410.15625	-0.00587	1.73780	0.87348	-2.58483
2414.06250	-0.00644	-0.62753	4.09723	-0.57105
2417.96875	-1.21584	0.32672	4.90340	2.24846
2421.87500	-0.81353	2.38897	5.70960	11.91761
2425.78125	0.39452	-0.27650	6.11279	10.30467
2429.68750	-2.42686	0.18311	2.88969	1.84187
2433.59375	-4.03943	0.60049	1.27834	2.24357
2437.50000	8.85343	1.89363	-0.33308	-0.17530
2441.40625	16.10519	6.36803	0.47318	1.43515
2445.31250	6.43379	5.77758	0.07061	2.64254
2449.21875	-0.01417	3.86575	-1.13783	1.02949
2453.12500	2.40237	4.25380	-0.33167	2.63988
2457.03125	3.20711	5.88397	0.07159	7.07083
2460.93750	3.60905	5.10532	-1.13690	5.45786
2464.84375	1.19054	2.55592	-3.55416	-3.00485
2468.75000	-3.24257	1.50252	-3.15101	-3.81183
2472.65625	4.81520	2.67617	-2.34490	1.02218
2476.56250	12.87304	2.62835	0.07298	4.24451
2480.46875	6.02244	2.63115	3.29669	3.43752
2484.37500	-2.03687	3.35515	1.28228	0.21297
2488.28125	4.00635	1.95678	-1.13510	1.82361
2492.18750	11.25841	1.10492	-2.74657	-0.19208
2496.09375	4.40795	3.40953	-2.34345	-3.81941
2500.00000	-0.83079	4.99099	-1.13444	-3.82036
2503.90625	6.01835	-0.68905	-5.96938	-6.23890
2507.81250	10.04703	-3.23412	-6.37214	-3.41934
2511.71875	-1.23551	-2.47529	-1.13389	-3.42021
2515.62500	-3.65345	-2.24818	-1.53663	-7.04738
2519.53125	1.18138	0.50086	-4.35702	-9.46584
2523.43750	-0.02774	2.91451	-2.34218	-5.03441
2527.34375	6.41878	4.06056	-4.75948	3.42638
2531.25000	4.00080	2.41035	-5.16219	4.63430
2535.15625	-11.31092	-2.65963	1.68782	-9.87200
2539.06250	-15.74351	-2.37662	5.31447	-19.14010
2542.96875	-10.10273	-1.95128	3.30008	-3.42653
2546.87500	-6.47673	-5.97725	2.49447	7.45192
2550.78125	-0.43324	-6.40047	6.52402	5.03368
2554.68750	5.20723	-6.68922	4.10668	-1.41387
2558.59375	4.80366	-5.65480	-0.72822	-5.44382
2562.50000	-0.43490	-1.18296	-1.93679	-0.60925
2566.40625	2.78814	-1.11346	0.88393	4.22528
2570.31250	13.66690	-3.12110	2.09295	4.22463
2574.21875	15.27819	-0.23402	0.48145	0.59753
2578.12500	13.26305	-0.87079	0.48163	1.40276
2582.03125	5.60697	-4.85287	-0.32409	4.22255
2585.93750	4.39783	-3.91286	1.28785	5.02764
2589.84375	4.80038	-1.45230	2.89974	3.41518
2593.75000	-1.64678	-3.03782	2.89991	-3.03250
2597.65625	-6.48224	-4.54348	3.30299	-1.42162
2601.56250	-5.27368	-2.08075	3.30311	1.80101
2605.46875	-6.48269	-5.10841	2.90029	-0.21448
2609.37500	-5.67702	-6.23057	4.91509	1.39651
2613.28125	-0.43936	-1.80434	8.54165	0.18704
2617.18750	-5.27495	-2.97253	3.30374	-3.03710
2621.09375	-12.52810	-6.16272	-2.33712	-3.84361
2625.00000	-11.31963	-5.90949	0.08066	-4.65022
2628.90625	-5.67882	-3.35461	1.69253	-6.66564
2632.81250	-0.44104	-0.56350	-0.72480	-7.87512
2636.71875	7.21432	0.21662	-3.94804	-9.48756
2640.62500	8.01975	0.22854	-3.94785	-12.71169
2644.53125	2.37835	0.13076	-0.72418	-4.65372
2648.43750	-2.86015	0.72717	1.29067	-1.02795
2652.34375	2.37745	-1.33097	1.69376	-3.04327
2656.25000	3.98854	1.80100	3.70869	1.79122
2660.15625	-4.87652	2.58857	2.90297	3.40237
2664.06250	-8.50345	-1.49318	0.88851	1.38708
2667.96875	-8.50391	-1.64173	4.11217	-0.62823
2671.87500	-8.50430	-1.28659	4.11239	-0.22593
2675.78125	-7.29585	-1.03884	1.29212	-0.22650
2679.68750	-2.05810	1.72481	-1.12527	-3.45057
2683.59375	3.98551	1.71013	-1.12506	-5.06286
2687.50000	1.56762	-1.19488	-1.52775	-10.70450
2691.40625	-4.87960	-2.44606	-2.73631	-15.13736
2695.31250	-12.53560	-0.24415	-1.12438	-9.89985
2699.21875	-20.59449	0.05581	-1.93002	-10.70627
2703.12500	-13.34207	-1.13827	-3.13860	-11.91566
2707.03125	-10.92482	-1.55988	0.08505	-8.69285
2710.93750	-13.34277	-0.78135	0.48820	-8.29063
2714.84375	-7.29915	-0.64976	-1.12336	-6.27675
2718.75000	-8.10534	-1.20830	-0.31732	-0.23352
2722.65625	-7.70285	2.05020	-1.12300	0.16871
2726.56250	-5.28562	5.72415	-1.12281	-3.45846
2730.46875	4.78731	2.90067	0.48914	0.57016
2734.37500	13.65157	0.16182	-0.31656	3.39004
2738.28125	2.77208	1.96289	-3.13685	2.18048
2742.18750	-6.49581	5.63505	-0.31614	3.38854
2746.09375	-5.69051	5.34497	0.89288	0.16441
2750.00000	-1.66185	4.16622	-1.52445	-6.68615
2753.90625	-7.30354	5.01088	-1.92720	-7.08977
2757.81250	-12.54226	2.31771	-3.53869	-0.64358
2761.71875	-3.67839	0.75286	-1.52382	0.56446
2765.62500	0.75309	2.54016	2.50569	-1.45094
2769.53125	0.34955	0.99975	2.90879	3.38353
2773.43750	0.34893	-0.60815	0.49144	10.23259
2777.34375	10.01856	-0.94855	0.89451	8.21719
2781.25000	7.60043	-2.11902	1.29764	4.18717
2785.15625	-4.89091	-0.27269	3.71546	4.18653
2789.06250	-2.47381	-0.55590	4.92445	1.36539
2792.96875	-7.71229	-3.39905	2.50713	-1.05287
2796.87500	-13.35371	-3.80554	2.91025	-1.45647
2800.78125	-10.53358	-1.36783	-0.31299	-3.87469
2804.68750	-7.71339	-1.88511	-1.92449	-1.05488
2808.59375	1.15079	-2.51679	-1.52132	2.16786
2812.50000	6.38857	-2.15368	-1.11822	2.16715
2816.40625	4.37361	-4.23799	0.89661	2.97228
2820.31250	6.38796	-4.64811	4.92612	4.58319
2824.21875	6.38772	-1.49140	2.50881	9.82052
2828.12500	-0.46234	-0.45187	-0.71444	9.41695
2832.03125	-0.05970	-0.90220	0.49459	7.40166
2835.93750	-3.28362	0.57522	-0.71394	7.40099
2839.84375	-3.28409	1.74085	-3.13129	3.77389
2843.75000	-0.06103	0.90859	-2.32518	-0.25611
2847.65625	-2.07608	-2.42103	1.30148	0.95200
2851.56250	-0.86782	-0.85463	1.30176	2.96593
2855.46875	1.95202	0.56108	2.51083	2.15936
2859.37500	4.36898	-2.34625	8.15207	5.38211
2863.28125	-4.49620	-1.53457	4.12300	2.15796
2867.18750	-10.94365	-2.38114	-1.51780	-7.11017
2871.09375	-10.94429	-3.22045	-2.32354	-9.12558
2875.00000	-10.13921	-1.45919	-3.53209	-10.33519
2878.90625	-9.73708	-0.38775	-1.11435	-12.35061
2882.81250	-8.93183	-1.56729	-0.71119	-10.73961
2886.71875	-10.14124	-2.75049	-0.30810	-10.33734
2890.62500	-10.94757	-1.55374	2.10969	-9.93518
2894.53125	0.33418	0.55853	-2.72526	-7.51833
2898.43750	3.55740	1.17080	-4.73973	-5.50446
2902.34375	-2.48694	-0.39756	-3.12786	-0.66999
2906.25000	-0.87550	-0.30620	0.09577	3.76148
2910.15625	3.95945	1.72667	0.90178	4.96953
2914.06250	5.57089	2.58485	0.49906	2.55111
2917.96875	9.59977	1.12157	0.90216	4.96793
2921.87500	7.98764	0.76636	1.30536	8.99651
2925.78125	7.98725	0.51853	2.11147	8.59285
2929.68750	5.16636	-1.84224	2.51469	6.57741
2933.59375	6.37465	-1.02179	3.72372	5.36777
2937.50000	5.16528	1.07727	3.32097	8.18740
2941.40625	-3.29677	-0.49215	0.50073	4.15729
2945.31250	-4.50612	-1.88830	0.09804	7.37990
2949.21875	-1.68616	1.84095	1.30707	4.15550
2953.12500	-1.68676	0.21443	2.51610	-11.96268
2957.03125	-5.31381	-5.81093	4.12802	-10.35193
2960.93750	-6.52333	-4.17186	3.32242	-8.74137
2964.84375	-10.15038	-0.67711	3.32268	-6.72784
2968.75000	-13.77751	-1.32735	3.32293	-5.11720
2972.65625	-14.58425	0.24936	0.50268	-12.37114
2976.56250	-6.92959	-0.60408	-0.70592	-16.40171
2980.46875	-7.73663	-0.19811	-0.70573	-13.58256
2984.37500	-16.60214	-3.50327	-1.91430	-8.34582
2988.28125	-15.79728	-6.51314	-1.51107	-9.55591
2992.18750	-10.15725	-4.14136	-2.71965	-11.16892
2996.09375	-2.50257	-2.64243	0.10104	-10.36440
