 	TP9	AF7	AF8	TP10	
-1000.00000	-5.43287	0.43788	-5.61576	0.31279
-996.09375	-11.47739	1.50925	-4.80814	1.33907
-992.18750	-12.28385	0.83576	-3.59772	2.73059
-988.28125	-5.83754	-1.88881	-4.80481	3.96402
-984.37500	-6.64409	-1.55285	-3.59440	4.99699
-980.46875	-1.00368	-1.96458	-1.17512	8.61933
-976.56250	3.42802	-1.36839	-1.17346	11.48908
-972.65625	1.81570	-0.82567	-1.17181	7.76741
-968.75000	4.63568	-0.24952	0.44155	0.39168
-964.84375	9.47030	2.54872	-1.16850	-1.21725
-960.93750	8.26093	4.50735	-0.36104	2.80449
-957.03125	3.82811	6.63874	2.46117	1.46400
-953.12500	9.06559	4.75953	0.04523	-1.29864
-949.21875	9.06497	0.17117	-3.17659	2.08601
-945.31250	7.85567	0.20272	-3.98077	1.85562
-941.40625	4.22883	1.31825	-4.38205	-0.20493
-937.50000	-2.21861	0.14722	-4.38041	2.28834
-933.59375	2.61610	1.07261	-5.18464	0.91253
-929.68750	1.80969	-0.22416	-7.19768	-1.43132
-925.78125	-7.45822	-0.53363	-8.00189	-5.92795
-921.87500	-4.23525	0.95826	-7.59737	-4.43426
-917.96875	0.19645	1.31921	-5.17817	-3.76736
-914.06250	6.23980	2.62027	-3.96775	-9.77934
-910.15625	8.25390	0.57910	-4.36908	-6.13345
-906.25000	-1.01403	0.74123	2.07945	-2.40413
-902.34375	0.59710	0.60625	3.69277	-3.02978
-898.43750	0.59651	-4.34984	-1.54372	-7.03311
-894.53125	-5.85092	-7.92194	-1.13916	-11.21766
-890.62500	-15.92480	-7.89520	0.07126	-8.39735
-886.71875	-21.96932	-6.45051	-1.94179	-2.88248
-882.81250	-7.06151	-4.57439	-1.94018	-2.83693
-878.90625	6.63753	-3.15984	-2.74441	-3.47842
-875.00000	5.02519	-3.95930	-2.74281	-4.21157
-871.09375	-5.04871	-5.50030	-3.14418	-4.19663
-867.18750	-10.28754	-5.18687	-5.15719	-7.36076
-863.28125	-3.84129	-2.09380	-2.33507	-11.50611
-859.37500	-0.21555	-0.34820	0.88998	-9.21835
-855.46875	-0.21624	0.00449	0.08575	-2.46369
-851.56250	4.61828	0.10902	-1.92730	6.06266
-847.65625	3.81173	-1.10983	0.08892	9.94985
-843.75000	3.40828	-4.44376	0.49340	4.81314
-839.84375	7.43707	-5.58484	-1.51963	7.58024
-835.93750	11.46583	-2.47597	-1.92094	13.36307
-832.03125	14.68868	-1.13998	-1.11352	9.07873
-828.12500	10.65870	-2.68213	-1.51486	3.92033
-824.21875	17.10492	-0.34426	-3.12493	6.23410
-820.31250	18.71595	1.27634	-1.91454	5.82057
-816.40625	11.46249	-1.72931	-0.70417	2.97278
-812.50000	11.46175	-4.41126	-0.70260	0.81789
-808.59375	16.29623	-5.06936	-2.71569	-1.67662
-804.68750	15.08675	-2.69012	-1.90825	-6.83596
-800.78125	3.80397	-5.14914	2.52561	-8.04737
-796.87500	-7.88171	-7.42423	0.91546	-9.46059
-792.96875	-13.92643	-9.30072	-3.91811	-9.45672
-789.06250	-25.20914	-10.28683	-6.73707	-12.07987
-785.15625	-23.59805	-7.85667	-5.52667	-13.84357
-781.25000	-17.95766	-7.13292	-3.91333	-9.44061
-777.34375	-15.13772	-6.26289	-4.31473	-7.41751
-773.43750	-15.13836	-4.52515	-3.10435	-5.22879
-769.53125	-11.91555	-3.42646	-0.68517	-0.69725
-765.62500	1.78353	-2.95157	-1.89240	-7.53226
-761.71875	10.64747	-2.66096	-6.32308	-10.44303
-757.81250	18.30251	-2.27357	-4.70979	-4.19549
-753.90625	13.06392	-1.76814	0.12686	0.60330
-750.00000	1.37852	-0.20263	-0.27460	3.45761
-746.09375	-2.65136	-1.27290	0.53278	4.44458
-742.18750	-0.63730	-3.82177	0.13142	5.06617
-738.28125	8.22653	-4.72249	-1.88171	5.44292
-734.37500	6.21119	-5.46034	-1.47729	3.19947
-730.46875	2.98707	-5.45049	-2.28159	-2.84195
-726.56250	3.38938	-4.43387	0.94340	-0.87807
-722.65625	1.77699	-6.99023	3.76543	4.45380
-718.75000	0.16472	-8.77417	2.55823	4.57548
-714.84375	4.59641	-5.12456	4.17149	5.37714
-710.93750	4.99871	-1.44115	4.57604	0.54822
-707.03125	0.96881	-2.76566	2.16004	-1.33609
-703.12500	8.62394	-1.69137	-1.06181	-2.20126
-699.21875	5.80279	2.49510	-1.86609	-5.99024
-695.31250	-1.04760	2.46450	-3.07335	-8.17891
-691.40625	4.99576	1.35004	-3.87764	-9.74628
-687.50000	5.80099	0.91029	-2.26439	-1.76479
-683.59375	-2.66110	-0.41703	-1.45698	0.01258
-679.68750	-3.06472	-1.13401	0.15633	-6.91235
-675.78125	-4.27427	0.78814	-0.24505	-9.66988
-671.87500	-9.91603	2.92350	-2.66099	-4.71802
-667.96875	-11.12557	0.14593	-1.04769	-4.58037
-664.06250	-8.70871	-1.96005	1.37149	-11.46362
-660.15625	-2.26251	-0.72375	-3.05920	-9.87287
-656.25000	-0.65151	1.53267	-5.07230	-12.39492
-652.34375	-5.08449	2.07155	-3.86197	-11.77087
-648.43750	-5.89102	2.99923	-2.65166	-1.72518
-644.53125	-3.87703	3.75176	-0.23260	2.86071
-640.62500	6.59850	1.30838	-3.45453	1.65059
-636.71875	8.20947	2.68514	-5.06471	1.37216
-632.81250	0.95600	4.03341	-4.25738	0.11615
-628.90625	4.58174	1.00801	-0.62949	-2.46733
-625.00000	9.01332	-1.41506	0.17782	-2.13862
-621.09375	13.44492	0.12688	-1.43247	-0.54346
-617.18750	18.68241	-0.58852	-1.43100	-3.02184
-613.28125	14.24960	-3.68074	-1.02658	1.92791
-609.37500	23.11354	-1.39610	0.58660	5.27969
-605.46875	17.87482	1.87853	2.60278	-1.07345
-601.56250	5.38332	1.77492	0.99250	-3.15439
-597.65625	5.78556	1.38304	-1.02069	-6.23711
-593.75000	2.96433	0.28572	-2.22804	-8.75751
-589.84375	-1.46862	-0.98984	-3.03242	-11.12327
-585.93750	4.17177	-1.27726	-2.22509	-8.44600
-582.03125	2.55939	-1.80651	-1.82071	-8.59542
-578.12500	-2.27645	-0.66635	-0.20757	-3.84140
-574.21875	-0.26236	-0.18282	1.40564	1.90199
-570.31250	-0.66587	-3.41425	3.01876	1.50818
-566.40625	-3.89000	-6.45162	4.22900	1.53388
-562.50000	-10.33763	-5.78339	2.61873	4.49299
-558.59375	-17.18815	-3.10973	1.00842	7.38891
-554.68750	-16.78594	-0.24995	7.05383	14.96434
-550.78125	-8.72803	-1.81936	5.04064	14.56250
-546.87500	3.35921	-2.36398	-3.82237	3.48334
-542.96875	2.14966	-0.08368	-3.82091	4.68679
-539.06250	1.34309	0.09744	2.22452	9.72611
-535.15625	15.44493	-2.73478	2.62894	13.90592
-531.25000	8.19148	-4.26350	-3.01066	12.72498
-527.34375	5.77325	4.13475	-3.00919	0.62717
-523.43750	7.38437	7.23301	-3.41067	-12.44214
-519.53125	8.59249	2.50883	-4.21510	-10.93118
-515.62500	13.42699	1.22892	-1.39320	-4.09755
-511.71875	10.20288	3.75963	3.84630	-1.99413
-507.81250	7.78458	6.19360	3.44481	-9.85478
-503.90625	-1.08051	4.88321	-0.58306	-10.62567
-500.00000	-4.30456	3.31855	-2.59630	-5.01983
-496.09375	7.37982	3.58381	-3.40079	-6.00819
-492.18750	11.81141	5.32769	-2.19056	-4.21360
-488.28125	5.76668	6.63219	-2.59206	-6.60652
-484.37500	8.18359	6.96791	-2.99363	-7.18527
-480.46875	16.64451	7.76471	-3.39520	1.67511
-476.56250	7.37653	5.54010	-3.79674	3.73891
-472.65625	-1.48865	0.84450	-2.98955	0.42021
-468.75000	-6.32454	-0.19131	-3.79408	-4.13500
-464.84375	-14.78680	-1.01966	-1.37518	-4.53509
-460.93750	-9.54932	1.74454	0.23797	3.91895
-457.03125	-4.71474	2.66699	-2.17824	4.19015
-453.12500	-3.10383	-0.01827	-0.96806	6.26273
-449.21875	0.92475	1.43710	-0.16083	6.02103
-445.31250	0.92409	2.67720	-1.36824	-0.25325
-441.40625	-3.10587	2.18072	-2.57560	-3.11959
-437.50000	1.72860	2.21824	-3.38012	-6.67025
-433.59375	-2.70427	2.74041	-2.16990	-13.28407
-429.68750	-8.74893	2.24930	-3.78021	-21.67184
-425.78125	-7.13788	-0.88089	-6.19643	-20.52730
-421.87500	-10.36202	-1.80686	-4.18042	-16.21302
-417.96875	-10.36269	-3.05790	-4.98488	-16.75494
-414.06250	-10.76633	-0.54830	-6.19226	-19.14039
-410.15625	-6.73768	3.05129	-6.19084	-21.94127
-406.25000	-0.29148	3.21315	-4.17479	-21.43528
-402.34375	-4.72435	3.48081	-2.15870	-16.01684
-398.43750	-7.14260	1.74792	-4.57480	-9.94667
-394.53125	-1.50227	2.20488	-4.97635	-10.50463
-390.62500	2.12345	3.84303	-2.15446	-10.50470
-386.71875	6.55500	0.85524	-3.76476	2.26316
-382.81250	4.94255	-0.89530	-1.74874	4.32361
-378.90625	10.17994	-1.09270	0.67018	-3.57046
-375.00000	12.99975	0.12226	-2.95482	4.15808
-371.09375	2.92587	3.81911	-1.74467	9.41129
-367.18750	2.52238	1.31179	0.67421	7.85896
-363.28125	-1.10466	-5.26574	0.67555	7.74294
-359.37500	0.10349	-7.54975	1.48279	3.58382
-355.46875	2.92334	-3.57093	-0.53054	2.27999
-351.56250	0.90806	-2.25792	0.27664	4.35954
-347.65625	5.74259	-3.87998	2.29265	6.63517
-343.75000	8.56258	-1.57329	1.08525	4.72216
-339.84375	8.56194	-0.29707	3.10127	1.04259
-335.93750	3.32312	0.79693	3.10263	-4.45658
-332.03125	1.71071	1.72977	1.49227	-6.32321
-328.12500	-4.33382	-1.02139	2.70239	-2.61701
-324.21875	-1.51390	-1.50422	4.31538	-7.55580
-320.31250	-7.96137	-1.09263	2.70497	-11.99850
-316.40625	-16.82652	0.33373	-0.92011	-7.19039
-312.50000	-9.97727	-1.13967	0.29002	0.32530
-308.59375	-9.97786	-3.00683	3.51479	-3.37760
-304.68750	-5.94916	0.58097	3.91899	-15.38648
-300.78125	-6.75565	2.15102	0.69686	-16.19466
-296.87500	-15.62061	0.27867	-3.73404	-13.98125
-292.96875	-15.62118	-2.00099	-5.34454	-6.32148
-289.06250	-16.42770	-2.98731	-5.74616	-2.09469
-285.15625	-4.74334	1.45728	-2.11853	-1.44061
-281.25000	3.31459	0.16617	1.50913	-1.87260
-277.34375	4.52270	-4.20211	-2.51891	-1.46110
-273.43750	5.32784	-1.65871	-3.32355	-0.07814
-269.53125	6.13305	0.24566	-1.30764	-3.60515
-265.62500	16.60859	2.33196	-0.09757	-0.76980
-261.71875	19.42841	-0.19813	-0.90216	1.96058
-257.81250	14.18975	-3.43724	1.91959	2.97017
-253.90625	-0.31641	-3.33500	4.33846	4.14269
-250.00000	-5.95817	-2.17268	0.71331	5.78837
-246.09375	0.89105	0.38317	-0.09127	3.55206
-242.18750	-1.12407	-0.95708	-0.08999	-1.46719
-238.28125	-7.16862	-2.26094	-0.49161	0.92446
-234.37500	-7.57233	-2.99895	1.52432	1.09889
-230.46875	-2.33500	-3.79515	0.31675	3.92209
-226.56250	-1.93278	-0.76407	2.73557	3.46857
-222.65625	-9.18625	-1.70889	2.73681	-8.52545
-218.75000	2.49811	-3.09009	1.93214	-5.58334
-214.84375	5.72092	-2.26108	3.94802	-0.34939
-210.93750	-13.21740	-3.81591	1.12876	-3.56668
-207.03125	-2.33902	-3.52891	-0.88465	-6.65977
-203.12500	8.53943	-1.64890	0.32535	-1.48098
-199.21875	-1.13160	-1.49190	-0.47924	1.98288
-195.31250	-0.32644	-0.71677	-2.08969	-1.01152
-191.40625	-2.34167	-1.02552	-2.49132	-0.96703
-187.50000	-12.81838	-1.86831	-0.47543	-3.46158
-183.59375	-5.96907	-1.18118	-3.29476	-1.28131
-179.68750	7.72988	0.51927	-0.07006	5.09054
-175.78125	8.53509	4.05300	3.15465	7.16815
-171.87500	2.08748	4.17356	-1.27634	7.28477
-167.96875	-0.73376	1.39584	-2.48382	6.21364
-164.06250	1.28012	-1.11320	-0.46793	4.97153
-160.15625	2.89106	-0.28008	-2.48133	10.99461
-156.25000	8.12848	1.57327	-8.12112	18.14296
-152.34375	8.12784	-0.70855	-6.50822	12.72321
-148.43750	1.27737	-0.98988	-4.08939	7.45774
-144.53125	-0.73790	-1.44633	-3.68518	11.64093
-140.62500	0.87318	-0.66645	-2.87811	11.63970
-136.71875	2.08132	-0.09584	-5.29450	12.16731
-132.81250	3.28944	1.65518	-5.29330	10.50854
-128.90625	-5.17281	1.85306	-1.26280	4.70164
-125.00000	-7.59111	-2.18189	-2.47030	12.28319
-121.09375	2.07860	0.56862	-2.87203	14.28140
-117.18750	12.15115	3.07637	-4.88547	4.14754
-113.28125	8.52411	-2.03068	-8.51066	-4.60220
-109.37500	5.29999	-2.56676	-6.49479	-5.27946
-105.46875	-2.35640	-0.90409	-6.89648	-5.18557
-101.56250	-20.89181	-3.42546	-7.29824	-5.25170
-97.65625	-13.23681	-3.41469	-4.87943	-1.08152
-93.75000	-10.41709	1.93465	-2.86356	-5.21348
-89.84375	-18.07351	1.86760	-1.65352	-5.16137
-85.93750	-11.22439	-0.83759	-0.04060	-0.46933
-82.03125	-0.34607	-0.56122	-1.65109	3.81360
-78.12500	8.51772	-1.03304	-4.87333	8.56772
-74.21875	7.71112	-1.75853	-7.69263	6.25254
-70.31250	2.87533	-2.16962	-5.67683	6.66470
-66.40625	6.90402	-2.78959	-4.06398	9.51111
-62.50000	10.52981	-2.12164	-2.45107	7.63530
-58.59375	0.45581	-1.46280	-0.83820	3.68144
-54.68750	-3.57416	-4.24432	-0.03118	6.82480
-50.78125	-0.75426	-4.20225	1.58173	7.63193
-46.87500	-3.57545	-0.71771	-0.83470	10.65544
-42.96875	-0.75547	-1.25813	-2.04232	9.03855
-39.06250	9.72009	-1.48018	-0.02650	1.58710
-35.15625	8.51059	-2.70091	-2.44287	3.34949
-31.25000	-2.36925	-7.85620	-4.45635	6.19803
-27.34375	-0.75813	-8.32270	-6.06693	6.59130
-23.43750	10.12028	-5.62754	-7.67746	10.44527
-19.53125	6.89607	-3.09926	-5.66167	10.34471
-15.62500	-0.35741	-5.18525	-2.03417	3.88185
-11.71875	8.90938	-7.08696	-3.24179	-0.05834
-7.81250	4.87945	-3.84739	-4.44935	4.97497
-3.90625	0.04368	-4.75515	1.59578	5.41314
0.00000	-1.97154	-4.30540	3.61161	-1.47171
3.90625	-3.18095	-3.63740	3.61278	-0.04226
7.81250	1.25069	-5.52015	0.79341	0.94676
11.71875	0.84715	-3.81288	-2.02591	4.19517
15.62500	7.69631	-4.28317	0.79573	5.63140
19.53125	10.51625	-2.68071	-0.00899	4.82181
23.43750	11.32148	-1.68210	-1.61954	7.69174
27.34375	9.70910	-2.34866	-0.40959	6.38795
31.25000	0.03810	-1.37008	2.41207	3.44472
35.15625	-2.38009	-1.39281	4.02497	5.05948
39.06250	2.45449	-0.64343	2.81740	5.45505
42.96875	1.64792	-2.54179	-1.61371	6.53232
46.87500	0.84141	-6.43610	1.20793	8.60511
50.78125	4.46718	-4.57807	2.41788	6.34887
54.68750	9.30165	-3.74107	-0.80442	0.47770
58.59375	6.48048	-5.44656	-2.81790	0.83504
62.50000	10.10621	-3.79748	0.80959	11.38715
66.40625	6.47922	-3.67841	2.01953	12.83209
70.31250	0.83760	-1.34917	-0.79981	7.26506
74.21875	10.10452	0.35561	0.81304	7.20099
78.12500	8.49228	-0.97339	4.03760	6.68026
82.03125	5.67113	-1.82167	2.42702	5.33277
85.93750	5.67051	-1.72986	2.42813	4.55918
89.84375	3.65531	1.46667	2.42926	0.95264
93.75000	11.31046	3.64294	3.63920	-3.77926
97.65625	11.30987	2.29874	3.64033	-2.79290
101.56250	-1.58455	0.56572	-3.20842	-1.55781
105.46875	1.23542	-0.58927	-3.20732	2.71955
109.37500	13.32273	-2.57757	-0.78863	10.77819
113.28125	2.04007	-3.95380	-0.38459	12.26409
117.18750	-4.40745	-2.48104	0.42233	9.89241
121.09375	2.44181	-0.26103	0.82630	10.45991
125.00000	-1.18521	-1.46376	2.03619	9.72685
128.90625	-0.78293	1.42710	1.23141	9.33906
132.81250	7.27494	3.75470	1.23249	6.17498
136.71875	12.10927	0.80348	-0.37809	2.43267
140.62500	10.89969	0.53395	-2.79459	9.95857
144.53125	6.46674	2.09489	-5.21113	10.26639
148.43750	3.64542	1.79600	-5.21008	3.48143
152.34375	4.45059	-2.24385	-3.59726	3.74228
156.25000	2.83811	-4.77248	-3.19326	6.66424
160.15625	0.82274	-5.91399	-1.58040	6.61103
164.06250	-1.59556	-4.01440	-1.17640	6.75312
167.96875	-8.84896	-1.87293	-1.57821	-4.78362
171.87500	-17.71409	-3.41557	-0.77127	-14.77693
175.78125	-16.10303	-3.49567	0.43861	-6.01598
179.68750	-3.61278	-3.08431	0.84257	-1.59414
183.59375	-2.00165	-3.26984	-1.17099	-4.03864
187.50000	0.01242	-1.11711	-2.37862	-9.41659
191.40625	4.44415	-0.16397	-2.37754	-8.28436
195.31250	2.42896	-1.00858	-2.77941	-2.96710
199.21875	-0.79502	-1.85634	-2.77833	1.46291
203.12500	5.24837	-1.31128	-4.38896	4.07939
207.03125	0.81551	-2.38238	-3.58206	4.08357
210.93750	-6.03493	-2.16009	-1.96930	5.48996
214.84375	4.44060	0.26964	0.04642	10.57624
218.75000	3.63406	-1.42458	2.06214	11.75595
222.65625	5.64808	-1.36079	2.06320	11.36162
226.56250	10.48267	1.98827	-0.75622	10.32711
230.46875	2.82634	3.89242	1.25948	11.63535
234.37500	2.82566	3.96395	3.27517	16.48546
238.28125	0.81036	1.03071	2.47038	13.17187
242.18750	-6.84599	-0.99988	3.68026	4.91409
246.09375	-4.42908	0.71390	2.47253	0.44567
250.00000	4.83761	-0.94449	2.07062	8.13540
253.90625	6.44872	-1.20938	5.29511	13.55478
257.81250	2.01583	2.68818	4.08734	7.32680
261.71875	1.20934	-0.22771	5.70009	5.68913
265.62500	-0.00012	-1.77188	2.88062	3.84906
269.53125	-6.85067	0.25223	-4.37106	3.04602
273.43750	-10.47775	0.46252	-3.16124	2.99554
277.34375	-8.46387	-0.48250	0.06326	1.88080
281.25000	-7.65866	-0.65513	-1.95037	4.82312
285.15625	-0.80936	1.38240	-5.97866	1.99878
289.06250	10.47209	1.03612	-2.75421	2.00515
292.96875	8.05389	0.11414	2.08193	6.97082
296.87500	-8.06390	1.18805	0.87414	-2.35566
300.78125	1.60571	3.35948	-2.34826	-8.56201
304.68750	4.42563	3.32850	-2.34728	-4.70659
308.59375	-14.91579	0.19899	-1.54042	4.60537
312.50000	-7.66381	1.37059	-1.13653	16.61631
316.40625	-0.00878	1.65457	-0.32965	20.81137
320.31250	3.61690	0.13137	1.28303	16.30414
324.21875	7.24259	0.84438	0.07522	14.75544
328.12500	11.27121	-0.64692	0.88203	19.30447
332.03125	5.22666	-2.61897	1.68890	15.00994
335.93750	2.40557	-0.69603	4.51036	10.54439
339.84375	10.86633	0.94279	2.49670	14.55283
343.75000	13.68612	1.18418	0.48304	13.64277
347.65625	13.68542	2.93146	3.30453	9.83483
351.56250	-4.04421	1.44120	3.30551	9.40456
355.46875	-14.11824	-0.22426	0.88891	3.11161
359.37500	-8.47792	-0.65339	-0.72178	-1.72464
363.28125	-5.25517	-0.88883	0.08503	-5.62918
367.18750	-4.85292	-0.34684	1.29479	-5.27317
371.09375	-2.03314	1.05963	-1.52474	-2.61829
375.00000	-1.63095	0.65083	-1.52377	-9.94496
378.90625	1.59180	-0.62811	-0.71695	-12.78172
382.81250	-2.03530	2.28240	-0.71596	-6.39527
386.71875	-6.06535	1.20446	-0.71498	-2.65398
390.62500	-4.05136	-1.34652	-0.71399	-4.53989
394.53125	-0.82861	0.71888	2.10750	-2.83415
398.43750	-2.44114	-0.99686	1.30263	1.93512
402.34375	-5.66524	-2.59796	0.90065	-0.74429
406.25000	-2.44238	-2.08391	2.91634	-2.86141
410.15625	-8.88989	-0.94232	-0.30615	4.84654
414.06250	-14.12859	2.39618	-0.30520	7.12123
417.96875	-4.45880	2.67243	-0.70719	8.58388
421.87500	-1.23593	-1.42592	1.71136	16.15856
425.78125	5.21037	-4.16625	2.51815	13.44057
429.68750	7.22437	-4.17466	2.51909	7.40599
433.59375	1.58264	-5.19781	5.34054	5.41722
437.50000	13.26695	-2.51535	3.32683	4.34721
441.40625	10.84868	0.15788	-0.70152	4.42278
445.31250	12.45978	-0.20626	-1.10353	2.73103
449.21875	24.54701	2.65608	-0.69964	-2.90870
453.12500	20.92003	4.52869	-0.69872	-7.94372
457.03125	14.47250	2.37630	-0.69782	-1.50196
460.93750	5.60726	1.34819	-1.50277	-2.90929
464.84375	1.17433	1.73898	-3.11361	-16.45814
468.75000	1.97951	-0.19315	-2.70974	-20.45929
472.65625	7.21695	-0.65982	0.11169	-14.82790
476.56250	6.00750	1.63212	1.72438	-11.37667
480.46875	-2.45468	2.14553	3.73995	-7.85072
484.37500	1.57394	3.68575	-0.28843	-6.25489
488.28125	1.17028	2.99259	-1.49634	-7.77751
492.18750	-10.91847	-1.02075	2.13087	-5.96764
496.09375	-8.09867	-1.92867	1.72890	-4.32075
500.00000	-4.87590	-0.27029	1.72982	-1.13229
503.90625	-14.14400	0.39752	4.14825	0.70007
507.81250	-14.14474	0.93215	4.95505	-1.93742
511.71875	-12.13082	2.23624	5.35882	-2.71846
515.62500	-18.57835	-0.65188	5.35970	3.95572
519.53125	-21.39965	-2.27308	1.73423	-0.48033
523.43750	-6.49196	0.33708	-1.89129	-16.54815
527.34375	3.58056	2.49087	-4.30797	-20.26960
531.25000	9.62387	6.69286	-4.30716	-16.76603
535.15625	11.63779	6.26698	-2.69464	-20.79239
539.06250	8.81648	6.21023	-1.08211	-25.23211
542.96875	6.39818	7.13219	-0.27534	-33.42234
546.87500	-4.88464	6.05828	-3.09503	-41.42285
550.78125	-18.98801	2.61487	-6.31762	-45.49158
554.68750	-20.19753	5.03241	-3.89913	-43.25899
558.59375	-17.78057	7.85284	1.33985	-37.54345
562.50000	-21.81051	7.04691	1.34070	-48.85401
566.40625	-23.01997	11.88198	0.13274	-48.00235
570.31250	-38.73495	11.88191	3.76001	-47.81223
574.21875	-62.50854	14.29943	4.96968	-60.22997
578.12500	-69.35896	17.92571	5.37348	-65.88104
582.03125	-68.95663	19.94032	4.56853	-67.43322
585.93750	-75.00115	23.96956	2.95768	-75.70515
589.84375	-89.91016	23.56657	5.37609	-89.60876
593.75000	-89.50783	22.76062	10.61507	-90.88229
597.65625	-91.52317	22.35758	17.06284	-93.00874
601.56250	-110.46168	22.76044	15.04905	-109.80297
605.46875	-106.83600	27.59546	13.03526	-107.45026
609.37500	-97.97234	23.56607	15.45368	-97.55020
613.28125	-87.49697	17.92494	14.64872	-98.54847
617.18750	-76.61859	19.93952	14.24669	-104.41812
621.09375	-81.85751	19.93943	13.03873	-98.59933
625.00000	-68.56158	18.73059	11.83079	-79.17375
628.90625	-60.10071	15.90993	15.86094	-74.45992
632.81250	-62.51897	9.46290	19.08524	-70.33504
636.71875	-49.22301	7.44813	16.66848	-61.82846
640.62500	-37.13574	8.25395	10.62539	-58.39954
644.53125	-30.68954	3.82160	9.41743	-47.69047
648.43750	-23.84035	-2.62541	10.62706	-35.24891
652.34375	-6.51502	-1.41672	9.41909	-19.53841
656.25000	4.76633	-0.20804	7.80825	-1.90344
660.15625	4.76564	-4.23745	4.18268	7.57542
664.06250	12.01773	-6.65517	4.58648	11.57761
667.96875	22.49332	-7.05824	9.01957	17.25994
671.87500	24.91027	-9.87886	8.61745	27.24758
675.78125	28.13310	-15.11707	5.39487	29.42558
679.68750	39.41460	-17.13184	1.76943	35.26182
683.59375	43.84627	-17.93782	2.57615	43.42819
687.50000	37.80166	-17.13211	1.36823	47.20286
691.40625	36.59235	-14.71465	-2.25724	46.65168
695.31250	53.11196	-12.70014	-0.64470	44.65117
699.21875	61.57287	-13.10323	-0.64386	47.62900
703.12500	58.34890	-17.53561	0.56578	48.66623
707.03125	59.15420	-15.52104	0.16364	50.14466
710.93750	60.36246	-9.47723	0.97031	52.77481
714.84375	62.37650	-8.26855	-0.23759	51.43053
718.75000	64.79340	-10.68625	-7.48951	45.88802
722.65625	60.36060	-9.88054	-7.89164	42.20015
726.56250	52.70427	-5.44846	-4.66737	46.63184
730.46875	49.48020	-7.46327	-5.06951	39.97410
734.37500	45.04725	-11.08981	-5.47158	35.66271
738.28125	42.62891	-11.89577	-3.05320	39.71227
742.18750	42.62820	-11.09003	-3.85821	42.56511
746.09375	35.77771	-10.28430	-6.27501	41.90034
750.00000	33.76236	-8.67266	-6.67708	36.45297
753.90625	38.99973	-7.86694	-3.45281	34.01560
757.81250	32.95506	-8.67292	-3.45203	33.13356
761.71875	28.52208	-9.07603	-9.09228	30.82398
765.62500	23.28335	-11.49374	-5.86801	31.51524
769.53125	16.83596	-11.89684	0.17675	30.52371
773.43750	12.80604	-10.68818	1.38637	26.34336
777.34375	16.02895	-10.28541	0.17835	26.15537
781.25000	24.08716	-9.47964	0.17912	31.55753
785.15625	31.33944	-5.45049	-0.22296	30.78697
789.06250	35.36821	-0.61548	-0.62506	26.21410
792.96875	36.17367	-3.43609	-1.43007	24.73505
796.87500	32.14402	-4.64500	-1.02635	27.64532
800.78125	42.21679	-1.01872	-0.62254	29.85896
804.68750	45.84276	0.18990	-3.84513	24.40216
808.59375	21.26357	-0.21312	-4.65018	20.70054
812.50000	17.63675	-0.61621	-3.44058	21.13116
816.40625	25.29191	-0.61633	-1.82809	18.26406
820.31250	31.33552	1.39818	0.18736	19.68497
824.21875	34.15561	2.60685	2.20283	20.81994
828.12500	29.31999	1.80087	0.99481	14.78526
832.03125	24.48430	4.62122	-1.82492	9.88973
835.93750	23.27501	3.00938	-0.21238	11.71400
839.84375	23.67737	-0.61716	0.19129	12.72301
843.75000	10.38004	-0.21436	2.20671	3.92250
847.65625	-2.51442	-0.21455	1.40159	5.24222
851.56250	-4.93262	0.18818	-2.22402	5.51539
855.46875	-3.72457	0.99394	-2.62622	1.95312
859.37500	1.10992	0.18787	-1.41667	4.54301
863.28125	5.94440	-1.02107	2.21042	9.56976
867.18750	0.30271	-2.63307	2.21115	10.60339
871.09375	-10.97999	-3.43913	1.80898	9.61884
875.00000	-2.92195	-1.02171	2.21261	11.14478
878.90625	11.17999	-0.61900	0.60168	10.45936
882.81250	9.56777	0.18667	-0.60636	6.33354
886.71875	6.34380	0.18649	-1.81442	10.31705
890.62500	3.11978	-1.42536	1.00681	14.94587
894.53125	0.70157	-2.23137	3.42515	14.30922
898.43750	12.78885	0.99191	1.00830	11.53715
902.34375	20.84689	3.81223	-0.60263	11.94315
906.25000	24.06972	3.81204	4.63622	13.24508
910.15625	22.05444	4.21478	5.84576	11.82414
914.06250	14.80113	3.00577	3.02598	7.01527
917.96875	14.39758	5.82608	1.81791	0.92932
921.87500	9.56181	8.24350	1.81866	1.41719
925.78125	7.94946	0.58762	1.81941	2.86479
929.68750	12.78401	-3.84481	2.62603	1.05708
933.59375	19.63333	0.18430	1.01503	-3.88657
937.50000	13.18583	1.39287	-0.99888	-12.49716
941.40625	3.91780	1.79560	-1.40102	-9.12612
945.31250	-12.20008	0.58659	-3.81787	-7.52927
949.21875	-21.87100	-2.23409	-8.24938	-12.52246
953.12500	-24.28923	0.58620	-5.42809	-9.12825
957.03125	-30.33382	2.60063	-4.21856	-10.60735
960.93750	-21.87293	-1.42891	-5.42662	-6.38843
964.84375	-9.78575	-3.04085	-2.20241	-3.03027
968.75000	-3.33952	-2.23525	0.21584	-9.97938
972.65625	-7.77236	-3.04134	0.61947	-7.09805
976.56250	-2.53488	-1.42990	1.02305	-5.08364
980.46875	7.53776	-1.43016	-0.99093	-8.49990
984.37500	9.95475	-3.44507	-0.99025	-2.17452
988.28125	19.22155	-1.02773	-0.18365	3.84859
992.18750	22.44453	1.79248	1.42871	0.99515
996.09375	11.96793	2.19510	3.04110	1.25639
1000.00000	12.37046	1.38895	3.44465	4.28555
1003.90625	16.39939	0.17985	3.84830	8.73694
1007.81250	14.38443	0.17955	2.23724	10.42426
1011.71875	13.98108	2.19387	3.04378	8.30114
1015.62500	17.20431	3.40235	8.28245	12.04170
1019.53125	18.01013	3.40203	8.28309	15.04771
1023.43750	10.75735	1.38704	4.25439	11.57233
1027.34375	12.36913	2.59550	4.25501	12.56628
1031.25000	18.41316	4.20691	3.85274	5.55253
1035.15625	4.31078	1.38600	3.45042	-2.54108
1039.06250	-4.15062	-1.03190	3.04817	-0.38553
1042.96875	-0.12114	-0.22639	2.64584	6.33198
1046.87500	-6.56784	0.98208	4.25816	2.61632
1050.78125	-10.99998	0.17582	4.25878	-8.86442
1054.68750	-16.23797	-1.43622	0.63304	-7.83954
1058.59375	-19.05833	-2.64538	-3.39564	-9.37576
1062.50000	-13.41716	-3.45158	-2.99210	-11.41792
1066.40625	-5.35841	0.17440	-2.58851	-6.13312
1070.31250	-7.77589	5.81511	-5.00548	-6.34512
1074.21875	-10.99920	6.21774	-1.78141	-6.67415
1078.12500	-5.76091	6.21741	2.65146	-7.08641
1082.03125	-4.14908	4.60530	8.69601	-3.80268
1085.93750	-3.34323	4.20206	8.29370	-3.20944
1089.84375	2.29785	9.43975	0.23581	-18.72398
1093.75000	-4.95502	10.24531	0.63947	-26.84661
1097.65625	-10.99927	10.64788	6.68409	-29.37541
1101.56250	-19.46103	19.10910	7.08776	-36.49875
1105.46875	-24.29633	23.94394	7.49141	-42.60696
1109.37500	-35.98164	22.73489	6.68628	-58.89684
1113.28125	-57.33743	18.70525	6.28402	-74.40025
1117.18750	-67.00829	23.94296	5.07599	-79.06062
1121.09375	-79.49963	31.59835	3.46492	-84.92632
1125.00000	-92.79686	34.41856	8.30078	-97.73489
1128.90625	-108.51170	33.20956	7.49567	-112.76427
1132.81250	-124.62943	29.17996	5.48174	-133.21788
1136.71875	-132.28572	30.79146	3.06493	-150.09579
1140.62500	-136.31564	36.02934	0.64805	-155.53119
1144.53125	-141.95734	37.64083	1.85758	-163.35689
1148.43750	-146.39037	39.65529	-0.15635	-160.58572
1152.34375	-151.22629	39.65514	-0.96157	-165.42476
1156.25000	-156.46507	39.65496	-1.76674	-178.00964
1160.15625	-149.61612	40.46069	-0.96021	-168.12813
1164.06250	-138.33490	37.23707	-0.15362	-163.32021
1167.96875	-141.15625	36.43098	-2.57053	-163.27914
1171.87500	-145.58939	38.04257	-5.39033	-155.70937
1175.78125	-130.68181	36.02776	-4.98677	-143.86127
1179.68750	-123.83282	33.20711	0.25197	-136.41356
1183.59375	-126.65414	32.40102	-1.35909	-137.51483
1187.50000	-122.62572	29.17739	-2.97019	-135.75500
1191.40625	-112.55332	22.73041	-0.95488	-130.26260
1195.31250	-98.04874	21.52144	-0.55130	-119.36957
1199.21875	-76.69430	22.32710	-0.14773	-102.69229
1203.12500	-72.66585	21.11810	-4.57935	-100.84933
1207.03125	-77.90485	18.29740	-3.77287	-104.20634
1210.93750	-64.20612	15.47667	-0.95170	-90.29432
1214.84375	-58.56609	11.04421	-2.96566	-75.11868
1218.75000	-56.55245	8.62637	0.25847	-62.12659
1222.65625	-48.49478	7.82029	4.69139	-58.15901
1226.56250	-43.25745	5.40245	2.67740	-51.71276
1230.46875	-28.75278	1.37295	4.69271	-34.59776
1234.37500	-19.08331	-3.46242	7.11098	-20.77743
1238.28125	-11.83139	-5.47731	4.29112	-13.90754
1242.18750	-1.75895	-5.88052	3.08307	-6.62256
1246.09375	-0.55096	-5.88080	-0.54269	-0.43767
1250.00000	-2.16342	-5.47811	-2.15375	10.63504
1253.90625	3.07394	-10.71647	-0.94435	13.03278
1257.81250	1.86426	-14.74601	-2.55539	9.33028
1261.71875	5.48976	-15.14921	-0.54010	16.69095
1265.62500	6.69777	-21.59636	2.68401	19.79963
1269.53125	17.97903	-25.22297	1.07290	25.25476
1273.43750	35.70718	-24.01443	2.68529	38.40018
1277.34375	27.24478	-26.43231	3.49178	34.18259
1281.25000	26.03517	-30.05896	-0.93984	31.92880
1285.15625	48.19541	-29.25344	-1.34212	48.08099
1289.06250	57.46196	-26.43327	1.88195	48.74587
1292.96875	39.32934	-26.43357	3.09136	42.43130
1296.87500	44.96955	-25.62803	0.67437	54.20557
1300.78125	61.89191	-24.01655	-5.36892	60.85110
1304.68750	59.47353	-25.62858	-5.36827	60.63214
1308.59375	55.04048	-26.83769	-2.54718	62.97427
1312.50000	55.03964	-26.83800	-0.93489	63.40462
1316.40625	55.44177	-24.82366	1.08035	68.19294
1320.31250	42.54730	-23.21219	1.48388	72.03123
1324.21875	38.51725	-23.21250	-2.54484	66.71907
1328.12500	46.97795	-21.60112	-0.93256	61.89300
1332.03125	51.81233	-19.18382	3.09739	67.87643
1335.93750	56.24375	-15.96068	0.68040	70.50642
1339.84375	57.85473	-18.37862	1.08391	68.69482
1343.75000	56.24226	-21.19945	1.48746	63.52062
1347.65625	46.57132	-17.57346	-0.52659	57.58763
1351.56250	43.34723	-15.15621	0.68282	55.84622
1355.46875	47.37587	-14.75359	2.69808	51.88100
1359.37500	53.82209	-11.53049	-0.12182	46.00937
1363.28125	57.04478	-10.32210	-1.33004	40.55992
1367.18750	44.15023	-7.09898	-0.92656	46.42865
1371.09375	41.73194	-4.27876	-1.32887	46.65284
1375.00000	44.14880	-7.90551	-0.11950	42.13475
1378.90625	38.10412	-9.92049	-0.52186	44.26978
1382.81250	37.70051	-9.92082	-0.92422	41.75563
1386.71875	36.08815	-11.53284	-1.72951	38.88911
1390.62500	29.64054	-13.14494	-3.34064	33.44457
1394.53125	34.87795	-11.53353	-5.35475	32.40487
1398.43750	33.26564	-9.11634	-9.78646	32.85620
1402.34375	23.19170	-7.50492	-10.18881	23.99465
1406.25000	22.38515	-5.49058	-9.38233	14.82034
1410.15625	24.39907	-3.07332	-12.20235	15.41389
1414.06250	23.99540	-5.49125	-10.59004	15.84304
1417.96875	29.63573	-5.49156	-5.35138	17.41270
1421.87500	38.09663	-2.67138	-7.36548	19.51220
1425.78125	33.66366	-4.28340	-9.78252	21.36273
1429.68750	33.66298	-4.68668	-6.15562	27.61367
1433.59375	34.06536	-5.08997	-4.54330	23.87886
1437.50000	33.25902	-5.89615	-6.15448	17.28299
1441.40625	31.24384	-1.86720	-5.75097	19.04231
1445.31250	32.45196	2.16173	-3.73578	19.43036
1449.21875	32.45129	0.95262	-2.52642	22.49582
1453.12500	26.40666	2.56396	-1.31708	29.11349
1457.03125	25.60012	2.56359	-1.31656	24.41092
1460.93750	24.39068	1.35441	-0.91312	14.12425
1464.84375	17.13725	3.36869	-3.33012	11.43846
1468.75000	8.67501	3.36831	-4.53838	12.54796
1472.65625	12.30079	2.15914	-1.31438	15.83220
1476.56250	21.97042	1.75585	1.90964	18.65254
1480.46875	11.09061	2.15835	4.73070	16.84802
1484.37500	4.64300	0.94923	-0.50682	10.68251
1488.28125	5.85114	-1.06578	-4.93849	15.49681
1492.18750	5.04467	-1.06615	-3.72913	17.07549
1496.09375	14.71431	0.14220	-6.54906	14.51613
1500.00000	21.56351	-1.06691	-7.75728	11.90414
1503.90625	15.11598	-1.87318	-5.33914	9.10270
1507.81250	18.33884	-2.27644	-3.72693	13.20731
1511.71875	17.93530	-5.09737	-0.50296	16.72501
1515.62500	1.81751	-4.29184	-0.50243	22.07701
1519.53125	0.60810	-5.50101	-2.11360	25.08249
1523.43750	14.30712	-8.72484	-1.30724	19.18884
1527.34375	15.11237	-7.51642	0.70792	20.98779
1531.25000	12.69415	-6.30799	-0.09742	19.61437
1535.15625	12.69354	-5.50253	-3.32035	9.90821
1539.06250	13.49882	-5.10003	-3.72278	7.22781
1542.96875	15.51275	-4.29453	-4.52810	7.90053
1546.87500	4.23001	-3.89201	-3.72175	5.39275
1550.78125	-1.41166	-5.10117	-2.51244	7.20782
1554.68750	-1.41229	-3.08683	-6.13833	2.59080
1558.59375	-6.65099	-1.47552	-8.15245	-4.18432
1562.50000	-2.21933	-1.87887	-6.13727	1.02548
1566.40625	7.85330	-0.67045	-5.33086	-2.15205
1570.31250	3.82333	-0.67086	-5.33035	-1.55892
1574.21875	-1.01251	-0.26834	-2.91224	2.54363
1578.12500	10.26892	2.14883	0.71470	6.16009
1582.03125	15.90934	2.95438	5.95328	20.32247
1585.93750	8.25318	1.74524	3.53613	24.94452
1589.84375	14.69964	4.16250	-0.89566	24.33792
1593.75000	21.95204	1.74454	2.73121	24.27337
1597.65625	22.35453	0.13243	6.76098	28.99691
1601.56250	24.77163	5.37017	4.34383	35.16993
1605.46875	21.95062	6.17571	2.32963	22.61448
1609.37500	15.90623	3.75774	5.15064	11.96541
1613.28125	18.72635	3.35444	3.94229	10.16143
1617.18750	17.51713	2.14531	1.52510	4.69499
1621.09375	3.81707	2.14496	-0.89207	-4.39431
1625.00000	-7.06260	-1.07880	-0.48866	-3.90614
1628.90625	-11.89838	-5.91439	0.31765	1.61392
1632.81250	-11.49600	-5.91478	1.52693	-1.51365
1636.71875	-3.84085	-4.70634	3.13918	-3.88597
1640.62500	0.18791	-3.90090	4.34839	-6.50074
1644.53125	1.79908	-5.11010	0.31959	-6.67054
1648.43750	3.41023	-4.70753	-3.30625	-6.31664
1652.34375	-2.63427	-3.90206	-2.90287	-12.76714
1656.25000	1.39443	0.93275	-5.31992	-4.39938
1660.15625	19.12286	2.14109	-6.93119	6.69130
1664.06250	19.12232	-6.72375	-2.09548	2.23216
1667.96875	-7.87464	-9.14175	1.12841	-8.20264
1671.87500	-18.75438	-9.94802	-0.88577	-15.13799
1675.78125	-3.44375	-11.56015	-0.48234	-10.94519
1679.68750	7.03181	-9.14304	7.17387	0.93518
1683.59375	0.58440	-7.12881	6.77144	-0.16583
1687.50000	-6.66887	-8.74091	1.13087	-0.42033
1691.40625	-1.83426	-8.33835	2.34013	11.11642
1695.31250	-4.65531	-6.32411	3.54942	9.11597
1699.21875	-9.49099	-7.93629	5.16165	4.84112
1703.12500	-9.49156	-8.74255	7.57969	7.89317
1707.03125	-3.85114	-7.53414	7.98316	14.20681
1710.93750	-1.83705	-7.93752	4.76022	13.61363
1714.84375	-1.43472	-8.34084	5.96950	7.43427
1718.75000	4.60862	-6.72958	4.76120	7.53287
1722.65625	11.86079	-5.11830	1.94122	6.66560
1726.56250	-2.24231	-1.49231	4.35925	5.05346
1730.46875	-13.52491	-0.28393	4.76270	5.64862
1734.37500	-1.84058	-1.89609	3.55441	4.56078
1738.28125	3.39689	-4.31405	1.94321	1.35765
1742.18750	2.99342	-3.50860	-1.27976	-8.28025
1746.09375	-4.66294	-2.30021	-0.87641	-11.76545
1750.00000	-11.91636	-4.71824	1.54166	-15.19800
1753.90625	-8.29053	-5.92746	1.54211	-17.63519
1757.81250	-4.26179	-5.12203	1.13961	-11.66719
1761.71875	3.79623	-2.70485	1.94599	-7.93272
1765.62500	8.22792	-3.91408	2.34936	-7.24136
1769.53125	6.61563	-3.10864	-1.27651	-5.81525
1773.43750	9.03266	1.32310	-1.67900	-0.72819
1777.34375	8.62908	-1.09488	-0.06678	2.30731
1781.25000	2.18172	-1.90123	1.14243	2.06838
1785.15625	6.21053	-2.70753	-2.48341	1.70071
1789.06250	13.05973	-1.09623	-2.48294	0.75423
1792.96875	1.37414	0.11205	-0.46783	-1.12788
1796.87500	5.40292	-3.91770	-4.09370	-1.44125
1800.78125	12.65515	-2.30640	-3.28736	2.78703
1804.68750	9.83413	-0.29220	0.74242	8.20930
1808.59375	5.40135	0.91616	-2.07764	8.13414
1812.50000	3.78909	0.91570	-4.89772	4.53539
1816.40625	-1.04667	-3.51703	-2.07666	4.89181
1820.31250	1.37025	-1.50285	-2.47913	10.34204
1824.21875	6.60780	2.92895	-4.49327	9.05943
1828.12500	2.98089	-2.30961	-3.68693	1.41304
1832.03125	-1.04900	-3.11594	1.55165	3.77038
1835.93750	7.81494	0.10697	6.38731	5.19183
1839.84375	16.67892	1.31530	3.56732	4.18628
1843.75000	8.21684	-0.69983	-0.46148	2.23565
1847.65625	-0.24520	-4.72955	1.55366	-4.90597
1851.56250	2.57483	-2.31236	2.76294	-5.84134
1855.46875	3.78312	0.91064	1.15166	-5.37423
1859.37500	-0.24675	0.50718	-0.05660	-9.23105
1863.28125	5.39368	0.50670	0.74970	-9.44229
1867.18750	9.82532	-0.70255	2.76479	-4.37930
1871.09375	10.22758	0.10282	3.16819	-0.12574
1875.00000	11.83863	-0.70355	5.18333	0.99745
1878.90625	8.21168	-0.30111	5.98968	4.34150
1882.81250	7.00230	0.50421	2.76675	7.06572
1886.71875	5.39004	0.50369	1.96141	9.84051
1890.62500	-0.25152	0.10020	0.75309	8.82839
1894.53125	3.77718	1.71138	0.75359	6.17725
1898.43750	-0.25264	2.51664	1.15701	7.43451
1902.34375	-4.68543	3.32191	3.57510	0.99067
1906.25000	2.96976	4.53016	4.38142	-1.73659
1910.15625	4.58084	2.11202	1.56140	0.06591
1914.06250	0.95381	3.32030	3.97947	-9.17518
1917.96875	-3.47907	1.70807	2.36817	-14.05230
1921.87500	1.75841	-0.71006	-1.66067	-7.92334
1925.78125	1.75775	-0.30763	0.35443	-2.04342
1929.68750	-3.07806	-2.32283	0.35492	-2.64224
1933.59375	-3.88465	-4.33805	-1.25630	-9.19751
1937.50000	-0.66190	-4.74160	-2.46464	-8.94347
1941.40625	-3.08013	-3.13042	-2.46416	-3.96060
1945.31250	-10.73646	-3.93686	0.75977	-4.78118
1949.21875	-8.31945	-5.95206	5.19246	-8.56558
1953.12500	-5.90244	-6.75847	3.58117	-13.22987
1957.03125	-14.36449	-5.95318	0.76118	-5.03853
1960.93750	-18.39428	-4.74492	1.16457	-0.81955
1964.84375	-10.33617	-2.73085	0.76216	-1.49055
1968.75000	-0.26355	-0.71679	1.97142	1.23074
1972.65625	7.79437	-4.74667	4.38941	15.79706
1976.56250	15.44934	-9.98535	1.56936	30.30240
1980.46875	12.62811	-5.55365	-3.66829	10.36600
1984.37500	0.13666	2.50442	-7.69716	-16.75189
1988.28125	-1.07266	5.72735	-8.90552	-12.74346
1992.18750	4.56778	6.93563	-6.08461	-4.71793
1996.09375	13.83460	7.74092	-6.08418	-4.85974
2000.00000	15.84864	8.94915	-11.32184	-0.21897
2003.90625	19.07148	12.57492	-9.30671	1.81473
2007.81250	10.20636	14.99194	-8.50043	-4.95978
2011.71875	3.35582	10.96209	-9.70881	-5.47137
2015.62500	4.56404	9.34979	-6.08204	1.08943
2019.53125	-1.07758	9.34924	-4.87282	4.09502
2023.43750	6.17449	8.54284	-5.27530	2.23077
2027.34375	11.41192	10.55694	-6.08078	0.00059
2031.25000	7.78485	6.93003	-4.46858	1.85066
2035.15625	8.99305	4.51185	-1.64762	-1.81148
2039.06250	15.43933	6.12304	-2.45300	-5.70058
2042.96875	7.38012	3.70490	-3.66136	-10.66875
2046.87500	-3.09650	1.28674	-0.84044	-9.14714
2050.78125	-6.32044	1.68911	-0.43706	-0.07923
2054.68750	-12.36490	0.88273	-0.83956	7.39179
2058.59375	-1.88919	1.28509	-0.43615	16.33092
2062.50000	3.34836	6.11975	0.77308	10.66164
2066.40625	0.12437	5.71626	2.38521	7.88708
2070.31250	0.52683	3.70108	0.37099	13.31548
2074.21875	1.73512	4.90936	-3.65788	13.38877
2078.12500	2.94347	3.29708	-4.46329	8.14081
2082.03125	11.80745	2.49068	-2.04526	3.76828
2085.93750	23.89483	1.68427	0.77563	9.19603
2089.84375	23.08834	0.47496	-0.43276	11.40980
2093.75000	20.26727	2.48909	-2.44699	8.92761
2097.65625	17.84908	2.89149	-4.05828	3.98069
2101.56250	16.63972	2.48800	-2.04322	-3.14308
2105.46875	14.22147	4.50210	-1.63993	0.82152
2109.37500	13.01209	3.29273	-3.65421	4.67782
2113.28125	17.84665	1.27749	-3.65382	2.06790
2117.18750	17.04012	-0.33480	-3.25046	-2.18991
2121.09375	10.18958	-1.54421	-0.83248	-2.41486
2125.00000	9.38298	-1.94776	-1.23491	3.31125
2128.90625	-0.28805	-0.33659	-1.63743	0.36961
2132.81250	4.54643	0.46866	-2.84581	-1.14635
2136.71875	13.81315	0.46805	-0.42778	2.92804
2140.62500	0.51584	1.67622	0.78141	3.93954
2144.53125	-6.33448	1.27268	0.78180	6.59011
2148.43750	-3.11151	-1.14544	2.39388	9.36142
2152.34375	-2.30615	-0.34016	1.99137	7.74602
2156.25000	-4.32130	0.06221	4.40930	5.23468
2160.15625	1.31914	-2.75884	4.00682	7.46091
2164.06250	7.36253	-2.75942	0.78378	-2.63933
2167.96875	4.94445	-2.75998	1.99298	-6.62727
2171.87500	-0.29420	-2.76053	-1.23003	-3.89239
2175.78125	0.91406	-1.95523	-3.24428	-10.57879
2179.68750	1.71933	-0.74702	1.18827	-9.17473
2183.59375	-0.29587	-0.74760	-0.02011	-3.42591
2187.50000	4.94171	-0.74813	-1.22852	-2.47165
2191.40625	12.19388	1.26596	1.18944	-1.41113
2195.31250	22.66943	-0.34633	1.59278	-5.82922
2199.21875	15.41605	-1.95868	1.99613	-2.44837
2203.12500	3.73045	-2.76511	-0.01811	1.40951
2207.03125	4.13283	-3.16856	1.19101	4.09672
2210.93750	-1.50881	-1.55743	8.44414	8.74153
2214.84375	0.10227	-2.36386	8.04163	5.78562
2218.75000	2.92229	-5.58791	4.81858	0.24323
2222.65625	2.92169	-1.96216	4.01314	-2.63871
2226.56250	2.92112	1.26070	2.40176	-3.44502
2230.46875	3.32357	-0.75453	2.40214	-4.46160
2234.37500	-1.51209	-3.97854	3.61131	-5.54949
2238.28125	-3.93018	-3.97910	3.20881	-3.11164
2242.18750	-5.54235	-3.17374	4.41795	-0.66162
2246.09375	-4.73702	-5.18900	3.20961	-3.34096
2250.00000	-1.51410	-2.77194	-0.81938	-12.81752
2253.90625	-1.11163	0.85391	-0.01312	-18.88107
2257.81250	-7.15611	-1.16131	0.79305	-16.94237
2261.71875	-13.60337	-4.38532	2.00218	-11.99918
2265.62500	-10.78329	-3.98298	5.22596	-0.83169
2269.53125	-6.75447	-4.78937	6.83798	-1.01735
2273.43750	-8.36659	-5.59576	5.22662	-1.97425
2277.34375	-10.78460	-7.20803	4.01820	-2.96809
2281.25000	-7.15869	-7.20854	5.22739	-1.99823
2285.15625	-10.78555	-5.19442	4.82482	-3.17179
2289.06250	-11.59192	-2.37441	2.00471	-13.38570
2292.96875	-6.75731	-3.18083	0.39336	-14.05906
2296.87500	-7.16083	-3.18139	-1.62092	-7.92556
2300.78125	-1.11735	-1.97321	2.40876	-2.08567
2304.68750	-0.31204	-5.19727	1.60333	-0.69273
2308.59375	-1.52124	-7.61540	-0.00798	-0.76791
2312.50000	6.13410	-3.58666	4.82752	6.10966
2316.40625	18.62449	-2.78136	8.45422	14.92756
2320.31250	23.86198	-3.18481	6.03703	16.75125
2324.21875	10.56456	2.05268	4.42562	7.40993
2328.12500	2.90833	0.44045	7.24652	2.58397
2332.03125	10.96636	-3.18643	2.81460	7.76158
2335.93750	15.80100	-3.18696	3.62076	11.19747
2339.84375	7.33900	-3.59044	6.44161	13.81812
2343.75000	9.75606	-3.99395	4.83025	15.89665
2347.65625	9.35256	-3.18862	5.23350	11.17239
2351.56250	14.99298	-0.36867	4.83085	16.68377
2355.46875	22.24523	-0.77215	6.84581	31.25334
2359.37500	20.23013	-4.39902	6.04027	28.20227
2363.28125	21.84133	-6.01133	3.62298	16.70888
2367.18750	17.00566	-6.81775	4.02624	16.53371
2371.09375	4.51430	-6.81832	4.42944	13.93740
2375.00000	9.34895	-2.78961	4.42975	11.43415
2378.90625	17.40695	-0.37261	4.43006	13.97219
2382.81250	13.37709	2.04433	2.41576	10.65234
2386.71875	2.90030	4.05844	0.80443	6.57719
2390.62500	4.10845	2.84905	3.22236	11.20602
2394.53125	10.15177	1.23675	2.81975	8.55475
2398.43750	8.13648	-0.37548	0.80544	0.14168
2402.34375	4.50937	0.83276	0.80579	0.54764
2406.25000	4.50876	1.63801	1.20903	7.08765
2410.15625	9.34350	2.44329	2.01527	2.44329
2414.06250	14.98401	2.44274	1.20971	-1.15677
2417.96875	22.63919	1.63632	2.82178	2.42754
2421.87500	19.81816	1.63574	2.41916	3.31831
2425.78125	14.17669	0.42637	4.03126	7.98934
2429.68750	11.75865	-0.78299	4.43447	11.01682
2433.59375	12.16113	0.82822	3.62891	14.53473
2437.50000	9.74301	-1.99290	3.62921	8.34159
2441.40625	0.87809	-1.99346	2.82370	3.65405
2445.31250	5.30980	2.43820	1.61523	9.28024
2449.21875	12.96492	0.01999	2.42142	6.70462
2453.12500	3.69694	-3.60694	5.24235	2.84607
2457.03125	-3.55636	-6.02509	4.03392	2.17281
2460.93750	-4.76560	-8.04029	1.61667	4.77999
2464.84375	-5.57175	-6.42910	0.40822	3.70602
2468.75000	-2.75161	-4.41500	0.40857	0.78630
2472.65625	3.29191	0.82253	3.63236	-3.18211
2476.56250	12.96178	2.83660	1.21508	-4.79402
2480.46875	9.73786	-0.38743	-2.41092	-2.56930
2484.37500	5.70815	-2.40264	0.00700	3.75610
2488.28125	8.52823	-3.61197	-1.60444	1.31752
2492.18750	6.11021	-2.00083	-3.61873	-9.19178
2496.09375	0.87163	2.02785	-4.42418	-8.52761
2500.00000	2.48281	2.43016	-3.21498	-1.06611
2503.90625	5.70575	1.62368	-2.00576	-2.65866
2507.81250	5.70524	2.83185	-1.19951	-1.37439
2511.71875	2.07834	1.21944	0.00968	0.12876
2515.62500	8.92763	-2.00468	2.42764	-2.17481
2519.53125	11.34478	-1.19946	3.63685	0.42792
2523.43750	6.10623	-0.79724	1.62260	0.17554
2527.34375	3.28523	-1.60374	-2.00337	7.61577
2531.25000	7.31406	-0.39558	-1.60011	9.86886
2535.15625	6.91066	-1.60503	1.22077	-2.25476
2539.06250	2.07502	-4.42617	1.22112	-9.36740
2542.96875	-1.95483	-4.42678	2.43026	-4.66532
2546.87500	-14.44617	-4.83032	3.63944	-5.96418
2550.78125	-18.87882	-6.44262	5.65446	-10.99885
2554.68750	-19.28221	-4.42857	6.05775	-13.60106
2558.59375	-23.71492	-1.60870	1.62585	-17.15278
2562.50000	-19.68607	0.40531	-2.00016	-17.18102
2566.40625	-5.98684	2.41937	-4.41742	-10.68814
2570.31250	0.86255	-1.20756	0.01519	-11.70657
2574.21875	1.66799	-3.22282	1.22425	-16.46845
2578.12500	2.07058	-0.80589	-1.19300	-11.64305
2582.03125	-1.15328	-3.62696	1.62782	-5.13642
2585.93750	2.47260	-5.64222	5.25456	-5.75245
2589.84375	0.45749	-1.21059	2.43431	-6.76207
2593.75000	-11.63089	-1.21120	2.03173	-5.21495
2597.65625	-9.21382	-5.64408	4.04669	-5.32667
2601.56250	1.66487	-3.22711	2.83818	-4.39185
2605.46875	-3.57362	-0.81020	2.83850	-9.29174
2609.37500	0.85830	-0.40788	3.24179	-9.06179
2613.28125	8.91649	-1.61732	4.45084	0.01338
2617.18750	8.91603	-2.02090	6.06292	2.20257
2621.09375	2.87162	-0.00689	4.85449	-0.84275
2625.00000	-8.41094	-2.02218	1.22845	-1.56347
2628.90625	-9.62025	-4.44037	-1.18877	0.73302
2632.81250	-8.41187	-0.00879	2.43788	3.64935
2636.71875	-4.38303	1.19938	4.85582	2.48585
2640.62500	-0.35427	-0.41295	3.24444	1.88572
2644.53125	6.89799	0.39229	3.24475	2.11881
2648.43750	14.15027	-0.41417	3.64798	1.26386
2652.34375	2.06187	-0.01190	5.26006	6.90123
2656.25000	-5.59421	2.40512	4.85740	11.23962
2660.15625	2.46397	1.19574	1.63426	2.58664
2664.06250	0.44876	-1.22240	3.64922	-3.08140
2667.96875	-5.19280	-1.22300	5.26126	1.39217
2671.87500	-1.56696	-0.82068	6.87324	2.91830
2675.78125	-3.58199	-2.03009	8.88816	-1.75352
2679.68750	-3.58238	-3.23946	8.08260	-1.96113
2683.59375	-8.41794	-0.82254	3.65065	-3.06215
2687.50000	-8.01547	1.99735	0.83043	1.11564
2691.40625	6.89256	1.59386	2.84538	-1.45022
2695.31250	3.66871	1.19030	2.03985	-8.28584
2699.21875	-7.61383	1.99554	0.02551	-12.15776
2703.12500	-8.82317	2.80078	1.63748	-11.12035
2707.03125	-1.97382	1.18835	3.24953	-2.38914
2710.93750	4.47265	-0.42397	2.84689	3.86748
2714.84375	13.73954	1.59006	-4.00261	0.91155
2718.75000	22.20056	4.00704	-6.01705	-9.06319
2722.65625	15.75311	3.60348	-2.39035	-9.52762
2726.56250	18.97604	1.99109	-0.77833	-1.46940
2730.46875	17.76672	1.99043	2.04253	4.36393
2734.37500	2.05202	1.98978	1.63986	-0.75327
2738.28125	-4.79838	1.58624	3.65482	2.08748
2742.18750	-14.46937	-0.83199	3.25225	2.52279
2746.09375	-12.85824	-2.04142	-0.37388	-4.99182
2750.00000	-6.41195	-1.23615	-1.17946	-0.76886
2753.90625	-7.62138	-0.83388	-1.17919	1.22603
2757.81250	-6.01022	1.98601	0.43275	-3.28225
2761.71875	-11.65178	0.37371	1.23886	-5.59175
2765.62500	-2.38492	-1.23861	1.64207	-2.08000
2769.53125	6.88206	-0.43339	4.46284	0.15187
2773.43750	8.89628	-0.43403	4.46311	-4.02854
2777.34375	-0.37155	-0.83762	0.83701	-5.42538
2781.25000	-11.65410	-1.64410	2.04610	-0.42622
2785.15625	-6.01364	-0.43593	6.47856	4.84706
2789.06250	4.05915	-0.43655	6.47882	2.28881
2792.96875	2.04398	-0.84014	2.85273	-4.42850
2796.87500	2.04343	-0.43783	0.83835	-9.17415
2800.78125	6.47518	-0.84144	0.03280	-6.96054
2804.68750	3.65428	-0.03625	0.43598	-1.94125
2808.59375	0.83335	-1.24562	-0.77255	-4.03115
2812.50000	-0.37586	-4.06679	-1.57812	-7.22684
2816.40625	7.27939	-2.85859	-3.99540	-8.88515
2820.31250	12.92003	2.78185	-0.36879	-7.06131
2824.21875	3.24920	2.78122	4.06374	-1.09123
2828.12500	-0.37765	1.57179	5.67573	1.33562
2832.03125	4.85995	0.76530	4.06433	2.48404
2835.93750	4.05363	0.36169	0.03534	3.09950
2839.84375	0.02383	-0.44481	0.43852	2.49672
2843.75000	-6.02059	-2.46008	1.24464	0.54610
2847.65625	6.87270	-0.84899	4.06548	4.28350
2851.56250	10.49862	-2.46129	4.87163	2.94515
2855.46875	-8.84247	-3.26775	5.67776	-0.61715
2859.37500	-7.23131	-1.25372	4.46921	8.82257
2863.28125	0.02096	0.76029	2.05191	7.80542
2867.18750	-5.62045	4.38598	0.84337	-1.63707
2871.09375	-9.24726	2.77366	3.26125	0.19906
2875.00000	4.45192	0.75839	4.87324	2.93388
2878.90625	10.09244	1.56360	3.26184	4.66605
2882.81250	5.25676	-0.04876	2.85914	4.97253
2886.71875	5.65925	1.96527	2.05352	0.89747
2890.62500	0.42069	0.75587	1.65083	-0.51765
2894.53125	-3.20610	-0.85656	2.05404	0.86045
2898.43750	0.41984	0.75455	4.06894	-2.71747
2902.34375	-3.60987	-0.85782	4.47207	-2.31154
2906.25000	-0.38690	-2.87309	-1.16870	-7.85941
2910.15625	3.64192	-1.66490	-4.79486	-12.50379
2914.06250	-7.23775	-2.87432	-3.18287	-7.64230
2917.96875	-7.64116	-4.08377	-1.97384	-4.05801
2921.87500	-8.85050	-2.87560	-0.76484	-2.36140
2925.78125	-10.46277	-0.05571	1.25007	-8.97235
2929.68750	-10.46335	-2.47383	1.25035	-14.80939
2933.59375	-12.88149	-3.68323	3.26531	-7.66507
2937.50000	-9.65852	-0.86338	4.07142	-0.56139
2941.40625	-4.82384	-1.26689	0.44529	1.60086
2945.31250	5.24888	-1.67044	2.46018	1.18301
2949.21875	16.53050	-2.07401	2.05749	5.05413
2953.12500	14.51534	-0.86579	3.66940	8.04534
2957.03125	14.51487	0.74538	6.89309	8.17789
2960.93750	18.54377	-0.06115	2.86404	7.56168
2964.84375	8.47005	-1.67344	1.65549	3.66708
2968.75000	1.61991	-1.67405	5.28214	4.37360
2972.65625	10.48403	-0.86883	1.65598	5.64320
2976.56250	8.87200	-0.86943	-2.37306	0.00194
2980.46875	2.42474	-0.06418	1.25352	-7.04069
2984.37500	3.63325	3.15865	0.44791	-12.80323
2988.28125	-5.23150	1.54634	-2.37235	-9.19769
2992.18750	-11.67881	-2.08067	-2.37209	-3.58961
2996.09375	-6.03828	-0.46951	0.85159	-12.19283
