 	TP9	AF7	AF8	TP10	
-1000.00000	-2.75000	-1.30066	-1.19859	-2.69513
-996.09375	-5.57134	0.45873	-0.26676	-2.25965
-992.18750	-5.97511	2.87779	-0.31797	-2.68856
-988.28125	-1.54367	3.94003	-0.88142	-2.87175
-984.37500	-1.54445	2.35986	-4.43336	-0.54467
-980.46875	-3.15698	0.64463	-4.49427	1.05621
-976.56250	0.06569	-0.39375	-2.32362	1.80355
-972.65625	2.48251	-0.70949	-1.48335	3.24508
-968.75000	7.31685	0.79071	1.20430	5.47342
-964.84375	6.91311	0.76006	0.40581	-1.32678
-960.93750	4.09169	0.98265	-2.54847	-8.08710
-957.03125	4.09082	1.56644	-1.16584	-3.38295
-953.12500	4.08991	1.33456	0.96815	-0.47916
-949.21875	5.70075	0.46332	1.68046	-2.71133
-945.31250	2.47637	-0.42591	1.62944	-3.33724
-941.40625	2.47544	2.53553	1.81992	-3.93758
-937.50000	2.07162	3.11697	1.59625	-4.12082
-933.59375	2.07079	2.15929	3.40961	-1.77109
-929.68750	4.08453	0.13550	2.96322	-1.23235
-925.78125	4.08357	0.81581	2.05773	2.28867
-921.87500	4.08270	2.08080	3.37425	4.23496
-917.96875	0.85841	-0.17310	4.75524	1.20048
-914.06250	1.26048	0.55563	3.82612	-0.22588
-910.15625	3.27426	2.62645	2.23063	-1.36900
-906.25000	2.46754	6.49948	0.88451	-0.56594
-902.34375	2.86954	8.08142	-3.12216	-2.91278
-898.43750	3.67452	4.18859	-6.19311	-6.35903
-894.53125	6.49408	2.16449	-5.03567	-2.28941
-890.62500	6.89610	2.69624	-2.93669	1.71658
-886.71875	6.49221	2.52132	0.92922	1.39589
-882.81250	0.85021	0.79452	1.26907	2.01577
-878.90625	-0.35947	1.69810	0.18118	5.83576
-875.00000	0.04248	4.16535	-1.41758	3.72408
-871.09375	-6.00243	2.35814	-1.25837	-1.64333
-867.18750	-3.98875	0.96825	-1.03261	-1.09236
-863.28125	0.84547	1.57625	-1.17990	2.49842
-859.37500	-1.17010	2.43016	0.50963	1.92160
-855.46875	-4.79733	-0.69427	-0.63089	-0.71927
-851.56250	-3.18648	-2.01561	-2.00310	0.23972
-847.65625	-3.18732	-1.78728	0.23604	-0.77578
-843.75000	-1.57640	-1.25775	1.21647	-2.27205
-839.84375	0.43743	1.95435	0.43508	2.44591
-835.93750	1.64542	1.68895	-1.46622	4.93020
-832.03125	4.46509	1.25888	-3.56053	2.53303
-828.12500	4.06131	1.90918	-2.51884	1.94392
-824.21875	4.86630	3.17213	-0.40574	3.81965
-820.31250	6.07421	5.10753	0.36192	3.77896
-816.40625	5.67035	4.06302	0.50924	1.73402
-812.50000	6.87816	3.71877	1.32096	4.03008
-808.59375	8.48886	5.20602	1.58048	5.85989
-804.68750	5.66737	5.19516	2.01228	5.05783
-800.78125	2.84585	3.83223	2.70947	6.32090
-796.87500	4.85955	1.59345	1.26705	5.00302
-792.96875	4.05274	0.52802	2.16416	4.33060
-789.06250	0.42545	0.44611	1.25048	4.12488
-785.15625	-4.00772	-1.23248	-1.60261	3.05378
-781.25000	-1.99400	-1.46680	1.03232	0.80152
-777.34375	-0.78614	-4.50959	0.40538	-0.17248
-773.43750	-1.19007	-5.49348	-0.22580	-0.18997
-769.53125	2.03240	-0.68723	0.92166	1.57635
-765.62500	5.25491	3.63227	0.83712	7.07441
-761.71875	4.85102	1.70226	1.77865	3.33531
-757.81250	2.83546	-2.15699	1.55168	-0.09437
-753.90625	1.62581	-1.85536	0.19421	2.15518
-750.00000	0.01310	-1.01600	-2.63093	1.84343
-746.09375	3.23560	0.85127	-1.95115	3.41999
-742.18750	1.22004	0.44730	2.12931	3.04045
-738.28125	-2.00432	0.19121	0.67802	2.41520
-734.37500	0.41240	0.56300	-3.02291	1.69729
-730.46875	-0.79732	-0.13896	-2.55919	-1.92073
-726.56250	-2.00709	0.89966	0.10517	-1.46180
-722.65625	-3.21685	1.21580	-0.33231	-1.29420
-718.75000	-8.05296	0.11885	-3.02015	-2.31630
-714.84375	-10.87442	-3.07360	-4.63946	-0.75683
-710.93750	-2.41391	-5.71341	-2.49120	6.40373
-707.03125	4.83788	-0.65574	-1.45646	7.33798
-703.12500	-8.86264	4.81465	-1.97894	-6.85052
-699.21875	-24.57787	3.26869	-2.69138	-22.34995
-695.31250	-31.83156	2.54654	-2.64054	-28.57653
-691.40625	-37.07058	2.40600	-1.21951	-34.02283
-687.50000	-44.72718	0.21323	-3.81651	-46.33310
-683.59375	-50.77201	-2.05213	-4.82416	-52.31183
-679.68750	-53.59335	-3.25149	-3.16906	-51.24141
-675.78125	-52.78838	-3.93139	-2.66665	-52.75051
-671.87500	-46.74533	-8.82242	-2.37157	-49.46125
-667.96875	-40.29932	-6.56807	-3.34973	-42.40005
-664.06250	-37.88266	-2.86422	-2.82368	-37.75288
-660.15625	-33.04843	-3.72583	-2.84000	-35.80656
-656.25000	-29.42299	-3.56914	-3.50864	-33.79176
-652.34375	-25.79748	-1.12138	-1.11384	-29.02994
-648.43750	-23.78374	1.16009	-1.26649	-25.98934
-644.53125	-24.18762	0.36413	-2.02119	-21.60009
-640.62500	-20.56211	0.63860	2.72955	-16.34135
-636.71875	-16.13075	0.41095	3.69871	-13.20287
-632.81250	-14.11704	-1.89119	2.55281	-9.79624
-628.90625	-15.72981	-2.39144	1.62593	-10.79852
-625.00000	-14.92501	-3.64956	0.40403	-13.92783
-621.09375	-9.28496	-3.45375	1.85631	-12.18967
-617.18750	-8.07711	-2.06343	0.82453	-11.13172
-613.28125	-11.30153	-1.05936	-1.04296	-12.71059
-609.37500	-15.73482	-2.31582	-1.12096	-16.16593
-605.46875	-14.93001	-4.02617	-0.38350	-16.75128
-601.56250	-14.93103	-1.89857	-3.04077	-20.13059
-597.65625	-14.52911	-1.32063	-4.47432	-18.31208
-593.75000	-8.08327	0.56781	-1.42559	-10.37175
-589.84375	-8.48726	-1.43504	0.56436	-13.07790
-585.93750	-11.30877	-5.19847	-3.57843	-16.77382
-582.03125	-9.29514	-1.54443	-4.30480	-13.57354
-578.12500	-7.68444	-0.98553	-1.31741	-12.58431
-574.21875	-5.26784	-1.84507	-1.01307	-13.25403
-570.31250	-1.64243	-2.16836	-3.39263	-11.60442
-566.40625	-2.04636	-1.52635	-5.55467	-12.78580
-562.50000	-1.64435	-1.18175	-4.35186	-9.84669
-558.59375	2.78689	0.15189	-0.17932	-5.63539
-554.68750	2.78591	2.58075	1.40339	-6.85082
-550.78125	2.38202	2.73529	0.70608	-4.08735
-546.87500	2.38099	3.36281	1.74550	1.25707
-542.96875	1.97699	3.21986	2.45999	-1.69959
-539.06250	4.79641	2.49634	3.37361	-3.91421
-535.15625	1.97483	0.14604	2.60017	-4.86061
-531.25000	2.77963	-0.82797	1.17394	-3.41698
-527.34375	6.80793	0.60344	1.39783	-1.63983
-523.43750	3.98631	1.99058	2.43188	-3.23689
-519.53125	-0.04402	0.81109	3.29896	-5.40893
-515.62500	-2.46265	-2.29929	1.77170	-2.44813
-511.71875	-4.47831	-1.57769	0.02412	1.69111
-507.81250	-7.70273	-2.95603	-0.15189	1.08878
-503.90625	-6.49489	-4.06306	0.39959	2.86580
-500.00000	0.35394	-3.69320	-1.61052	3.98067
-496.09375	5.99389	-1.12783	-1.08164	5.22201
-492.18750	4.38114	2.90297	-2.74454	5.59888
-488.28125	-4.88729	0.74184	-2.09917	-2.64305
-484.37500	-6.50006	-0.43547	-0.01010	-3.94241
-480.46875	-7.30691	1.07278	-1.68268	-2.34167
-476.56250	-10.12838	-2.38310	-2.73550	-1.19148
-472.65625	-5.69710	-4.31057	-1.89524	4.27926
-468.75000	-2.07173	-3.21328	-1.22222	4.89573
-464.84375	-1.26681	-0.82621	-0.00605	5.75117
-460.93750	-5.29705	0.20226	0.66607	4.63188
-457.03125	-4.49213	-1.22856	-3.18941	-1.14018
-453.12500	1.55094	0.15131	-5.48763	-1.05690
-449.21875	2.75873	0.89186	-3.56659	-1.27444
-445.31250	7.99588	5.64372	-0.39416	-4.31800
-441.40625	9.20369	5.38170	-1.00953	-3.70949
-437.50000	4.36758	0.72510	-3.24790	-3.48976
-433.59375	5.57541	0.97628	-1.03161	-3.15474
-429.68750	9.20078	3.78777	-0.26928	1.01026
-425.78125	10.00568	8.90033	-1.17477	-0.30387
-421.87500	7.99012	10.97122	-0.66417	0.03074
-417.96875	8.39222	8.71737	-1.29794	2.23436
-414.06250	6.37674	2.99929	-1.42120	-0.80373
-410.15625	6.77888	1.84667	-0.59915	-0.33504
-406.25000	7.18098	2.89917	1.27805	-1.54658
-402.34375	4.35964	1.66066	1.70354	-3.49050
-398.43750	2.74703	0.58845	-0.56157	-1.29567
-394.53125	1.53746	0.98193	-0.21002	-1.65827
-390.62500	2.34249	0.30492	2.29184	-0.87564
-386.71875	3.95333	-0.67583	1.72548	0.81839
-382.81250	1.93781	-1.99965	1.66243	-0.17330
-378.90625	4.75744	0.11271	0.97740	1.63217
-375.00000	9.18885	1.37127	0.18445	3.55008
-371.09375	10.39681	-0.43586	0.74660	2.21220
-367.18750	7.17252	-1.42272	0.97233	0.74870
-363.28125	-2.09572	-6.05274	0.82499	-2.10723
-359.37500	-2.49952	-7.61638	0.90280	-5.50434
-355.46875	-1.69446	-4.29391	0.97100	-5.32448
-351.56250	-6.12751	-2.39174	0.40468	-3.96244
-347.65625	-5.32246	-2.16335	-1.38548	-2.96312
-343.75000	-3.30864	-1.63370	-1.21090	-3.65329
-339.84375	-0.89191	-0.83917	-0.38062	-5.38208
-335.93750	-0.89282	-2.71630	-1.47606	-6.92687
-332.03125	-1.69958	-2.74346	-2.36157	-8.11504
-328.12500	0.31412	0.32448	-3.33456	-4.27171
-324.21875	2.73074	1.99033	-1.22150	1.23059
-320.31250	2.72982	1.10527	-0.05093	0.78727
-316.40625	3.13185	0.06082	-2.32126	1.16018
-312.50000	6.35440	0.11956	-3.12134	2.24779
-308.59375	6.75644	-0.40782	-4.87650	-1.16025
-304.68750	5.14376	1.19305	-6.05641	-4.37967
-300.78125	4.73993	2.65072	-3.74756	-5.13105
-296.87500	6.35081	3.23247	-1.56363	-5.64277
-292.96875	7.55870	2.16709	0.13929	-4.70320
-289.06250	6.34899	0.47350	-1.17739	-2.49104
-285.15625	3.93050	1.21255	-5.23933	-4.36775
-281.25000	1.51205	0.57532	-9.45424	-9.03737
-277.34375	0.70523	-0.04978	-7.26075	-9.20526
-273.43750	-0.10151	0.17521	-3.45973	-10.02826
-269.53125	-1.71408	-0.25657	-6.74453	-13.49966
-265.62500	5.94067	2.04831	-8.84379	-6.38969
-261.71875	13.99845	2.53596	-3.87302	8.00337
-257.81250	8.35650	1.49720	1.13804	3.76809
-253.90625	1.50578	-0.21578	1.79520	-0.02609
-250.00000	1.10188	-1.79398	2.59626	6.91510
-246.09375	0.29509	-0.73248	4.48481	0.43326
-242.18750	-4.13806	0.07233	1.71537	-7.60173
-238.28125	-6.95938	1.02516	-1.75061	-12.65889
-234.37500	-5.34850	2.20291	-2.63107	-13.37653
-230.46875	-2.12591	1.90397	-2.16745	-8.93566
-226.56250	-5.75309	-0.28072	-1.11474	-6.05887
-222.65625	-8.17148	-1.97912	-2.76108	-3.07034
-218.75000	-0.51654	-0.65837	-1.01666	1.95190
-214.84375	-0.51729	-1.43317	-0.21834	1.09420
-210.93750	-2.93564	-2.46114	-0.48768	-0.20639
-207.03125	-3.74222	-3.04443	0.95005	3.54880
-203.12500	-2.53418	-3.21494	2.03933	3.06031
-199.21875	0.68852	-2.34322	3.34160	2.46973
-195.31250	2.70238	-1.05065	1.78077	3.09329
-191.40625	2.70160	0.42059	-2.43922	3.28835
-187.50000	-0.11968	-0.96627	-3.82756	1.45457
-183.59375	3.10300	-1.21693	-3.22352	3.13175
-179.68750	7.53447	-0.80443	-2.77728	5.81414
-175.78125	8.33947	0.53039	-1.46904	5.91700
-171.87500	8.33860	3.29524	-1.97990	3.96828
-167.96875	9.54661	1.92324	-1.74930	2.97112
-164.06250	13.57519	1.19500	-0.82030	5.20108
-160.15625	15.99213	2.34810	-2.04541	4.73031
-156.25000	16.79734	0.49017	-1.90820	5.53679
-152.34375	15.18498	-0.68836	-1.12507	7.47858
-148.43750	8.73755	-0.42148	-3.29233	4.47570
-144.53125	8.33398	-0.00861	-3.64403	-1.61066
-140.62500	8.73631	-1.34572	-3.72848	-3.60417
-136.71875	3.49756	-0.76733	-2.75931	-3.28568
-132.81250	-3.35301	-0.24893	-2.69639	-2.29612
-128.90625	-6.98010	-3.16670	-2.41447	0.32851
-125.00000	-7.78675	-3.61883	-1.21873	-0.38271
-121.09375	-11.41383	-3.82583	-1.37816	-5.09089
-117.18750	-11.41456	-4.04718	0.41064	-4.83832
-113.28125	-8.19189	-1.02839	2.57243	-1.17861
-109.37500	-3.76043	-1.88185	2.09147	0.60464
-105.46875	-2.95534	-3.59211	-1.20035	-0.78605
-101.56250	-5.37369	-0.65853	-0.63418	-2.15018
-97.65625	0.66951	1.93413	1.15583	3.29521
-93.75000	6.30980	3.01678	-0.22764	7.20677
-89.84375	4.29433	2.22273	0.15067	4.09818
-85.93750	-1.75045	-1.54059	2.85770	0.80569
-82.03125	-3.36300	-3.93049	0.92254	-0.42585
-78.12500	-2.96084	-4.58030	-2.13400	-3.06255
-74.21875	-0.14121	-5.84268	-0.62086	4.32673
-70.31250	11.54296	-4.15125	2.64055	14.84125
-66.40625	6.30405	1.32597	-1.93908	5.19880
-62.50000	-4.57594	3.28236	-6.37728	-5.15823
-58.59375	0.25843	0.98970	-3.01062	-0.54357
-54.68750	-0.14534	0.59806	-3.84554	-2.56437
-50.78125	-0.95200	1.15562	-5.34874	-7.85903
-46.87500	1.86766	1.78314	-3.10058	-5.33476
-42.96875	-3.37126	0.43150	-4.80374	-5.47058
-39.06250	-4.58091	-1.90372	-4.69607	-3.65559
-35.15625	-2.56712	-5.46273	-3.05196	2.24822
-31.25000	2.67013	-2.81033	-2.06064	3.28930
-27.34375	7.10153	0.63586	-2.64263	1.03747
-23.43750	8.71246	-1.20036	-2.41447	2.26139
-19.53125	13.54680	2.05247	-2.75625	4.11896
-15.62500	13.94891	6.59799	-4.68654	6.67696
-11.71875	11.93324	4.90205	-3.21072	8.80167
-7.81250	9.91761	0.70323	-2.58096	8.60241
-3.90625	10.31952	1.20791	-2.83538	8.76786
0.00000	11.52720	3.59244	-2.02497	9.47979
3.90625	11.52603	3.74022	-1.09324	8.30338
7.81250	8.30135	2.93587	-2.35321	4.24798
11.71875	4.67371	0.77476	-5.33432	2.45284
15.62500	4.26958	0.00043	-2.84238	3.57096
19.53125	4.26834	1.91158	-2.09741	3.96277
23.43750	3.46130	3.69381	-2.74736	2.69534
27.34375	1.44548	1.76635	-2.71297	0.51029
31.25000	2.65304	-1.16564	-4.45757	-2.90258
35.15625	3.45777	-2.80796	-4.85310	-4.46478
39.06250	3.85947	-1.77953	-3.37511	-1.15184
42.96875	2.64948	-1.19577	-2.39536	1.53762
46.87500	1.43957	-1.83060	-1.47018	0.81500
50.78125	5.46773	-0.68718	-0.75786	1.00040
54.68750	6.27246	-0.36759	-1.61480	1.98613
58.59375	6.67433	-0.62956	-1.42431	-0.22590
62.50000	11.10546	1.96656	-1.64795	-4.03558
66.40625	11.50736	1.41187	-3.86390	-5.71516
70.31250	10.29751	-0.20887	-5.92208	-3.96770
74.21875	9.08767	-0.73727	-5.21597	-1.65542
78.12500	8.68375	-0.68100	-4.30242	-0.11213
82.03125	5.86217	0.28856	-5.33918	-0.72907
85.93750	1.42899	-0.59428	-4.25374	0.66520
89.84375	1.02505	-0.13514	-1.41709	4.76028
93.75000	3.84456	1.72324	0.46014	5.16049
97.65625	7.87287	2.09650	1.28851	5.23134
101.56250	3.03674	0.21840	-0.97659	2.99399
105.46875	-0.18770	1.01489	-2.63972	-0.18903
109.37500	-0.18871	-2.07961	-2.55549	-2.22697
113.28125	-0.18970	-2.65740	0.50441	-0.12994
117.18750	3.43572	0.85402	0.44128	1.29601
121.09375	3.83762	-1.46577	-1.45265	-0.92786
125.00000	-0.59556	-3.83361	1.78368	-1.83057
128.90625	-3.01411	-3.22310	0.73402	-2.76557
132.81250	-3.82089	0.62525	-0.65205	-1.00568
136.71875	-4.62780	3.24799	1.61818	1.37640
140.62500	-1.40533	1.68437	1.29309	3.62019
144.53125	0.60837	-0.23122	-1.05633	5.81464
148.43750	-2.61603	-3.16415	-2.83148	1.53559
152.34375	-3.82574	-5.35334	-5.42753	-3.10615
156.25000	3.02307	-3.57647	-5.00698	0.43981
160.15625	7.45435	-1.64066	-0.89307	1.45215
164.06250	1.40943	0.07971	-1.80022	-2.48741
167.96875	-0.20330	2.38686	-2.61899	0.57980
171.87500	0.60156	0.59248	-0.91485	1.99488
175.78125	0.19766	0.44014	0.22889	-1.60069
179.68750	1.40548	-0.15384	0.22397	1.17269
183.59375	-1.41603	0.01018	0.15412	-1.98345
187.50000	-2.62578	1.66097	-1.35985	-1.09525
191.40625	3.41725	-0.49101	-0.82134	8.29013
195.31250	6.63972	-3.17979	-1.37084	6.41111
199.21875	6.23578	-4.30218	-1.47388	0.07604
203.12500	5.42893	-4.10379	-0.31951	0.54848
207.03125	5.83080	-3.91614	1.09547	2.89085
210.93750	5.02394	-3.18187	1.69167	3.30341
214.84375	1.39660	-1.94562	-0.53917	2.31471
218.75000	3.81317	-0.38360	-0.34388	3.39770
222.65625	6.22979	0.23038	1.21259	0.67361
226.56250	5.02001	-1.04913	1.92586	1.66012
230.46875	2.60145	-1.84175	3.39886	2.75247
234.37500	3.40640	-1.49887	3.52932	5.45241
238.28125	3.40544	-1.69221	3.21282	11.94137
242.18750	2.59857	-2.29646	1.12582	9.67118
246.09375	6.22402	-2.22975	0.32462	4.88297
250.00000	8.23773	1.51183	1.07437	1.80504
253.90625	3.40163	3.80064	0.76023	0.11139
257.81250	3.40069	3.05609	-0.47289	2.73813
261.71875	4.20561	0.40601	-1.38414	2.15360
265.62500	0.17538	-0.20584	-0.08211	3.29213
269.53125	0.57736	0.42913	1.96902	2.47899
273.43750	-1.84105	-0.55396	0.82298	-0.40913
277.34375	-3.45364	0.96958	-0.92325	-1.24616
281.25000	-1.03685	1.08783	-1.07669	-1.33245
285.15625	0.97698	0.99318	1.91480	-2.30678
289.06250	-1.03849	0.14589	2.45475	-5.29597
292.96875	-5.87447	-0.46148	-0.71604	-4.97122
296.87500	-5.87534	-3.11489	-1.36070	-2.83333
300.78125	-1.44403	-1.86024	-1.17353	2.03000
304.68750	2.58441	2.17338	-1.34015	5.00775
308.59375	1.37480	2.27083	0.51492	-2.98329
312.50000	-3.05830	-1.96824	-2.24664	-7.93158
316.40625	-5.87964	-1.54081	-5.00805	-5.65070
320.31250	-4.67175	0.02610	-4.08998	-2.26770
324.21875	-3.06086	-1.09693	-2.59340	-0.55328
328.12500	-4.27052	-3.67435	-1.83741	-0.65373
332.03125	-3.86839	-6.28500	-3.77068	-2.03442
335.93750	-1.45169	-4.78309	-3.40318	-2.84853
339.84375	-1.45255	-4.93506	-4.18304	-5.76716
343.75000	-0.64749	-4.38427	-4.66454	-10.93313
347.65625	-1.45423	-2.78331	-3.39478	-11.60241
351.56250	-5.48436	-3.74389	-3.67826	-10.64668
355.46875	-4.67937	-3.57401	-2.59007	-9.73785
359.37500	0.15495	0.98780	1.36973	-4.03866
363.28125	4.58623	3.19182	1.71492	0.86267
367.18750	4.58533	1.71859	1.88536	0.43619
371.09375	2.56979	0.81711	0.44605	0.88706
375.00000	1.36018	0.47457	-0.95716	-0.53023
378.90625	-2.26710	0.06838	-3.54690	-4.33787
382.81250	-4.28267	-0.12529	-3.19720	-9.89407
386.71875	-5.89531	-0.64641	-0.90635	-10.47156
390.62500	-7.50802	-2.27514	0.54155	-9.73823
394.53125	-4.28557	-1.09927	1.89793	-9.87696
398.43750	-2.27194	1.17349	2.82685	-6.26443
402.34375	-0.25828	1.78360	2.35900	-6.94244
406.25000	0.94956	0.99966	0.72038	-10.47899
410.15625	-1.46901	1.07913	-1.37917	-11.09078
414.06250	-3.88747	0.97107	-2.48693	-10.77991
417.96875	-3.08251	1.88798	-0.05670	-6.99960
421.87500	-2.68054	1.26545	3.07413	-3.98482
425.78125	-1.47269	-1.40217	1.12423	-4.01793
429.68750	0.54102	-0.80759	-0.88572	-4.37601
433.59375	1.34602	-0.97099	-0.41314	2.00127
437.50000	3.35978	0.19940	-1.71988	4.73713
441.40625	2.15007	1.94904	-3.87029	1.39343
445.31250	0.94036	0.60913	-4.52979	-1.56502
449.21875	-0.67225	-3.10308	-0.39766	-3.69381
453.12500	-2.28490	-1.68912	2.87998	-2.95982
457.03125	-0.67403	0.94430	0.25592	-2.48399
460.93750	-0.67493	0.21055	-2.75802	-2.89879
464.84375	1.74167	2.60136	-3.34790	-1.10654
468.75000	4.96419	0.63693	-2.33463	1.83755
472.65625	5.76916	0.82946	-1.47377	3.35054
476.56250	3.75364	1.70662	-0.17259	1.15307
480.46875	0.12644	0.88819	-2.04868	-2.76207
484.37500	1.33439	1.35180	-3.79110	-5.06126
488.28125	3.34819	-0.46882	-4.68363	-7.12026
492.18750	2.94440	0.94184	-6.22320	-6.06105
496.09375	3.34648	3.29328	-4.61640	-2.88676
500.00000	2.94263	1.96991	-5.76938	-0.61696
503.90625	-0.68462	-1.52702	-4.64961	0.26863
507.81250	-4.31198	-3.19948	-0.19332	0.05722
511.71875	-7.93935	-2.96642	-1.69999	-5.00149
515.62500	-5.92561	-2.35393	-3.00218	-4.12766
519.53125	0.92317	-5.40598	-1.83014	6.75647
523.43750	4.95146	-6.83983	-2.69890	5.61305
527.34375	8.57686	0.50175	-5.38517	2.01555
531.25000	4.94945	5.21930	-5.63494	-4.34731
535.15625	1.72501	5.31458	-5.40324	-4.18105
539.06250	3.33582	4.55086	-4.33169	-1.99989
542.96875	6.55834	3.95006	-0.35529	2.10530
546.87500	9.78081	4.99246	1.90087	8.42671
550.78125	8.97404	7.36481	-0.70417	6.38165
554.68750	8.97313	6.15237	-1.74661	5.01342
558.59375	7.76343	2.02623	-0.78142	2.92894
562.50000	6.95664	1.43077	-1.64644	2.23402
566.40625	6.55278	-0.20485	-2.10870	1.56268
570.31250	4.13419	-2.98000	-1.41530	-1.82260
574.21875	2.52145	-2.25924	-2.10627	-1.12166
578.12500	0.50585	-1.29288	-0.84784	2.60288
582.03125	-1.50973	-0.29335	-1.33239	-0.85381
585.93750	0.90691	2.23466	-1.29706	-3.26535
589.84375	-0.70577	1.58144	-1.32330	-3.57236
593.75000	-3.52739	-2.19215	-3.66250	-7.67606
597.65625	-4.33427	-3.38948	-3.72371	-8.21776
601.56250	-2.72344	-2.42824	-2.63466	-5.95208
605.46875	0.09629	-0.17987	-1.30552	-5.25120
609.37500	-5.94844	0.49703	-2.44508	-10.14642
613.28125	-7.56093	1.51720	-2.38757	-11.02035
617.18750	-4.33813	1.78244	-2.15537	-5.35765
621.09375	-6.75633	1.47587	-4.74571	-5.81033
625.00000	-7.56272	1.01324	-3.74567	-8.82711
628.90625	-4.74276	-0.99739	-3.17083	-8.64765
632.81250	-5.95203	-4.02646	-5.53548	-8.33144
636.71875	-4.74382	-3.50466	-4.60318	-6.94987
640.62500	-1.52095	1.34819	-3.23087	-4.46158
644.53125	-4.34205	2.18765	-4.18463	-4.32479
648.43750	-2.73101	0.72141	-3.90496	-0.68646
652.34375	-2.73172	2.12663	-2.22857	1.19839
656.25000	-6.35874	0.49366	-0.99318	-2.92273
660.15625	-4.34475	0.01199	-2.92322	-3.11883
664.06250	-2.33082	0.52371	-3.83038	-1.81995
667.96875	2.10071	2.02505	-3.44037	0.03878
671.87500	3.71168	2.24541	-4.55682	4.27471
675.78125	1.29339	0.07859	-3.01012	8.33505
679.68750	4.11310	-0.51530	-1.80625	12.31746
683.59375	7.33575	-0.75417	-1.07025	11.17622
687.50000	4.51437	-1.11803	0.63918	8.03525
691.40625	6.52827	-0.44940	2.78932	6.54180
695.31250	9.34797	1.69699	5.06030	7.08062
699.21875	8.13839	0.57469	4.95730	7.19276
703.12500	6.12293	-0.43562	4.09694	5.24793
707.03125	5.71917	2.16969	2.69145	7.18761
710.93750	7.73307	2.09821	0.87000	6.39170
714.84375	8.53823	1.31983	1.45962	4.19452
718.75000	3.70225	-1.95317	2.86369	0.84556
722.65625	0.88098	-9.80071	-0.01215	1.34518
726.56250	9.34175	-9.06540	1.10396	13.21101
730.46875	10.95264	2.22995	-0.64649	5.84213
734.37500	6.92254	7.81100	-5.35127	-1.53091
738.28125	11.75691	6.00601	-3.25010	4.95847
742.18750	20.21767	8.22243	-6.54595	7.12082
746.09375	23.84330	9.90099	-8.55587	9.18269
750.00000	25.45423	9.21042	-4.98559	14.96958
753.90625	21.42416	6.66411	-0.86750	18.51433
757.81250	21.82630	8.33726	1.92871	18.32083
761.71875	27.06355	8.10488	1.82337	21.76585
765.62500	25.04803	6.68722	-1.30687	21.69581
769.53125	22.62958	8.53115	-2.88212	17.65944
773.43750	21.82289	9.96567	-1.61067	15.57740
777.34375	21.41905	10.28044	0.26948	16.35221
781.25000	18.59767	5.96647	-0.28693	19.08658
785.15625	17.79095	0.63384	-0.92184	18.11236
789.06250	18.19293	-1.01938	-2.39647	12.70565
792.96875	14.96854	-2.02964	-2.34381	11.01595
796.87500	13.35586	0.15212	-0.97384	15.97447
800.78125	13.75781	1.80976	-1.59248	15.59983
804.68750	12.54809	0.60534	-1.75910	9.71326
808.59375	9.32381	-0.10303	0.49889	8.97527
812.50000	10.12885	2.10489	2.97541	12.08578
816.40625	9.72508	-0.28811	1.01982	9.53162
820.31250	6.50083	-4.76512	-2.09145	8.48250
824.21875	8.91750	-1.85880	-0.99789	15.83807
828.12500	12.54307	-0.40686	-1.04779	17.75246
832.03125	12.54223	-1.00286	-2.57812	15.56610
835.93750	10.12374	0.49908	-1.40480	12.73749
839.84375	13.34630	1.95885	-0.17003	10.22198
843.75000	15.36005	0.09215	-0.65155	8.27954
847.65625	18.98546	0.08138	-0.99358	3.58109
851.56250	20.99924	0.73259	-0.87405	0.10463
855.46875	17.37195	0.90252	-0.18889	1.41650
859.37500	14.14766	0.22630	0.14453	4.69810
863.28125	9.31162	0.01276	0.48970	6.77902
867.18750	4.87846	-0.65460	1.86892	7.56143
871.09375	0.44529	-1.55606	2.44426	8.01236
875.00000	-0.76441	-1.89851	0.63818	8.20690
878.90625	-3.18295	-3.11058	0.46600	5.20522
882.81250	-6.00440	-4.11006	2.02453	5.69311
886.71875	-5.60249	-5.03409	2.30074	4.71286
890.62500	-7.61810	-5.05107	-0.68353	3.43161
894.53125	-9.23072	-8.30732	-2.14766	1.68133
898.43750	-3.18767	-8.45208	-2.83045	1.26471
902.34375	1.64657	-4.21550	-2.89531	3.40731
906.25000	4.46615	-1.37302	-2.51926	1.07976
910.15625	-1.17572	-2.50237	-3.40996	-2.75539
914.06250	-1.98245	-1.80448	-1.29422	-1.23561
917.96875	1.24010	-1.29048	-0.07277	0.93303
921.87500	0.43330	-1.51008	-0.56825	1.12740
925.78125	3.25298	0.25461	-1.30931	-0.92026
929.68750	0.83446	-1.56836	-0.90173	-2.08417
933.59375	-2.38992	-2.53757	-0.83212	-0.54197
937.50000	-4.00251	-1.77002	-4.15352	-6.26750
941.40625	-5.21217	-0.82616	-5.49807	-4.77593
945.31250	-6.01889	-1.76310	-3.73998	-1.28745
949.21875	-7.63152	-5.47523	-3.63715	-2.20738
953.12500	-8.43823	-4.86705	-2.77710	-3.08499
957.03125	-4.40980	-2.23358	-0.16310	-3.41495
960.93750	0.02157	-1.35550	-1.16243	-1.41217
964.84375	1.22948	-0.17342	-0.94648	-3.24620
968.75000	2.03441	0.68269	-0.73907	-3.52549
972.65625	-2.39877	4.09871	-1.89285	-2.01245
976.56250	-4.81729	6.99057	-1.39745	-3.00105
980.46875	-0.78886	8.18680	-2.87064	-3.69270
984.37500	1.22487	8.65043	-4.21015	-3.57431
988.28125	0.41805	6.02394	-3.89387	-5.63334
992.18750	1.62595	4.61420	-2.21002	-6.58883
996.09375	4.04264	6.15985	1.00845	-5.02633
1000.00000	4.44462	6.85120	0.66137	-6.38288
1003.90625	4.04085	2.95133	0.97521	-4.28859
1007.81250	3.23414	1.68195	1.40218	-1.27653
1011.71875	1.62152	2.31798	1.50725	-5.12636
1015.62500	-2.00568	-0.29290	4.23432	-7.07291
1019.53125	-4.02118	1.49032	4.60047	-4.65017
1023.43750	-4.42498	0.86235	1.71706	-0.95826
1027.34375	-1.20240	0.14543	-0.56632	3.50310
1031.25000	3.22896	1.23670	-2.02482	1.97554
1035.15625	5.24268	1.73490	-0.58431	4.55943
1039.06250	7.65927	1.77704	1.29303	5.93484
1042.96875	8.06130	0.77336	0.83716	1.98154
1046.87500	8.86624	1.81581	0.67577	3.87079
1050.78125	8.46242	2.17345	3.71171	7.06390
1054.68750	4.02924	2.16982	5.08688	6.50165
1058.59375	2.81949	1.26713	3.63453	5.62592
1062.50000	9.26543	2.68629	2.36652	4.52802
1066.40625	9.66741	2.66248	2.30711	1.43918
1070.31250	5.23430	2.70794	0.58297	-0.73718
1074.21875	9.26262	3.02580	-0.51086	1.17265
1078.12500	9.66453	3.99220	-0.05832	3.68841
1082.03125	10.87233	4.99178	0.26303	6.67854
1085.93750	10.06548	3.89349	1.50707	7.08745
1089.84375	8.85566	2.03151	-0.93671	5.97445
1093.75000	12.07804	3.49601	-0.85833	7.10883
1097.65625	9.25649	1.89584	-1.72530	6.96996
1101.56250	8.85248	0.03662	-1.84496	10.04128
1105.46875	9.25438	-0.93852	1.09595	6.30971
1109.37500	9.65620	0.14133	0.35940	2.62301
1113.28125	6.02877	2.77309	-2.00066	2.95757
1117.18750	-2.43387	0.62064	-1.76837	0.15839
1121.09375	-0.82322	-0.49188	0.47651	-2.30938
1125.00000	-2.43605	-2.96926	-0.13507	-5.32653
1128.90625	-1.22827	-3.36824	-0.76899	-4.74449
1132.81250	-1.22927	-1.56214	-0.71604	-4.42862
1136.71875	-5.66249	-2.65211	-1.39539	-5.46514
1140.62500	-7.67814	-3.84321	-2.44067	-8.21538
1144.53125	-1.23227	-2.19795	-6.21494	-3.64665
1148.43750	4.81064	-1.24663	-3.92066	5.63234
1152.34375	-7.68124	-5.48252	1.78497	-0.13883
1156.25000	-23.79944	-6.30963	3.02033	-13.12468
1160.15625	-35.88841	-6.79136	0.68732	-23.79723
1164.06250	-37.50111	-9.10023	1.79487	-26.93083
1167.96875	-38.30794	-10.41941	6.21411	-31.51921
1171.87500	-39.11485	-11.40788	7.91820	-32.92444
1175.78125	-41.13047	-13.17182	9.06188	-27.25254
1179.68750	-50.80174	-15.37743	7.44521	-33.74644
1183.59375	-52.41446	-14.40751	3.34601	-41.73759
1187.50000	-49.99780	-11.14496	1.42905	-43.66980
1191.40625	-47.17824	-9.67047	0.35575	-41.93989
1195.31250	-40.73230	-9.53870	-0.19379	-36.56594
1199.21875	-35.09221	-9.85515	-2.31147	-30.40995
1203.12500	-31.86979	-10.05966	-3.57472	-27.51971
1207.03125	-29.45319	-11.08075	-0.14505	-26.38597
1210.93750	-25.42491	-9.54052	2.86865	-19.12343
1214.84375	-24.21713	-9.11015	1.04069	-16.48553
1218.75000	-23.41230	-11.57740	-1.18154	-19.43171
1222.65625	-19.38400	-9.75461	-2.44558	-16.91749
1226.56250	-18.98203	-7.81051	0.68520	-14.72212
1230.46875	-20.59472	-8.20013	0.14354	-16.04717
1234.37500	-18.58101	-7.05134	-2.94947	-15.36176
1238.28125	-19.38785	-6.84171	-2.86303	-14.11063
1242.18750	-16.97122	-4.22246	-0.11488	-11.54542
1246.09375	-12.53993	-2.94688	1.09858	-9.48362
1250.00000	-14.95851	-5.65212	1.44544	-6.92034
1253.90625	-16.97412	-6.18373	2.34007	-8.21090
1257.81250	-13.75160	-2.09306	-0.50471	-10.41907
1261.71875	-4.88812	0.49503	-0.20716	-4.15366
1265.62500	-1.66565	-1.32553	2.30359	-0.59734
1269.53125	-3.68127	-2.70513	1.13132	-3.42497
1273.43750	-4.89103	-4.89688	-0.41769	-0.67200
1277.34375	-8.51832	-7.40262	-1.76097	2.52035
1281.25000	-7.71345	-5.67263	-1.91442	-1.19222
1285.15625	-3.28218	-2.54369	-0.93767	-7.00163
1289.06250	-5.29783	-1.77924	0.00521	-9.18496
1292.96875	-4.89591	-2.78945	0.86373	-3.21903
1296.87500	-4.49390	-1.41354	-0.18397	-1.48398
1300.78125	-5.70367	-0.96458	0.80910	-4.27619
1304.68750	-6.91346	-1.36313	3.06001	-1.29838
1308.59375	-8.92910	-2.47443	0.48286	-0.02188
1312.50000	-2.08022	-3.08700	-0.66705	-3.35839
1316.40625	1.54516	-2.25656	-2.62260	-3.09206
1320.31250	-1.27627	-2.70425	-4.52513	-4.54412
1324.21875	-1.68014	-3.82722	-3.02859	-6.85893
1328.12500	-2.48691	-2.37531	-2.67551	-5.34759
1332.03125	-2.48792	-2.56821	-2.59417	-4.71354
1335.93750	0.33159	-0.26035	0.59375	-3.51300
1339.84375	-0.07220	3.21411	2.23133	-2.80510
1343.75000	0.32983	5.37673	3.76445	-6.76214
1347.65625	-0.07391	6.17184	2.61653	-8.64009
1351.56250	-2.89534	4.00254	-2.90504	-10.10179
1355.46875	-1.68740	1.75496	-3.02577	-6.37235
1359.37500	-0.88233	2.28758	-0.27477	0.53569
1363.28125	0.72855	5.29754	0.47323	1.40787
1367.18750	-0.07810	3.82443	-1.77402	-5.06238
1371.09375	-2.89948	3.32598	-1.19870	-5.82019
1375.00000	-2.09433	4.99831	1.02433	-3.61091
1378.90625	1.12837	2.57761	0.44912	-5.00085
1382.81250	3.54515	1.17528	1.60464	-4.51288
1386.71875	2.73856	0.25137	1.47785	-1.86668
1390.62500	1.12614	-0.57133	0.91107	-1.53605
1394.53125	0.31947	2.61939	0.65571	-3.68919
1398.43750	-4.51649	2.47481	-0.83308	-6.12036
1402.34375	-8.94954	-0.94418	-0.89802	-5.58939
1406.25000	-9.75619	-2.13090	-0.92500	-3.88758
1410.15625	-4.51893	-0.03659	1.00476	-0.87284
1414.06250	-1.29633	0.25846	1.50863	-0.96475
1417.96875	-4.92361	-1.64498	-1.70220	-6.04871
1421.87500	-9.35669	-5.49092	-1.79486	-7.46603
1425.78125	-10.56640	-4.53203	0.28450	-6.69316
1429.68750	-9.35851	-0.31099	0.69202	-7.45402
1433.59375	-10.16532	-2.48892	-0.85010	-10.34411
1437.50000	-8.95747	-2.93013	-1.35096	-7.60808
1441.40625	-6.94373	-4.00087	-2.69555	-7.32530
1445.31250	-8.55631	-4.13190	-2.54925	-8.67189
1449.21875	-7.34843	0.21470	-3.65526	-8.78583
1453.12500	-4.93182	2.03170	-5.61576	-7.24585
1457.03125	-1.30634	4.66529	-1.39001	-5.15816
1460.93750	0.70736	3.12589	1.63989	-3.55830
1464.84375	-1.71122	-0.93013	0.24413	-1.36300
1468.75000	-3.72682	-0.87972	0.45153	-2.85104
1472.65625	-7.35410	-1.09003	0.50651	-2.94966
1476.56250	-8.56385	-2.22745	-0.20700	0.89682
1480.46875	-8.16191	-1.03121	1.14032	5.04028
1484.37500	-8.16283	1.85006	1.81546	1.53235
1488.28125	-6.14902	3.65586	0.11698	-5.36185
1492.18750	-6.55285	2.64906	-2.22852	-11.55541
1496.09375	-6.55366	2.18013	-1.02473	-6.36641
1500.00000	-4.94279	4.08026	-0.56598	-3.69357
1503.90625	-2.92900	4.61272	-2.66970	-6.03142
1507.81250	-2.12392	3.34332	-1.83982	-5.43698
1511.71875	-2.52772	-2.06455	-2.13766	-8.07808
1515.62500	-1.72271	-1.85486	-2.23117	-4.78671
1519.53125	-2.12643	1.54010	-1.86503	-4.37869
1523.43750	-0.91848	-0.69954	-1.52502	-7.53670
1527.34375	0.69234	-2.22236	-2.59961	-5.09009
1531.25000	-0.51734	-2.74277	-1.23762	-2.18538
1535.15625	-1.72702	-2.64750	-1.00591	-2.82489
1539.06250	-3.74256	-0.59062	-4.76958	-6.28460
1542.96875	-4.54930	0.82326	-5.22543	-7.01448
1546.87500	-4.55017	0.65695	-4.58095	-4.72218
1550.78125	-5.75984	-0.19412	-2.75373	-5.15533
1554.68750	-8.17830	-0.19776	-3.79617	-9.34387
1558.59375	-9.79085	-1.90624	-5.65148	-11.02530
1562.50000	-10.59752	-0.88990	-4.09897	-12.12303
1566.40625	-9.79248	-2.52540	-3.75541	-11.58539
1570.31250	-10.59914	-6.91211	-5.47960	-6.10598
1574.21875	-11.40579	-6.99707	-5.76763	-5.80781
1578.12500	-11.00370	-5.62772	-3.70336	-6.51526
1582.03125	-7.78108	-2.61344	-1.36744	-3.52493
1585.93750	-4.96142	-2.90584	-1.33214	-1.90701
1589.84375	-2.54467	-2.35017	0.25334	2.62120
1593.75000	-0.93378	-0.48268	-0.07130	2.54697
1597.65625	4.30339	3.15527	-0.93836	2.00538
1601.56250	7.52593	3.71364	1.76239	2.25637
1605.46875	5.51035	1.52980	1.88278	-0.26632
1609.37500	1.48009	-1.41964	0.34024	-3.54991
1613.28125	-4.56482	-4.42878	-2.01986	-2.81231
1617.18750	-8.59506	-2.95479	-1.38467	-3.59669
1621.09375	-5.77552	-1.64971	-1.55746	-6.87009
1625.00000	5.90848	-2.51528	-0.96036	3.40960
1628.90625	7.51920	0.30922	2.03210	2.78296
1632.81250	-4.97260	4.12995	0.07036	-14.62994
1636.71875	-17.06141	3.44294	-0.60903	-24.12780
1640.62500	-27.94139	-0.56865	-2.05724	-27.68376
1644.53125	-31.97166	-1.34088	-1.39929	-29.96474
1648.43750	-37.61359	-2.80712	-1.92557	-38.41454
1652.34375	-39.22626	-3.81951	-4.27856	-44.99140
1656.25000	-40.43587	-3.03486	-3.84906	-45.88922
1660.15625	-39.63090	-2.71070	-3.76455	-46.48835
1664.06250	-33.18486	-3.00492	-1.85119	-39.95148
1667.96875	-31.97698	-2.30943	-3.07299	-37.68992
1671.87500	-30.36614	-3.29788	-7.00999	-36.67745
1675.78125	-24.72603	-1.83827	-6.26920	-35.84052
1679.68750	-21.50341	-0.82041	-5.87125	-36.29028
1683.59375	-19.08666	0.14960	-6.74703	-31.38750
1687.50000	-15.86406	0.59175	-5.44057	-27.27557
1691.40625	-15.86487	-1.96303	-4.90219	-19.90450
1695.31250	-15.05986	-1.83110	-1.42239	-16.94806
1699.21875	-13.04607	-0.53577	-0.31669	-18.04473
1703.12500	-8.21183	-1.14316	-3.99757	-15.55733
1707.03125	-5.79512	-0.55237	-3.79137	-16.03512
1710.93750	-6.19890	-1.42960	-1.98642	-16.83100
1714.84375	-9.42322	-3.01376	-4.21738	-18.22229
1718.75000	-15.87098	-3.46625	-6.43967	-19.55655
1722.65625	-14.66304	-4.46391	-6.89792	-19.05682
1726.56250	-11.03756	-4.13154	-5.78184	-14.84662
1730.46875	-11.84424	-4.52108	-6.32358	-10.93337
1734.37500	-10.63631	-4.17809	-5.79024	-7.83017
1738.28125	-4.99621	-3.96841	-3.68921	-4.56425
1742.18750	-2.98242	-4.16956	-6.17923	-5.62534
1746.09375	1.04608	-2.08806	-7.78635	-3.16050
1750.00000	6.68620	-1.16686	-3.41031	3.02923
1753.90625	6.68535	-2.10139	-4.53031	4.55932
1757.81250	5.87863	-2.03994	-4.15174	5.17173
1761.71875	7.08658	0.14535	-1.83948	3.37859
1765.62500	11.11507	1.14529	-0.94050	4.92035
1769.53125	9.09961	1.78049	-0.09815	1.68986
1773.43750	3.05477	-0.00830	-3.25891	-4.82458
1777.34375	3.45674	-2.51399	-2.99055	-2.84104
1781.25000	5.06760	-3.20152	-2.33819	-0.50956
1785.15625	5.06672	-2.08729	0.65327	3.75444
1789.06250	5.87170	1.09477	3.20787	4.39188
1792.96875	1.03567	1.29336	-0.36585	-0.52115
1796.87500	-3.39749	-0.95709	-3.02520	-0.39772
1800.78125	-6.21893	-3.73167	-5.25550	-2.38392
1804.68750	-5.01113	-3.72728	-7.03385	-2.62943
1808.59375	-1.38567	-2.82389	-3.97001	-2.15866
1812.50000	-1.78957	-2.63061	-4.31399	-3.88326
1816.40625	-2.99931	-3.81485	-4.65780	-4.42268
1820.31250	-3.80615	-4.66543	-2.93388	-6.68041
1824.21875	1.02803	-1.75912	-1.84024	-1.33943
1828.12500	-2.59939	-3.93360	0.93039	2.18673
1832.03125	-16.30005	-6.54416	1.41469	-5.23772
1835.93750	-13.07762	-2.62467	0.17040	-6.85756
1839.84375	-7.43756	-3.98539	-4.63880	-5.34374
1843.75000	-5.82687	-4.64329	-6.32912	-5.27139
1847.65625	-2.20147	-2.23652	-3.44761	-0.29941
1851.56250	-2.20242	-4.00289	-3.73111	2.26834
1855.46875	-0.99459	-2.62413	-3.44880	2.77445
1859.37500	-3.01034	-1.28561	-1.90665	0.41508
1863.28125	-5.42899	-2.30503	-0.75565	-2.33927
1867.18750	-1.40085	-0.15178	-1.79406	-0.34814
1871.09375	2.22431	0.55852	-3.63631	-0.30015
1875.00000	5.84956	0.21615	-3.02490	0.29724
1878.90625	8.26601	-2.60751	-0.77954	1.32477
1882.81250	9.07069	-4.00985	-0.83276	0.60375
1886.71875	7.45773	-4.53083	-2.97417	-1.98839
1890.62500	7.45653	-5.35357	-3.54092	0.35665
1894.53125	13.90226	-4.17758	-3.39329	2.63553
1898.43750	17.52753	0.10997	-1.25564	1.81584
1902.34375	18.73512	2.33197	2.30580	1.13784
1906.25000	14.70470	-0.46652	1.87595	-0.38394
1910.15625	6.64502	-2.80459	0.58223	0.21317
1914.06250	1.00298	-6.13595	-0.92850	2.53882
1917.96875	-3.43030	-4.81598	-0.91586	0.27524
1921.87500	-5.44596	-2.61798	1.40907	-2.35088
1925.78125	-7.46162	-3.27081	0.26497	-0.77212
1929.68750	-5.85092	-3.07911	-0.53625	0.07867
1933.59375	-3.03141	-2.43658	0.33917	1.62095
1937.50000	0.19103	-1.66900	3.46464	2.74527
1941.40625	0.99595	-1.12807	5.34347	-1.00124
1945.31250	-2.63146	-0.85620	3.87803	-1.94492
1949.21875	0.18802	-0.53894	1.56319	0.76152
1953.12500	6.23101	-0.73661	0.81148	1.89860
1957.03125	6.63287	-1.32653	-0.20097	1.56868
1960.93750	5.82600	-4.47772	-2.40914	2.76565
1964.84375	11.46599	-3.69853	-0.17851	6.57276
1968.75000	13.07678	-1.23058	-0.77703	5.08474
1972.65625	10.65826	0.97677	-2.33373	4.58333
1976.56250	7.03101	2.25704	-1.03259	4.40064
1980.46875	1.79200	1.03575	-2.10288	2.50039
1984.37500	2.99992	0.69359	-0.21894	7.05114
1988.28125	1.79025	0.08179	-3.12621	6.20112
1992.18750	2.99817	1.08966	-3.45702	3.63410
1996.09375	4.60898	1.82952	-0.64147	2.37632
2000.00000	5.41392	2.11795	-2.19738	0.61707
2003.90625	7.83062	2.65041	-2.68939	5.53211
2007.81250	4.60626	-0.23067	-2.66541	7.73841
2011.71875	3.79952	-1.60922	-0.94863	6.30631
2015.62500	5.81328	-1.39956	1.37545	5.56862
2019.53125	4.60358	-0.82507	1.74155	3.15631
2023.43750	5.40854	1.36759	2.08145	2.01314
2027.34375	5.81059	1.05361	0.60390	2.44527
2031.25000	4.19792	-2.28724	-1.25763	4.14140
2035.15625	-0.63812	-3.80364	-0.62302	1.08450
2039.06250	-3.45949	-2.95550	-0.35744	-3.98685
2042.96875	-4.26624	-4.36205	-1.21631	-3.91066
2046.87500	-3.46127	-2.91658	-2.18360	-2.82708
2050.78125	-3.86511	-0.54413	-3.17699	-3.26011
2054.68750	-5.47769	-2.56237	-5.83114	-1.40459
2058.59375	0.56544	-3.06197	-6.47766	6.98739
2062.50000	2.17630	-0.03093	-6.53693	5.88980
2066.40625	0.96671	3.16877	-4.58165	0.38359
2070.31250	0.96589	1.19977	-1.87360	0.22219
2074.21875	1.36799	-0.89986	-0.95294	-2.29992
2078.12500	7.41115	1.27546	-2.51505	-3.00726
2082.03125	6.60451	-0.14243	-1.79083	0.38620
2085.93750	4.58905	-2.85236	-0.54682	2.00431
2089.84375	5.79703	-3.10252	-1.78187	3.30927
2093.75000	9.01966	-2.84669	-1.30063	5.65285
2097.65625	8.61589	-0.41756	-1.76481	1.88802
2101.56250	7.00340	-0.66492	-3.49633	-3.50182
2105.46875	7.40548	-2.44575	-4.58475	-1.59199
2109.37500	7.00181	-1.36577	-3.30679	-0.44307
2113.28125	7.00101	-1.15136	-2.84634	-0.51106
2117.18750	2.97093	-1.69193	-4.62875	-0.08637
2121.09375	0.95551	-2.40142	-3.99561	-2.95666
2125.00000	0.14879	-2.46105	-3.39851	-4.76477
2128.90625	-1.46373	-2.05409	-4.03250	-4.98830
2132.81250	2.16180	-1.05380	-5.18843	-5.47804
2136.71875	-0.25655	-0.12895	-6.67370	-8.93180
2140.62500	-3.07792	-0.51409	-4.89854	-7.24948
2144.53125	-1.46700	-3.30090	-4.24062	-5.09804
2148.43750	-0.66194	-4.76707	-5.97567	-5.48904
2152.34375	2.15779	-1.75010	-4.70229	-1.58954
2156.25000	0.94827	-2.17421	-2.66103	1.54211
2160.15625	0.54455	-1.84998	-0.96475	6.18128
2164.06250	3.76724	2.28811	-0.66314	5.46560
2167.96875	5.37817	0.96898	-3.89958	4.50395
2171.87500	4.57155	-1.22814	-1.79263	5.91949
2175.78125	2.95908	1.84314	0.96279	3.93607
2179.68750	4.16699	4.87572	-0.65392	1.47175
2183.59375	4.56911	3.42813	-2.33555	-6.51921
2187.50000	4.16533	1.85561	-4.65549	-10.06290
2191.40625	0.94112	0.91261	-2.90826	-7.12392
2195.31250	-4.29776	0.64156	0.57145	-1.74982
2199.21875	1.74543	-1.68941	1.27418	1.58591
2203.12500	6.57980	-1.89380	2.83138	2.05880
2207.03125	4.56438	0.71164	4.64929	5.61042
2210.93750	3.35480	-0.97143	5.24541	6.42634
2214.84375	0.13056	-1.34684	4.62618	4.22928
2218.75000	2.14445	2.23005	2.40380	4.90978
2222.65625	2.14368	-1.18514	-0.87499	2.18608
2226.56250	2.54584	-3.27025	-0.96775	-1.25924
2230.46875	6.97730	-2.45100	1.31105	0.63944
2234.37500	1.33544	-5.33141	1.03847	-0.28658
2238.28125	0.52882	-4.31581	1.52782	0.96482
2242.18750	3.34853	-4.51690	3.06712	1.11257
2246.09375	5.36238	-5.25577	1.86298	0.35407
2250.00000	0.92938	-3.12576	2.20974	2.11175
2253.90625	4.95786	-0.03092	2.29848	3.23902
2257.81250	5.35995	1.23939	2.67710	-0.58064
2261.71875	-2.29652	-1.41049	1.76582	-1.97064
2265.62500	-0.68562	-2.82802	0.65019	1.98890
2269.53125	-1.08931	-5.01328	1.08959	0.77321
2273.43750	5.35665	-5.19035	0.74936	0.70599
2277.34375	7.37045	-3.66672	0.21188	1.88394
2281.25000	-1.89775	-3.95127	0.46127	0.18629
2285.15625	2.93665	-5.65749	1.84102	-1.19064
2289.06250	4.54754	-8.92227	3.58976	-0.55311
2292.96875	3.74093	-9.93241	2.43359	-2.24259
2296.87500	6.56066	-8.15350	0.98300	2.31326
2300.78125	6.96286	-3.67523	0.76727	7.98293
2304.68750	7.76797	-0.44727	-3.02577	2.49951
2308.59375	4.94674	3.27672	-5.20003	-2.67052
2312.50000	5.34888	4.67888	-3.12642	-5.20075
2316.40625	6.15403	3.49471	-1.45561	-6.94879
2320.31250	8.16790	3.45005	-1.74643	-5.58007
2324.21875	13.40520	1.52132	-1.05574	-4.67114
2328.12500	9.37506	1.76455	-0.70269	0.46687
2332.03125	6.15086	3.58629	-3.03891	3.11590
2335.93750	5.34411	-0.14976	-3.07449	0.69042
2339.84375	5.74626	2.11594	-3.45144	5.02493
2343.75000	8.56596	4.27863	-4.33593	5.90327
2347.65625	10.17692	3.46213	-3.46908	4.42856
2351.56250	9.37018	4.51634	-1.73790	0.95239
2355.46875	7.75766	1.86588	-1.85852	-1.36193
2359.37500	7.35388	1.59269	-3.53974	3.12869
2363.28125	5.74135	2.99091	-4.80632	4.80695
2367.18750	10.97867	1.11487	-4.63588	2.76908
2371.09375	9.36613	1.42234	-3.25463	1.20568
2375.00000	2.11255	1.48289	0.17728	0.59464
2378.90625	4.93225	-1.34068	0.81097	-0.79509
2382.81250	10.16949	-0.72833	0.35483	0.49895
2386.71875	12.18329	0.76539	0.63105	2.33938
2390.62500	12.18244	2.76320	-0.33864	2.67022
2394.53125	13.79326	3.53631	-1.39982	4.14357
2398.43750	10.97190	2.98879	-2.88856	1.71255
2402.34375	8.15057	1.58453	-1.74463	-0.17381
2406.25000	8.95556	-0.40802	-0.15981	4.34875
2410.15625	5.32832	-2.34306	0.15824	6.15490
2414.06250	3.71583	-3.65975	1.06503	6.46616
2417.96875	4.52090	-3.54852	1.88352	11.05269
2421.87500	3.71426	-2.96209	1.79089	15.27663
2425.78125	8.54862	-4.01784	5.48203	14.03507
2429.68750	12.57716	-4.63188	5.08370	10.85686
2433.59375	6.53249	-3.18333	1.92982	10.38468
2437.50000	1.29366	-3.22154	2.63774	10.30049
2441.40625	5.32220	-3.48637	4.11362	10.58347
2445.31250	5.72437	-1.19968	2.24527	9.64010
2449.21875	2.90312	1.53522	2.34808	3.07953
2453.12500	3.30524	0.12879	3.20812	-1.82702
2457.03125	2.09562	-1.66983	1.38995	-5.38008
2460.93750	7.33291	0.41705	-0.01232	-4.58579
2464.84375	2.89992	1.19626	1.81539	-1.18140
2468.75000	-5.56242	1.24669	2.02271	-1.86330
2472.65625	-5.16030	0.63353	0.86896	-0.75284
2476.56250	-2.74347	-2.11557	0.15546	1.07932
2480.46875	-0.32668	-0.91923	-0.91483	-4.44728
2484.37500	-3.14803	0.75331	-1.44849	-5.94026
2488.28125	-3.95465	1.35037	0.88234	-3.16378
2492.18750	-0.32902	1.14948	3.77497	0.31335
2496.09375	2.49072	0.27771	3.36708	3.08505
2500.00000	2.49000	0.16327	1.40825	1.32598
2503.90625	1.28041	-0.51300	1.31924	-0.20560
2507.81250	2.89139	2.64994	3.35794	0.38930
2511.71875	1.68182	0.86859	1.04548	-1.04252
2515.62500	0.87515	-0.93629	-1.46551	-2.58576
2519.53125	4.90363	2.45882	1.72119	-4.19197
2523.43750	3.29101	1.02518	0.85236	-7.34955
2527.34375	3.69311	-0.09450	-2.23684	-6.91720
2531.25000	6.10991	0.99694	-3.29247	-5.62381
2535.15625	4.49741	1.89824	-2.65782	-7.87466
2539.06250	3.69082	2.34354	-0.37755	-9.31942
2542.96875	2.48123	1.74299	0.77828	-9.24306
2546.87500	-2.35468	0.36798	0.21395	-8.56219
2550.78125	-3.96718	-0.48292	0.02651	-2.95120
2554.68750	-2.35616	-0.48639	0.59584	-3.51312
2558.59375	-4.37153	-1.38881	-0.45363	-7.20894
2562.50000	-3.96937	-2.38705	-1.31873	-4.27709
2566.40625	0.05920	-0.79897	0.23362	-0.11278
2570.31250	2.87907	-3.17086	0.92705	0.53176
2574.21875	4.89303	-3.65874	2.65366	2.03898
2578.12500	4.89235	0.12838	3.50911	6.97289
2582.03125	6.10049	-0.08065	4.23336	8.35178
2585.93750	4.48806	-0.37287	5.47738	7.14956
2589.84375	4.48737	0.98878	4.64530	8.05174
2593.75000	5.69546	2.45353	1.50017	9.18670
2597.65625	5.29178	2.06229	-0.17278	6.63081
2601.56250	6.49988	2.21788	0.51334	8.89679
2605.46875	6.09627	1.64591	1.84255	13.22432
2609.37500	4.08083	1.11425	1.50884	11.14979
2613.28125	3.67721	0.52284	1.16341	9.87309
2617.18750	0.85599	-2.03236	1.79859	8.28318
2621.09375	2.86994	-1.93587	0.82004	10.24813
2625.00000	2.86926	-1.59253	-0.59750	8.44022
2628.90625	2.06268	2.84384	-1.63435	8.21683
2632.81250	1.65909	4.24716	-1.58141	7.32438
2636.71875	-0.75921	1.14279	0.15676	3.46788
2640.62500	0.04594	-0.85396	-0.48556	0.31526
2644.53125	-1.96942	-2.02907	-1.43923	-0.75659
2648.43750	-0.35843	0.13119	0.45215	0.46424
2652.34375	3.67009	-0.47813	2.53144	2.75220
2656.25000	6.89279	-0.09632	4.57276	11.92795
2660.15625	8.90665	7.07780	5.06026	10.92618
2664.06250	5.68237	11.61885	3.34724	-0.66848
2667.96875	2.05514	7.47931	2.12548	-4.45063
2671.87500	-2.37788	5.28219	0.60612	-2.22915
2675.78125	-6.00509	5.13015	2.15279	-0.98908
2679.68750	-5.20002	4.53641	3.35668	1.38193
2683.59375	-8.02128	4.70070	-0.33952	-1.37081
2687.50000	-7.21622	5.14289	2.17571	-0.88507
2691.40625	-7.21700	5.40875	3.92298	0.84513
2695.31250	-7.62066	5.94362	1.35883	-0.63043
2699.21875	-3.18925	4.41854	0.85290	-3.33858
2703.12500	-1.98124	1.39369	0.79843	-0.85089
2707.03125	-3.99672	1.17859	1.40764	-1.32849
2710.93750	-3.59463	1.51016	0.39206	-2.12425
2714.84375	3.25433	1.53776	2.99632	7.76669
2718.75000	4.86525	2.69715	4.80336	9.25305
2722.65625	3.65558	4.11714	2.33049	3.30603
2726.56250	0.43122	2.43497	1.83492	-1.75103
2730.46875	-2.39020	2.04550	-0.31854	-3.07578
2734.37500	-2.39110	1.58269	-2.60568	-1.58417
2738.28125	0.02556	0.18080	0.30125	2.89072
2742.18750	2.84525	1.18855	1.84059	6.26203
2746.09375	2.03848	0.85257	2.65114	3.08610
2750.00000	0.82889	0.56499	2.59500	0.41162
2753.90625	1.23095	2.45110	0.66920	-2.08741
2757.81250	-0.38157	1.30381	0.24196	-4.29523
2761.71875	-1.18826	-0.54012	0.53952	-0.44705
2765.62500	-0.38328	1.26574	1.84152	3.91542
2769.53125	2.43636	3.51272	2.68382	4.71446
2773.43750	4.45017	1.32101	3.14941	3.84131
2777.34375	4.04640	-1.18463	4.62663	3.81055
2781.25000	2.83686	0.94846	5.27900	4.53050
2785.15625	-2.80499	0.04824	5.04699	3.55661
2789.06250	-6.43210	-2.00774	2.76635	1.37374
2792.96875	-6.43289	-3.01784	2.41609	-0.71859
2796.87500	-7.23959	-2.85058	3.38312	1.41967
2800.78125	-2.00228	-0.38692	5.18205	4.67174
2804.68750	3.63799	5.25864	3.80661	3.21770
2808.59375	0.41374	5.75928	3.24402	4.49457
2812.50000	-2.81053	2.72924	4.10881	3.97893
2816.40625	-0.39373	3.55978	5.37665	3.43973
2820.31250	-1.60335	1.90350	5.48879	1.98802
2824.21875	-2.41006	0.37771	4.56779	3.29997
2828.12500	0.81251	1.42684	5.72670	4.00581
2832.03125	-0.39715	-0.37769	5.40507	-0.19491
2835.93750	-4.42724	-0.89020	4.56371	1.00617
2839.84375	-9.26321	-0.23612	4.18679	2.52034
2843.75000	-11.68149	-2.50561	4.91406	2.59297
2847.65625	-8.45883	-2.11333	6.98965	3.93893
2851.56250	-7.25077	-2.67076	7.10913	5.29814
2855.46875	-8.05735	-6.52996	6.98846	4.59574
2859.37500	-6.84932	-5.19137	6.11315	3.44554
2863.28125	-3.22378	-0.97251	7.26410	7.54149
2867.18750	1.20767	1.18080	7.03163	9.13013
2871.09375	0.80397	3.10009	4.78646	7.16391
2875.00000	0.40021	3.96659	4.18907	6.55294
2878.90625	-2.42110	0.33719	3.21100	3.95453
2882.81250	-4.43657	-1.06504	3.96370	1.21943
2886.71875	-4.84039	0.02583	2.62825	-1.77511
2890.62500	-2.82659	-0.39392	-0.75896	-1.04122
2894.53125	7.64881	0.78221	-3.83479	2.44703
2898.43750	14.90076	1.84644	-2.10006	4.04543
2902.34375	8.05015	-0.36359	5.49075	1.75629
2906.25000	2.40832	-1.95316	7.07556	-5.00319
2910.15625	7.24270	1.75294	4.97599	-4.40565
2914.06250	4.82439	3.25688	5.07696	-2.88539
2917.96875	-2.02621	1.75643	2.67208	-1.92506
2921.87500	-1.62399	1.13412	2.98236	2.29908
2925.78125	-2.43057	2.49603	3.85300	2.26651
2929.68750	-2.43125	2.68789	3.05173	0.70019
2933.59375	-1.62612	2.12184	3.12133	0.22825
2937.50000	-4.85037	1.27783	2.62049	2.15883
2941.40625	-3.64235	1.01307	2.88762	5.26261
2945.31250	-1.62843	2.09100	4.24275	5.52815
2949.21875	-1.22617	5.63178	2.73380	2.59412
2953.12500	-0.42096	6.24009	4.39975	3.32882
2957.03125	-1.63040	2.82983	4.99917	7.43160
2960.93750	-2.03401	2.90225	2.38813	5.80857
2964.84375	-3.64637	1.66694	1.79832	3.57214
2968.75000	-3.24413	-0.29716	4.42331	2.48753
2972.65625	-1.63301	1.91023	5.28423	2.38954
2976.56250	-0.42486	3.99645	2.55622	3.01318
2980.46875	0.78330	5.99874	1.48596	3.93381
2984.37500	-1.23198	4.04504	2.96702	3.64983
2988.28125	-4.05318	2.22459	2.88034	-1.22910
2992.18750	-7.27729	1.62090	1.74371	-3.39277
2996.09375	-5.66620	0.34625	2.94757	-1.82969
