 	TP9	AF7	AF8	TP10	
-1000.00000	-43.61183	-2.38573	-3.18079	-55.00872
-996.09375	-41.99950	-4.58068	-3.53551	-50.55390
-992.18750	-34.34325	-3.52036	-0.96280	-45.43836
-988.28125	-29.91038	-2.63406	0.43308	-43.25862
-984.37500	-28.29805	-4.85743	-1.21707	-44.62904
-980.46875	-22.65638	-2.52927	-1.29925	-45.16705
-976.56250	-16.20889	-0.22607	0.43484	-41.61128
-972.65625	-18.62591	-1.01077	-0.06705	-41.13054
-968.75000	-21.84877	-1.68793	0.14615	-41.00868
-964.84375	-14.19250	-4.04849	4.00581	-36.56469
-960.93750	-12.98310	-4.68156	5.42076	-36.53973
-957.03125	-16.20595	-4.35069	4.38840	-38.69047
-953.12500	-13.38484	-3.75737	2.82874	-37.60803
-949.21875	-12.98127	-5.16876	0.26904	-33.93177
-945.31250	-13.78657	-6.44140	-2.43707	-32.95844
-941.40625	-15.39768	-3.60137	-1.95574	-33.56238
-937.50000	-16.60588	-1.23809	-0.13485	-30.91442
-933.59375	-12.97884	1.53495	0.87292	-27.61592
-929.68750	-10.96353	0.21706	-0.40979	-25.65064
-925.78125	-9.35120	-0.75476	-3.21981	-26.15445
-921.87500	-6.53006	0.31138	-4.48844	-25.35957
-917.96875	-3.70883	-1.36193	-3.86551	-23.52401
-914.06250	-1.29063	-2.05789	-1.90652	-18.40531
-910.15625	-1.69286	-1.24775	-1.08732	-15.35573
-906.25000	-2.09515	0.11696	-1.96938	-16.15183
-902.34375	-1.28866	1.82095	-1.77190	-17.17262
-898.43750	-0.88507	1.32439	-0.75754	-18.93990
-894.53125	-4.91373	0.37175	-0.67530	-17.63066
-890.62500	-7.33071	2.52130	-0.96056	-17.95143
-886.71875	-8.13592	3.02190	-0.70145	-16.24586
-882.81250	-11.76168	-0.68219	-1.05685	-13.83967
-878.90625	-14.58157	-2.04088	-0.07595	-18.37465
-875.00000	-18.61025	-3.66731	2.14832	-22.06853
-871.09375	-15.78912	-6.20772	3.19111	-19.33194
-867.18750	-9.74454	-7.75605	2.19438	-17.16740
-863.28125	-8.53512	-3.16678	1.68805	-14.96027
-859.37500	-4.10223	1.43925	1.00267	-12.16102
-855.46875	-0.47516	2.74825	-1.09110	-14.39201
-851.56250	4.36064	3.99075	-0.72268	-14.65761
-847.65625	7.98767	3.23891	-1.34204	-18.91325
-843.75000	7.98840	3.63592	-4.01172	-19.32690
-839.84375	8.79501	4.11232	-2.75727	-19.24017
-835.93750	9.60153	3.50196	-3.54385	-20.38926
-832.03125	9.60221	1.68559	-3.84025	-14.80426
-828.12500	11.61755	4.17269	-2.44826	-13.42232
-824.21875	12.42404	8.84781	-0.42615	-13.64490
-820.31250	10.40996	5.98135	-0.87659	-13.82900
-816.40625	9.60460	2.62404	-3.19448	-15.88618
-812.50000	3.15814	2.18544	-1.73178	-14.93467
-808.59375	-0.46777	0.28058	0.08187	-6.33368
-804.68750	-0.06445	0.78449	0.76046	-4.36335
-800.78125	-1.67570	0.19971	-1.41131	-10.43781
-796.87500	-0.46647	0.92204	-1.65367	-10.15238
-792.96875	-2.48075	3.07078	0.76549	-7.39036
-789.06250	-2.48028	2.03578	1.00795	-7.71639
-785.15625	-2.07687	1.20423	1.96621	-8.40450
-781.25000	-2.88224	0.47011	0.87955	-11.88958
-777.34375	-0.06125	-0.79627	-0.12868	-12.05328
-773.43750	3.16269	-0.09242	-2.79704	-11.50874
-769.53125	10.81888	2.18248	-4.91064	-9.91053
-765.62500	14.04279	2.85409	-1.64400	-5.21860
-761.71875	9.20806	-0.05437	2.37241	-8.92053
-757.81250	6.38804	-2.12553	3.79984	-12.72717
-753.90625	3.97090	-2.87303	4.50215	-11.57396
-750.00000	5.98600	-0.89410	2.46960	-8.88323
-746.09375	7.19524	-1.51962	1.61431	-8.50456
-742.18750	6.38985	-7.01212	2.66673	-6.77188
-738.28125	7.59916	-9.10718	3.28437	-6.13277
-734.37500	5.18211	-6.88382	0.09812	-10.40497
-730.46875	3.57099	-6.79434	0.58206	-10.67443
-726.56250	3.57160	-4.66533	0.05555	-12.21716
-722.65625	3.57221	-3.07472	-3.47315	-11.08783
-718.75000	5.18449	-1.59172	-4.09049	-10.80835
-714.84375	5.58803	3.58932	-3.51915	-10.01587
-710.93750	8.40911	4.62529	-2.92069	-10.44534
-707.03125	6.79797	1.87674	-4.30717	-13.93716
-703.12500	-1.26013	-1.13416	-5.16631	-13.40935
-699.21875	-1.25954	-2.54335	-2.20497	-12.65485
-695.31250	3.57630	-2.07659	-0.30595	-11.21211
-691.40625	1.15934	-1.69324	-1.99732	-10.60960
-687.50000	-1.25762	-3.65369	-1.40191	-14.46775
-683.59375	-0.04814	-3.20330	-0.39621	-15.75293
-679.68750	-1.65917	-2.28845	-1.93528	-14.09316
-675.78125	-3.27030	-0.51083	-2.75302	-12.38199
-671.87500	-0.85203	0.43769	-1.08279	-11.16363
-667.96875	-1.25432	-2.32137	-2.91570	-13.80638
-664.06250	-0.04482	-2.83427	-5.27889	-11.67372
-660.15625	0.35901	-2.43558	-7.30806	-11.09801
-656.25000	-2.05756	-4.60619	-5.21851	-13.92927
-652.34375	-2.86229	-6.31030	-4.61136	-16.93865
-648.43750	-0.44344	-3.79911	-5.62694	-16.78374
-644.53125	2.78133	-0.42905	-4.09871	-14.06422
-640.62500	4.39456	0.24181	-4.62055	-13.34098
-636.71875	4.79896	-0.25888	-6.08973	-11.82364
-632.81250	3.18880	-3.00181	-5.33271	-13.82738
-628.90625	2.78739	-3.25497	-4.70317	-12.91930
-625.00000	2.38602	-2.83746	-3.30241	-12.04650
-621.09375	1.98452	-3.11768	-1.92891	-15.58958
-617.18750	1.18006	-2.77832	-2.54520	-12.91957
-613.28125	1.98725	-3.33839	-4.86074	-10.69507
-609.37500	-0.83197	-0.28892	-5.38541	-10.27157
-605.46875	-3.24835	0.01369	-4.50179	-12.47350
-601.56250	-2.44130	-2.43783	-4.06575	-14.62633
-597.65625	-4.05182	-3.29783	-3.04488	-14.80367
-593.75000	-4.05071	-3.69495	-3.59994	-10.36146
-589.84375	-2.03506	-2.55978	-4.04993	-6.01687
-585.93750	-2.03420	-4.77011	-4.47338	-8.89809
-582.03125	-1.22759	-3.75983	-5.38709	-8.44013
-578.12500	2.39950	-0.60618	-6.37743	-8.21141
-574.21875	2.40013	-2.46100	-5.17750	-7.98999
-570.31250	5.22122	-1.20647	-1.50499	-5.79259
-566.40625	6.43061	0.13596	-1.60612	-10.18370
-562.50000	-0.82159	-1.44039	-1.45850	-13.95730
-558.59375	-3.64158	-2.35626	-0.05009	-12.88953
-554.68750	-3.64110	-2.45747	-1.93892	-12.44388
-550.78125	-6.86406	-0.66416	-3.39497	-14.83259
-546.87500	-7.66947	3.44848	-1.94528	-16.73139
-542.96875	-4.84844	4.52295	-1.94829	-14.65992
-539.06250	-3.63921	-0.08332	-2.99814	-16.75313
-535.15625	-3.23589	-0.86382	-5.16670	-17.67836
-531.25000	-5.25011	-0.53288	-6.49916	-16.61255
-527.34375	-4.44386	-2.49025	-5.08948	-13.22705
-523.43750	-0.81707	-2.79151	-4.03430	-9.74393
-519.53125	-0.41372	-6.27545	-3.13100	-10.13505
-515.62500	4.01888	-3.72386	-1.56402	-7.57587
-511.71875	-0.41290	-2.83031	0.05906	-8.30783
-507.81250	-2.83007	-4.38584	3.46524	-3.29400
-503.90625	2.81133	-2.83280	-0.05909	-1.22540
-500.00000	10.46741	-2.39445	-4.87792	-3.51484
-496.09375	16.51174	-0.56050	-2.41242	2.55178
-492.18750	20.54140	0.09650	-2.25764	4.04095
-488.28125	24.16818	0.57951	-1.66795	7.42954
-484.37500	24.97441	2.78800	-0.09497	12.90895
-480.46875	26.98945	1.08646	-0.98340	13.57975
-476.56250	27.79569	0.16596	-2.07015	12.30039
-472.65625	22.55796	3.41023	-2.57230	10.36357
-468.75000	22.15545	3.94147	-1.55357	12.90307
-464.84375	19.73823	-0.43402	-0.11183	12.10897
-460.93750	19.33564	-3.08211	0.09400	11.32807
-457.03125	23.36534	-2.34860	0.27011	14.81837
-453.12500	24.97738	-0.14393	-0.88700	13.88606
-449.21875	24.57486	1.26489	1.79110	11.92124
-445.31250	21.35197	1.20067	4.32278	10.87995
-441.40625	19.33766	0.41409	1.17742	10.67898
-437.50000	22.15856	1.16527	2.19214	6.47712
-433.59375	20.54714	1.52033	2.39368	5.34336
-429.68750	18.12993	1.00796	2.72239	4.89089
-425.78125	14.90683	0.03574	4.34432	2.77534
-421.87500	13.69838	0.29555	3.07538	2.36140
-417.96875	12.08693	-0.97523	-1.13722	-2.24999
-414.06250	10.47551	0.74599	-2.40191	-1.16055
-410.15625	6.04359	1.15273	-0.77722	0.68021
-406.25000	3.62640	0.90527	-0.45079	0.28703
-402.34375	8.86487	4.62350	0.14935	1.68377
-398.43750	12.08863	4.52942	0.76044	4.34864
-394.53125	9.67146	6.79989	0.03651	1.62858
-390.62500	3.22496	5.32270	-1.45785	-6.34775
-386.71875	0.40490	-1.42989	-1.60200	-4.64209
-382.81250	6.04631	-0.70211	0.05697	0.18179
-378.90625	4.83793	-1.25534	0.23172	-3.14430
-375.00000	0.80908	-2.88219	0.03806	-4.42045
-371.09375	3.63010	-0.99074	2.69221	-0.87790
-367.18750	4.03343	-1.33065	3.30687	-0.32495
-363.28125	-0.80131	-2.78576	4.00895	-4.16175
-359.37500	1.61669	-2.20934	4.12904	-6.60060
-355.46875	6.85518	0.30802	4.45247	-1.98180
-351.56250	6.45262	3.16189	5.62646	2.18482
-347.65625	10.88528	3.61841	2.58917	0.34666
-343.75000	13.30324	4.01507	-0.48379	-0.87290
-339.84375	11.28903	4.49105	-2.85601	-5.62135
-335.93750	12.90119	5.08907	-4.04590	-12.41146
-332.03125	12.49866	3.67533	-4.74556	-13.27341
-328.12500	6.85811	-1.49361	-6.98033	-11.89152
-324.21875	15.72300	-4.07159	-2.54096	-1.23498
-320.31250	22.17035	0.71730	2.24638	-0.61306
-316.40625	5.65065	8.23868	0.33113	-14.35507
-312.50000	-6.83975	6.59095	-0.62410	-17.02976
-308.59375	-10.86858	2.67108	-2.43710	-17.69590
-304.68750	-11.27105	3.98048	-5.38520	-16.93413
-300.78125	-8.04712	5.00701	-3.12507	-16.56150
-296.87500	-9.65839	3.71433	-1.75597	-18.69344
-292.96875	-16.10476	0.62457	-4.17234	-21.97515
-289.06250	-19.73070	-0.00790	-6.75066	-25.92735
-285.15625	-15.29797	3.59249	-7.00159	-21.37721
-281.25000	-5.62713	7.29025	-4.46219	-14.78886
-277.34375	-2.80614	7.63530	-5.06784	-15.35528
-273.43750	-6.02908	5.51832	-6.12487	-16.82518
-269.53125	-10.46083	1.74895	-3.40360	-14.01795
-265.62500	-11.66911	2.01726	-2.55488	-14.96682
-261.71875	-8.04219	5.55539	-2.16514	-18.66848
-257.81250	-4.41535	4.69269	-3.55849	-19.65435
-253.90625	-3.20604	4.75078	-6.48282	-20.11271
-250.00000	0.01793	5.92352	-7.30692	-20.24237
-246.09375	2.03312	6.10353	-8.56554	-17.84896
-242.18750	-1.59268	4.23706	-5.90175	-14.10149
-238.28125	-2.39807	2.54458	-4.07575	-12.65642
-234.37500	-3.20339	-0.47044	-3.63597	-13.70509
-230.46875	-1.59112	-1.59017	-3.55532	-16.79494
-226.56250	0.42395	2.55306	-2.47046	-15.51715
-222.65625	-6.02259	1.32271	-1.16428	-16.40248
-218.75000	-9.64864	-5.25323	-4.19954	-20.95816
-214.84375	-8.84239	-7.32542	-4.83733	-17.34522
-210.93750	-8.03620	-5.88685	-2.62750	-15.76012
-207.03125	-7.22999	-3.80068	0.01505	-19.65486
-203.12500	-7.63255	-1.17090	-0.03858	-22.75351
-199.21875	-10.45266	0.23997	-3.12155	-23.20789
-195.31250	-6.82585	2.72100	-3.64052	-21.36230
-191.40625	-6.42258	1.49218	-4.52643	-21.96874
-187.50000	-6.82510	-1.67750	-5.14012	-21.39480
-183.59375	-2.39249	-0.82462	-2.12014	-16.63623
-179.68750	-4.40672	-2.73063	-3.25664	-18.60296
-175.78125	-6.42094	-2.96807	-7.29811	-22.93588
-171.87500	-2.79411	-1.61702	-5.22526	-20.10598
-167.96875	-2.39081	2.07041	-3.43219	-15.49619
-164.06250	-6.01675	1.15414	-3.78112	-13.76664
-160.15625	-3.59873	-3.28281	-3.39310	-15.60893
-156.25000	2.44562	-0.21573	-4.52735	-17.23194
-152.34375	2.84894	0.49744	-5.12945	-12.98919
-148.43750	3.65529	1.79938	-3.32494	-9.20861
-144.53125	5.26744	4.36320	-4.21468	-10.51921
-140.62500	4.46208	0.60147	-4.73696	-11.40865
-136.71875	3.65671	-1.51133	-1.77435	-15.93625
-132.81250	2.44839	2.19219	-1.42065	-16.73217
-128.90625	-1.58040	2.74456	-2.80622	-13.00459
-125.00000	0.83763	2.35579	-3.01756	-13.34156
-121.09375	4.46448	4.49281	-0.83859	-14.87090
-117.18750	2.85314	2.81710	1.36525	-14.61929
-113.28125	5.27120	0.24202	1.46694	-13.60439
-109.37500	3.65997	-1.94698	0.94185	-13.58458
-105.46875	0.03402	-3.25644	-0.18945	-13.77255
-101.56250	1.24328	-3.29073	-2.17133	-14.31425
-97.65625	-1.17388	-0.12181	-3.56842	-14.49218
-93.75000	-1.57633	1.49532	-2.91506	-11.25936
-89.84375	-1.97885	-1.80214	-1.35072	-8.12403
-85.93750	0.03624	-1.19227	1.44883	-8.18499
-82.03125	3.26012	1.02645	2.54939	-10.54782
-78.12500	7.28984	1.35926	2.36453	-10.72228
-74.21875	7.69325	1.51866	3.16112	-7.68049
-70.31250	4.06725	0.75814	1.99810	-7.90083
-66.40625	2.05298	0.08552	1.49365	-9.06867
-62.50000	3.26224	0.92636	2.04391	-12.84216
-58.59375	5.27740	2.02471	2.64608	-12.98304
-54.68750	6.88960	2.32605	1.96570	-12.53735
-50.78125	3.26362	-0.31319	-0.69953	-10.49385
-46.87500	-0.76519	-1.03612	-0.45903	-5.13975
-42.96875	-0.36169	1.24671	0.34339	-7.90334
-39.06250	1.25057	1.47526	2.91957	-7.57876
-35.15625	1.25115	-0.11141	4.37703	-4.07156
-31.25000	0.44584	-0.98955	3.44709	-3.00545
-27.34375	-1.16533	-3.35018	2.03589	-6.06659
-23.43750	-5.99990	-4.05471	0.67308	-9.43299
-19.53125	-6.40232	-2.70382	1.97896	-10.22681
-15.62500	-6.80466	-3.37594	1.53091	-14.51718
-11.71875	-8.01292	-3.69155	-0.87570	-17.66653
-7.81250	-8.01238	-2.42695	-1.90217	-13.86127
-3.90625	-6.40014	0.73752	1.42289	-6.95726
0.00000	-0.75854	3.59315	5.46818	-0.38198
3.90625	0.04785	-0.21423	5.51572	4.07317
7.81250	1.25720	-2.37807	2.84965	7.98010
11.71875	6.09292	0.92508	0.21553	10.96602
15.62500	5.69061	1.52153	-0.22652	9.99880
19.53125	4.07942	-0.58326	0.49645	9.05809
23.43750	1.66245	-1.10124	-0.18778	8.18190
27.34375	-1.56047	-1.88668	-1.09327	4.63354
31.25000	-4.78345	-1.75874	0.32801	5.56152
35.15625	-5.99179	-0.09067	2.17223	11.21448
39.06250	-5.18547	1.29018	3.58653	12.44843
42.96875	-5.58791	-2.40890	5.37398	9.49206
46.87500	-7.19922	-4.63677	1.39605	8.96296
50.78125	-5.58704	-2.42248	-1.56721	11.02765
54.68750	-1.15441	-2.48708	0.56116	11.59829
58.59375	0.05484	-4.48286	3.05646	10.59163
62.50000	-1.55642	-4.94076	1.65323	15.25447
66.40625	1.66747	0.65207	2.66035	22.17960
70.31250	3.27962	3.76573	2.98869	20.11578
74.21875	1.66840	1.98737	1.78978	16.38886
78.12500	-1.55457	-0.97657	2.53513	13.55764
82.03125	-5.58337	-4.26229	1.54562	10.15539
85.93750	-6.79171	-2.54134	-0.12240	12.85680
89.84375	-6.38841	-1.73199	-0.10973	19.13005
93.75000	-4.37337	-1.57682	3.84268	20.75175
97.65625	-1.14954	-1.88824	2.42770	17.31352
101.56250	-1.14913	-1.98258	-1.79667	18.76976
105.46875	0.06005	1.89927	-2.52098	21.28792
109.37500	0.06043	0.42170	-2.40406	21.37026
113.28125	-2.75968	-1.89894	1.07781	22.67316
117.18750	-3.16226	-2.78317	2.33340	22.66194
121.09375	-0.74430	-2.12795	0.89607	22.96233
125.00000	-1.14690	-0.93466	1.50796	24.90967
128.90625	1.67402	0.95643	0.93830	27.24356
132.81250	5.70369	2.22789	-0.46209	28.60241
136.71875	4.09227	1.17529	-0.96908	25.97450
140.62500	5.70437	1.34840	-0.84940	21.92400
144.53125	2.48130	3.46253	-0.92922	21.30477
148.43750	-0.33877	3.49557	-1.36734	13.78655
152.34375	2.88504	2.34001	-1.18146	12.35140
156.25000	3.69137	0.72158	0.17740	15.16122
160.15625	-4.76975	-3.23507	3.84882	3.56307
164.06250	-11.21621	-2.23448	4.27028	-4.83865
167.96875	-4.76888	1.58951	5.58494	0.34353
171.87500	-3.15678	-2.37099	6.17031	0.91954
175.78125	-6.37982	-7.36686	3.35660	1.90588
179.68750	-8.79690	-4.59300	-0.31790	2.12501
183.59375	-9.19944	-0.29538	-1.83060	1.27686
187.50000	-3.55798	1.68293	0.43731	1.42284
191.40625	-1.14004	2.19489	0.23565	4.78608
195.31250	0.47210	1.48929	-1.50404	10.38314
199.21875	0.47252	-0.30501	0.75570	12.36756
203.12500	-0.33290	-2.80678	1.72148	15.07089
207.03125	2.08506	-1.06169	1.72235	15.01277
210.93750	0.47378	-1.29155	-0.85631	11.06070
214.84375	-3.95806	-4.54134	-3.52513	9.16404
218.75000	-3.55469	-2.45570	-1.38902	12.52898
222.65625	-0.73374	-0.49929	0.01966	14.38015
226.56250	2.08720	-1.81072	1.37990	13.31321
230.46875	3.69938	-1.55119	0.87731	16.52336
234.37500	4.10270	1.13426	-1.09474	16.38036
238.28125	5.71489	2.25444	-1.91414	12.27574
242.18750	8.13286	0.98845	0.31857	16.52797
246.09375	7.73038	4.26955	1.82603	20.09893
250.00000	5.71612	5.84483	1.80752	21.58110
253.90625	3.70183	1.99517	2.16031	20.34820
257.81250	1.28457	1.74004	2.00332	17.64881
261.71875	0.07613	0.45015	3.82901	16.67639
265.62500	-1.93814	-1.75939	5.47728	17.23948
269.53125	-3.54946	-0.86481	1.12532	10.92623
273.43750	-3.14618	0.05473	0.59813	7.36901
277.34375	-3.95162	-1.57889	4.32157	9.70725
281.25000	-2.74238	1.30887	4.98592	9.81031
285.15625	-3.14493	4.32573	1.75706	9.52081
289.06250	-1.53280	5.68303	-0.10378	14.79388
292.96875	0.88514	4.91125	-1.87979	16.31497
296.87500	1.69145	2.62986	-5.10668	12.19751
300.78125	3.30354	2.01198	-4.00915	16.39723
304.68750	4.10978	2.67577	-3.13664	23.71220
308.59375	5.72197	5.35154	-2.84221	24.78307
312.50000	4.11062	2.17150	-4.59558	18.98604
316.40625	4.51398	3.01026	-3.51552	18.22086
320.31250	5.32027	5.93985	-1.31647	21.76691
324.21875	1.29143	5.04199	-4.01720	16.16178
328.12500	-3.14033	2.18938	-4.78858	12.63068
332.03125	-5.55739	0.64686	-3.27527	12.78963
335.93750	-3.94525	1.79315	-1.50320	12.13509
339.84375	-2.73601	1.00631	-2.64742	11.81448
343.75000	-3.13851	-0.25981	-3.70345	10.64062
347.65625	1.69713	-0.58156	-3.92973	11.78129
351.56250	4.92093	-2.08240	-2.75659	13.84584
355.46875	0.89204	-1.42427	-0.68155	12.07220
359.37500	-3.13689	0.10733	-1.15001	5.07114
363.28125	-1.92778	0.06844	-1.79080	3.92161
367.18750	-1.92747	0.66412	-0.26711	7.72972
371.09375	-4.74763	0.42881	0.18111	5.63739
375.00000	-2.73263	0.61062	1.36647	1.51325
378.90625	-0.31467	0.42433	1.96938	-1.68867
382.81250	1.29737	2.80478	2.12565	-3.59478
386.71875	3.71535	5.52256	4.18377	-0.32917
390.62500	4.92450	4.14896	4.32643	2.27037
394.53125	5.73080	3.86803	5.04303	-0.19903
398.43750	2.10474	5.18255	1.47477	-5.24334
402.34375	0.09045	5.93646	-0.41328	-9.09112
406.25000	0.89665	4.32287	1.36372	-11.99257
410.15625	-2.72935	2.62917	-0.39662	-13.98125
414.06250	-3.93779	1.49724	-2.14422	-14.01514
417.96875	-1.51985	2.69857	-1.42330	-15.66784
421.87500	-1.51954	1.40663	-1.74948	-14.18218
425.78125	0.09244	0.69105	-1.87767	-11.14361
429.68750	1.30157	5.13465	-2.30567	-10.07421
433.59375	1.30192	7.19684	-3.27370	-10.51866
437.50000	4.12272	7.07630	-3.49993	-9.59367
441.40625	6.13767	6.14047	-4.29814	-10.81320
445.31250	6.54087	2.28292	-1.91405	-13.49815
449.21875	4.92930	1.18719	-0.59755	-10.18237
453.12500	1.70605	3.23641	-2.37668	-9.85394
457.03125	0.90026	3.81123	-1.53054	-9.98901
460.93750	2.91501	3.21678	-1.20663	-7.85211
464.84375	6.13857	1.84584	0.44962	-6.96998
468.75000	7.34750	1.66394	3.51701	-8.25958
472.65625	6.94471	2.91103	1.75365	-8.79444
476.56250	4.12428	1.76864	2.06825	-7.18342
480.46875	-0.30777	-0.51235	3.09567	-8.12196
484.37500	1.30406	-0.61955	0.78214	-8.48339
488.28125	2.11005	2.93684	4.79800	-9.13836
492.18750	-3.12784	3.80133	2.66815	-16.60352
496.09375	-7.15689	1.35193	-0.76153	-19.71059
500.00000	-5.94783	1.40202	0.55285	-18.87783
503.90625	-1.51533	1.73771	0.69680	-18.84559
507.81250	-1.91802	3.39282	2.43793	-18.45749
511.71875	-5.54401	3.08496	-1.65017	-17.56334
515.62500	-3.52900	-1.06499	-1.55831	-6.87370
519.53125	4.52997	-2.72306	3.65838	-1.44092
523.43750	10.17140	2.47167	0.59809	-7.43663
527.34375	9.36600	3.03046	0.86741	-3.98179
531.25000	15.81336	-0.44890	2.49543	4.44656
535.15625	27.49881	6.20276	-1.93433	5.13782
539.06250	30.72269	12.09629	0.72953	7.92218
542.96875	34.75241	10.44867	4.51728	12.84671
546.87500	35.96166	12.32523	4.11484	17.36593
550.78125	29.91807	14.55291	2.61147	22.02943
554.68750	25.48627	12.27558	2.54184	22.77183
558.59375	21.45739	6.77748	2.24445	23.31151
562.50000	25.08414	7.94102	1.98020	26.28677
566.40625	24.68157	9.51798	2.50889	19.39514
570.31250	20.65266	6.58650	-0.90201	8.99816
574.21875	19.04139	6.27370	-3.03931	6.14070
578.12500	18.63885	7.51273	-0.25622	10.07376
582.03125	19.04220	7.44159	1.04796	7.49604
585.93750	12.19273	4.27870	0.07883	2.91142
589.84375	7.76090	0.22839	-0.79458	5.24553
593.75000	8.16416	-0.11913	-2.96499	6.82115
597.65625	5.74698	1.40942	-2.74177	8.49969
601.56250	4.53853	0.49080	0.11132	11.67194
605.46875	4.13589	-4.19860	2.46548	13.44427
609.37500	5.34501	-2.91165	2.12508	16.01163
613.28125	4.53949	-0.05417	1.55402	19.17443
617.18750	6.15149	0.15402	1.23598	19.79714
621.09375	8.97234	4.81959	0.78467	19.47044
625.00000	12.59897	6.65044	1.61088	19.16088
628.90625	14.61389	6.02891	0.19912	21.15254
632.81250	15.01714	5.66113	-0.36319	21.44549
636.71875	14.21157	4.95601	-0.40978	21.40187
640.62500	12.19712	5.11881	-1.76433	22.42723
644.53125	13.00328	5.39783	-2.48401	19.25417
648.43750	13.80939	5.29010	-0.12766	19.05888
652.34375	12.19790	6.54882	-0.25737	20.48755
656.25000	8.97478	6.54865	-0.42574	20.96985
660.15625	5.75157	3.00224	-1.89198	20.53950
664.06250	7.36348	1.31168	-3.77393	19.76611
667.96875	10.99011	4.54054	-3.28918	17.79098
671.87500	8.16985	5.02462	-2.96608	17.91556
675.78125	7.36427	1.70891	-0.42343	19.71054
679.68750	8.57325	1.69555	-0.40160	18.23666
683.59375	7.76760	0.84015	-3.06316	14.65009
687.50000	10.18534	-0.65309	-4.45189	11.30589
691.40625	14.21489	3.90711	-2.85102	12.12078
695.31250	16.63263	6.15093	-0.80606	17.22164
699.21875	14.61819	3.21532	-1.31995	18.73924
703.12500	8.17152	2.37275	-3.57335	20.82659
707.03125	5.35125	2.60168	-4.01978	22.16866
710.93750	1.72513	3.59699	-3.13820	20.83573
714.84375	-0.69225	4.16001	-3.18590	19.54885
718.75000	0.11384	5.14565	-3.43611	18.41904
722.65625	4.54633	6.31403	-1.27304	20.16078
726.56250	6.96414	3.02202	0.42375	24.59190
730.46875	3.74093	1.67455	0.19892	22.30524
734.37500	-0.28811	0.57079	-1.52011	18.23260
738.28125	-0.28789	-0.97299	-2.71872	19.28869
742.18750	2.53280	-0.22791	1.01957	21.11110
746.09375	2.53301	0.60761	0.41678	17.76961
750.00000	2.93611	1.76429	-0.90088	14.51763
753.90625	2.13049	1.02350	0.16075	16.09558
757.81250	2.93664	1.38083	0.43111	21.34693
761.71875	7.36923	1.68650	-0.31915	23.67470
765.62500	9.78719	0.59616	-0.01136	23.05689
769.53125	9.78752	1.44617	0.00681	24.87558
773.43750	4.54979	1.89027	-0.96546	22.81122
777.34375	-2.29970	0.12059	-2.44683	22.98131
781.25000	-0.28466	0.37433	-2.86927	23.01320
785.15625	4.55081	4.59959	-0.45745	25.14097
789.06250	6.16284	4.74785	0.90481	24.77283
792.96875	3.34269	-0.05351	-2.48328	18.23514
796.87500	-1.08923	0.48527	-2.08408	17.34098
800.78125	-1.49179	0.67295	-0.58390	21.13769
804.68750	4.55252	0.12758	-0.51764	26.84077
808.59375	8.98512	1.19122	0.98526	25.09098
812.50000	3.34438	-0.37750	1.24628	20.90570
816.40625	-1.49047	-0.74789	1.11715	20.14035
820.31250	-0.68435	-3.45968	-1.11629	13.21000
824.21875	-1.48998	-5.16369	-1.80270	11.63396
828.12500	-3.10152	-2.37570	-0.15691	17.77280
832.03125	-2.69833	-2.70977	0.55021	17.93151
835.93750	-3.50395	-3.57844	-0.09568	14.85906
839.84375	-4.71255	-3.96266	-0.03146	12.12056
843.75000	-3.10062	-1.19980	-1.49073	8.52891
847.65625	-1.08574	0.89572	-3.73201	10.07232
851.56250	-0.27961	2.21501	-4.17087	14.15137
855.46875	-1.48813	1.26106	-2.90203	15.60093
859.37500	-3.90546	-0.02815	-2.56502	17.86708
863.28125	-3.50227	1.14143	-4.41495	19.53779
867.18750	-1.48740	0.52793	-2.89152	18.91348
871.09375	3.75090	1.90395	-2.44360	18.83565
875.00000	4.95980	3.29422	-3.67615	17.93472
878.90625	2.13941	1.09292	-4.28239	12.71792
882.81250	1.33368	-0.15334	-4.12650	11.21449
886.71875	-1.88968	-3.47995	-5.29206	10.45058
890.62500	-5.11306	-5.25687	-6.76144	11.84113
894.53125	-3.90416	-3.52356	-4.83647	15.81832
898.43750	-0.68063	-3.41823	-2.76399	16.41484
902.34375	3.75174	-4.27636	-3.44353	14.17860
906.25000	4.15474	-5.48743	-3.68155	12.08277
910.15625	0.12552	-3.55514	-1.81578	12.51143
914.06250	-2.29202	-2.67283	-0.74317	13.68612
917.96875	0.12565	-3.48656	-0.42544	18.88294
921.87500	0.52867	-3.97304	-0.34901	21.98008
925.78125	-5.51521	-6.30074	-2.49222	14.94522
929.68750	-2.69459	-5.48397	-0.90581	9.16462
933.59375	3.75245	-3.01924	-1.47111	6.70545
937.50000	0.93200	-1.93141	-2.50345	5.21268
941.40625	-2.29137	-2.06175	-1.28728	6.41079
945.31250	-1.48537	-0.27860	-3.33567	8.96385
949.21875	-3.09702	-2.58347	-3.63108	12.27962
953.12500	-0.27635	-2.95212	-2.58994	10.99639
957.03125	4.15597	2.45749	-3.75866	13.27901
960.93750	5.76784	3.87730	-3.43496	16.62480
964.84375	6.17084	3.71478	-1.37603	16.29814
968.75000	2.94747	2.32369	-1.53225	14.60578
972.65625	-1.88757	-0.45887	-0.47536	14.07104
976.56250	-2.29041	0.01017	0.64492	16.48804
980.46875	-1.08148	-0.25654	0.46323	13.13194
984.37500	-2.69304	-2.78157	-1.44761	7.12959
988.28125	-4.30465	-3.25480	-3.07302	7.68350
992.18750	-4.30447	-1.98768	-1.57677	5.85939
996.09375	-1.48372	2.00951	0.23137	3.15517
1000.00000	-5.10993	-1.56719	-2.48384	3.58500
1003.90625	-5.91556	-4.85817	-5.16070	3.21422
1007.81250	-5.91532	-4.41214	-4.62874	1.58766
1011.71875	-5.51216	-4.31732	-4.68786	2.48177
1015.62500	-3.49734	-1.21482	-4.99919	5.51560
1019.53125	-6.72062	-4.08197	-4.21500	6.91895
1023.43750	-5.10874	-4.93152	-4.05217	4.95242
1027.34375	-5.91439	-3.97011	-4.99187	5.58663
1031.25000	-6.31714	-7.04690	-5.37888	9.17958
1035.15625	-3.49639	-6.03662	-5.77962	11.88541
1039.06250	-2.69037	-4.97852	-5.13079	11.44616
1042.96875	-4.70487	-5.01486	-4.56675	10.32660
1046.87500	-4.30182	-1.52688	-3.76073	16.05445
1050.78125	-2.68991	0.70053	-2.04092	21.12076
1054.68750	-1.07809	-0.77139	-0.49904	21.05721
1058.59375	5.36895	-2.64347	-0.79670	19.58202
1062.50000	8.59256	-1.88323	-1.46418	21.34838
1066.40625	0.53414	-3.12708	0.67597	18.88875
1070.31250	-9.94184	-6.46177	4.92057	14.13260
1074.21875	-13.56801	-5.56619	5.20046	10.06617
1078.12500	-11.15018	-4.73046	4.75989	7.95516
1082.03125	-9.94115	-7.62238	5.25796	5.78029
1085.93750	-12.76143	-9.17391	2.67680	1.19548
1089.84375	-13.56713	-9.19527	3.01194	-1.30567
1093.75000	-12.76099	-5.91679	0.03535	-2.95358
1097.65625	-9.53735	-2.77682	-2.56210	-0.06620
1101.56250	-8.32837	-5.30755	-0.91800	5.92655
1105.46875	-7.52243	-5.96793	0.22718	8.90766
1109.37500	-11.55165	-7.50183	1.49823	7.44581
1113.28125	-14.77502	-8.27112	-1.08767	4.96758
1117.18750	-8.32806	-4.43694	-3.82351	5.18741
1121.09375	-4.29874	-2.99520	-1.85743	7.27836
1125.00000	-7.92504	-3.98523	-1.43442	8.98348
1128.90625	-10.34262	-3.80130	-1.63766	7.34885
1132.81250	-9.13383	-5.78125	-0.58842	10.46237
1136.71875	-5.91036	-4.47205	-0.23233	17.67151
1140.62500	-4.70151	-5.11548	-2.79582	19.90577
1144.53125	-1.47799	-5.64273	-3.11274	17.13567
1148.43750	-1.88089	-5.34786	-0.35374	15.32878
1152.34375	-5.91012	-4.89533	-0.48373	13.13112
1156.25000	-7.52181	-3.28408	-0.65236	9.58426
1160.15625	-7.11882	-4.81616	-1.31301	12.37750
1164.06250	-2.28360	-4.49248	0.02828	12.41008
1167.96875	-2.68641	-3.27857	0.91564	10.03218
1171.87500	-7.11860	-2.79486	-0.77621	11.76859
1175.78125	-5.10388	-3.69340	0.15441	11.14622
1179.68750	2.55190	-2.90118	-1.83867	10.07543
1183.59375	4.16369	-2.14525	-2.88881	10.11556
1187.50000	3.35796	-0.41539	-1.45727	11.20394
1191.40625	4.16393	-1.89949	-4.28894	13.63081
1195.31250	1.74651	-5.70001	-3.85600	12.28502
1199.21875	2.14953	-2.99491	-1.95267	12.59420
1203.12500	0.94087	0.99739	-0.98292	12.66723
1207.03125	-1.87947	0.01721	-2.23548	7.56272
1210.93750	-3.89395	-3.42007	-2.56291	6.23019
1214.84375	-5.50552	-2.05149	-0.59626	10.98773
1218.75000	-1.87906	-0.66318	-0.44377	12.27579
1222.65625	-0.26718	-3.52442	-2.71323	13.21211
1226.56250	-2.68466	-6.01085	-3.03139	13.21131
1230.46875	-3.49039	-6.14992	-2.45056	9.71621
1234.37500	-5.10204	-1.61300	-2.55814	11.28494
1238.28125	-9.53419	-0.73957	-1.33940	11.13265
1242.18750	-9.53407	-4.82995	-1.22779	10.13493
1246.09375	-7.11633	-1.57718	-1.42797	11.62891
1250.00000	-6.71323	2.39961	-1.53702	6.36266
1253.90625	-7.92190	-0.35617	-2.49027	5.52331
1257.81250	-7.51888	-3.62549	-1.01144	9.56610
1261.71875	-3.89233	-4.52892	-4.98544	8.67072
1265.62500	0.94299	-2.39610	-5.88669	13.69419
1269.53125	-3.89201	-2.75520	1.38398	11.48375
1273.43750	-18.80031	-3.11727	4.03787	-1.86242
1277.34375	-30.08219	-6.49902	-1.07016	-13.77997
1281.25000	-40.96114	-10.27488	-9.14850	-28.25338
1285.15625	-51.43721	-8.46748	-12.37790	-41.03374
1289.06250	-61.51031	-9.52834	-9.40428	-48.25147
1292.96875	-70.77760	-8.68905	-1.51055	-55.99769
1296.87500	-82.86534	-5.33004	-2.72332	-69.78549
1300.78125	-96.96772	-9.17203	-10.89384	-84.92640
1304.68750	-100.19100	-6.09132	-14.85708	-96.14626
1308.59375	-104.62309	-4.22215	-13.75739	-104.34277
1312.50000	-113.08449	-3.77655	-11.88494	-108.52802
1316.40625	-113.08434	-3.34136	-12.41725	-113.72545
1320.31250	-114.29301	-6.45643	-11.42754	-114.20876
1324.21875	-115.90462	-2.92272	-7.68207	-108.93483
1328.12500	-111.47228	-2.55259	-6.84244	-106.42214
1332.03125	-101.80187	-4.09580	-8.55319	-101.42807
1335.93750	-92.13144	-4.15894	-9.60235	-90.80069
1339.84375	-80.04352	-4.94638	-9.94141	-79.83945
1343.75000	-71.17901	-6.21317	-8.58046	-72.14906
1347.65625	-63.92630	-8.55024	-7.59866	-60.93528
1351.56250	-49.82377	-4.00781	-6.82913	-49.20053
1355.46875	-40.95927	-1.33571	-5.56060	-40.90111
1359.37500	-38.13882	-3.02828	-6.02973	-35.41151
1363.28125	-28.46852	-5.08259	-6.67115	-27.69672
1367.18750	-19.20121	-1.26408	-4.74514	-15.83017
1371.09375	-16.38079	0.51460	-6.71516	-13.08744
1375.00000	-11.14280	-4.54233	-9.15681	-10.36191
1378.90625	-0.66677	-3.52054	-6.13703	-0.26725
1382.81250	0.94476	-1.14078	-3.56384	6.28792
1386.71875	2.55632	-1.24420	-3.52107	11.56792
1390.62500	5.77957	-1.00679	-4.99082	12.55552
1394.53125	1.34712	-1.69143	-5.48379	6.86251
1398.43750	4.16746	-1.58643	-4.62038	8.26495
1402.34375	13.03184	-2.84787	-3.28567	14.89340
1406.25000	15.04637	-3.25341	-2.31515	18.03592
1410.15625	14.24048	-1.72438	-2.46434	15.64428
1414.06250	16.25509	1.57526	-0.98914	20.44549
1417.96875	13.43447	-1.65637	-2.28348	24.03082
1421.87500	14.24032	-5.76949	-4.22198	24.71068
1425.78125	14.64312	-2.85943	-3.94786	23.31704
1429.68750	13.43428	-4.05759	-5.58516	19.14830
1433.59375	13.43438	-5.21945	-6.55379	22.33037
1437.50000	11.41989	-5.34063	-5.16896	24.46436
1441.40625	13.03182	-3.85955	-5.56483	22.43930
1445.31250	13.83789	-3.28550	-5.59894	22.97812
1449.21875	13.03232	-3.97899	-5.08887	22.26507
1453.12500	15.85314	-2.33327	-6.06275	25.41460
1457.03125	17.86814	-2.16201	-6.42598	26.89185
1460.93750	18.67436	-2.75705	-6.10257	23.38850
1464.84375	19.07764	-5.33743	-4.44693	26.28599
1468.75000	20.68967	-4.71411	-5.00643	27.01190
1472.65625	21.09297	-3.87057	-4.35275	27.68664
1476.56250	17.06393	-5.01356	-1.62110	28.89541
1480.46875	15.45240	-4.47469	-1.80309	26.74861
1484.37500	15.45260	-3.77659	-1.69957	26.38772
1488.28125	14.64690	-2.63844	-3.32530	24.92737
1492.18750	17.46754	-3.38631	-5.05284	24.31244
1496.09375	21.49706	-2.21002	-5.25966	24.02623
1500.00000	22.70597	0.65991	-3.13996	25.26233
1503.90625	23.10909	-0.61675	-2.19077	25.29483
1507.81250	23.51220	-0.97694	-3.27079	26.48915
1511.71875	21.09472	-0.88240	-2.52433	30.60702
1515.62500	20.28897	-2.21253	-0.82133	32.02939
1519.53125	22.70661	0.56106	1.17130	33.03005
1523.43750	23.51257	2.12880	1.73682	33.48143
1527.34375	19.48324	-3.35700	0.79672	32.90705
1531.25000	16.25989	-4.82238	-1.20232	30.85916
1535.15625	14.64819	-3.40950	-1.20050	25.90947
1539.06250	15.45412	-4.36642	1.05976	22.24702
1542.96875	16.66298	-1.98546	-1.59998	16.69544
1546.87500	14.24545	-0.51243	-4.42065	13.55903
1550.78125	11.82784	-4.32932	-5.11875	15.40212
1554.68750	13.03663	-3.38389	-3.57719	20.97980
1558.59375	12.63364	2.80234	-2.66638	24.33996
1562.50000	9.41015	1.14469	-2.12545	24.09169
1566.40625	8.20133	-1.71123	-1.19439	22.84099
1570.31250	8.60428	-0.21112	-2.18829	19.69673
1574.21875	8.60426	0.28127	-2.31163	19.65965
1578.12500	6.18661	-0.89791	-3.15552	15.93691
1582.03125	6.58951	-3.38724	-5.07539	12.95623
1585.93750	8.20115	-3.73029	-6.44813	10.38614
1589.84375	7.39521	-2.54310	-5.71043	8.28800
1593.75000	7.79808	0.73506	-5.06104	11.47529
1597.65625	7.79801	1.05416	-4.83833	12.34801
1601.56250	6.99210	1.34366	-4.40339	13.50574
1605.46875	7.39495	0.68292	-3.66155	14.06939
1609.37500	10.21542	-0.85127	-2.39078	14.21945
1613.28125	10.61836	0.39382	0.66398	17.38249
1617.18750	9.00668	-0.60742	1.95709	16.79663
1621.09375	9.00666	-2.38940	1.90819	18.08190
1625.00000	6.99202	-4.58851	0.71920	17.36975
1628.90625	7.79794	-4.40479	-0.69318	15.33248
1632.81250	11.42437	-2.35570	-1.25601	16.43172
1636.71875	10.21562	-1.44971	-0.90026	12.35919
1640.62500	9.00691	1.13003	-1.44951	11.37037
1644.53125	9.00694	0.60251	-2.97564	11.82401
1648.43750	10.21574	-0.31167	-3.44041	11.22617
1652.34375	8.20113	0.14057	-2.76489	10.23759
1656.25000	4.97768	-1.87489	-3.73973	11.92903
1660.15625	6.99237	-0.98969	-3.19193	15.12534
1664.06250	9.00697	0.13952	-3.05983	13.94927
1667.96875	13.03618	1.35311	-1.36688	15.60082
1671.87500	13.43902	3.04531	1.77608	18.94912
1675.78125	7.39506	2.54943	0.69169	20.74443
1679.68750	6.99216	2.53544	-0.49584	19.67387
1683.59375	7.39504	0.06763	-0.33753	17.29653
1687.50000	3.76867	-1.82915	2.70536	13.95274
1691.40625	3.76865	-1.70184	-0.93252	9.93288
1695.31250	9.00673	-2.68208	-4.12633	16.64581
1699.21875	6.99205	-2.79783	-2.22332	16.55211
1703.12500	2.55980	-3.23808	-2.05975	9.37243
1707.03125	6.99204	0.21370	-0.49218	8.70024
1710.93750	4.17144	2.82008	0.38880	6.15888
1714.84375	0.14209	0.15898	0.74340	5.27530
1718.75000	2.96254	0.33818	0.49263	7.77218
1722.65625	3.76840	-0.91165	0.23747	10.32011
1726.56250	3.76837	-2.59250	-1.28982	12.73693
1730.46875	3.76832	-2.32887	-3.52992	12.86824
1734.37500	4.97702	-1.01566	-3.63780	8.39306
1738.28125	3.76824	-1.75418	-4.43412	5.42024
1742.18750	1.75357	-1.81554	-3.91985	6.43723
1746.09375	0.94769	-2.59237	-0.49404	6.31963
1750.00000	-1.46987	-2.64517	-0.20055	8.70906
1753.90625	-3.08171	-1.37194	0.45761	7.86973
1757.81250	-3.88768	-3.02986	1.13025	7.07744
1761.71875	-1.06733	-4.33657	0.78225	6.18198
1765.62500	4.97648	-1.80113	-1.73105	5.96731
1769.53125	2.15583	-2.56345	-2.11645	6.57724
1773.43750	-0.26189	-3.32883	-1.88053	6.93066
1777.34375	1.75259	-3.48749	-4.57130	6.29513
1781.25000	2.15534	-1.21973	-5.39725	5.11838
1785.15625	0.94638	-1.02442	-3.79190	4.82873
1789.06250	0.54333	-3.29445	-3.23617	6.07243
1792.96875	3.76665	-1.64961	-4.20731	5.57882
1796.87500	4.16941	0.50026	-3.80871	3.47596
1800.78125	9.00446	1.89602	-7.14446	4.85515
1804.68750	22.30102	2.55878	-7.07877	18.21404
1808.59375	14.64522	0.39832	0.06448	18.47905
1812.50000	-9.53076	-5.20029	0.32486	1.39998
1816.40625	-10.73962	-6.78015	-1.01364	-3.39451
1820.31250	-5.90460	-5.86627	-1.23308	-3.87782
1824.21875	-11.94871	-9.58558	-1.11436	-7.46840
1828.12500	-14.36645	-10.42466	2.14256	-4.14986
1832.03125	-12.35197	-7.53598	2.84914	0.03836
1835.93750	-13.96389	-8.40534	2.20263	-2.22809
1839.84375	-14.76992	-7.98438	3.87790	-3.75753
1843.75000	-12.35236	-10.86315	3.22384	-5.33435
1847.65625	-11.14363	-9.97702	3.80243	-2.58190
1851.56250	-10.33788	-8.25537	1.75114	1.90026
1855.46875	-10.74089	-8.80700	1.81055	6.17060
1859.37500	-10.74101	-7.67932	4.16162	8.43703
1863.28125	-6.71185	-6.51038	4.72868	9.70513
1867.18750	-3.08563	-3.90104	3.43093	12.70737
1871.09375	-1.47404	-5.34613	2.26645	13.83850
1875.00000	-1.07130	-7.17991	3.04794	15.75829
1878.90625	0.13735	-6.15841	2.03810	12.95936
1882.81250	-0.26573	-4.18183	2.59634	10.24737
1886.71875	-4.69816	-2.67382	4.65359	11.09542
1890.62500	-4.69829	-2.83955	2.37767	9.26269
1894.53125	0.94261	-3.52439	-0.53312	10.82264
1898.43750	0.94252	-3.41960	-0.87881	12.62825
1902.34375	1.34541	-1.86077	-0.75315	9.98947
1906.25000	7.79225	-0.65483	-0.18588	10.31152
1910.15625	11.01559	-0.33486	-0.33547	14.36686
1914.06250	10.61253	-0.66185	0.33358	12.72132
1917.96875	7.38896	-0.67029	1.85938	13.88917
1921.87500	2.55371	-0.75437	3.14400	16.18083
1925.78125	3.76240	-0.66507	0.59728	14.38440
1929.68750	4.56812	-1.46063	-2.24922	14.64801
1933.59375	2.95626	-3.83160	-1.60636	12.59198
1937.50000	-0.67020	-4.35605	-1.83351	10.69656
1941.40625	0.53847	-1.66651	-2.63264	11.89485
1945.31250	3.35879	-2.30156	-1.45821	13.64233
1949.21875	4.16443	-2.18957	1.06621	16.15252
1953.12500	3.35839	1.47041	3.31549	16.07837
1957.03125	-3.08872	-1.58212	1.34018	13.12316
1960.93750	-3.89481	-4.19221	-1.56019	8.41063
1964.84375	-2.28334	-5.16124	-0.30781	7.27839
1968.75000	-1.07479	-5.34413	1.14696	6.39202
1972.65625	-0.67210	-2.08338	-1.82611	3.43998
1976.56250	-1.47815	-0.80916	-7.15339	3.43964
1980.46875	1.34214	-0.27065	-6.93279	6.93361
1984.37500	2.95361	-0.37877	-5.21796	6.97543
1988.28125	4.96806	0.35608	-5.63524	4.30610
1992.18750	2.55036	-2.40674	-4.13968	5.30264
1996.09375	-2.28503	-5.66294	-3.54100	8.23967
2000.00000	0.93822	-3.19625	-3.43629	9.47560
2003.90625	4.96733	-2.05566	-2.08458	7.49335
2007.81250	4.16133	-1.61027	-0.74738	5.86699
2011.71875	-2.68859	-2.72491	-2.41884	1.92613
2015.62500	-3.49457	-3.65237	-5.95435	1.33391
2019.53125	-4.30061	-4.90852	-5.97665	2.33461
2023.43750	-4.70361	-3.74401	-4.60569	0.36844
2027.34375	1.74318	0.84311	-3.12851	0.19703
2031.25000	2.54893	3.40665	-2.30730	2.58156
2035.15625	2.95173	1.19288	-3.51458	4.88468
2039.06250	1.74286	-2.18197	-3.26928	6.46041
2042.96875	2.14564	0.60165	-2.30299	8.96747
2046.87500	3.75735	1.67139	-0.69171	10.66631
2050.78125	4.16021	0.27179	-0.98718	8.48015
2054.68750	6.98072	4.03739	-2.66946	7.20806
2058.59375	7.38354	5.79113	-3.37065	10.56834
2062.50000	1.74243	2.11852	-2.02413	10.72318
2066.40625	2.95105	-1.94651	-3.10808	8.26382
2070.31250	12.62129	-2.46134	-0.87877	16.80467
2074.21875	8.99480	-3.98390	8.26497	21.60284
2078.12500	-6.71966	-6.37221	11.85299	12.64210
2082.03125	-8.33156	-7.65306	7.91826	6.03521
2085.93750	-1.88476	-8.80225	4.12771	7.49460
2089.84375	-4.30247	-6.80952	2.85053	9.02302
2093.75000	-8.73475	-5.54632	2.69383	3.34609
2097.65625	-5.91433	-5.22753	0.90162	3.01014
2101.56250	-2.69100	-3.72961	-0.67836	6.98847
2105.46875	-3.89997	-3.98772	-0.74263	5.53754
2109.37500	-6.31777	-3.10461	0.93076	4.47882
2113.28125	-3.90037	-3.47151	3.17939	8.04482
2117.18750	0.93458	-4.87601	4.06933	14.30884
2121.09375	2.94902	-4.24066	4.02016	15.59414
2125.00000	2.14296	-6.03715	4.03961	14.47903
2128.90625	3.75450	-3.83909	1.41821	14.45635
2132.81250	1.73963	-3.40201	0.45218	14.74953
2136.71875	-0.67820	-3.70513	0.40472	16.31797
2140.62500	-0.27550	-2.33451	-0.14481	13.71724
2144.53125	-0.67873	-5.28000	-0.86529	13.36486
2148.43750	0.93271	-4.17992	-1.33033	11.96102
2152.34375	2.14131	-1.71339	-1.86378	8.95778
2156.25000	1.73827	-2.52037	-2.43599	7.82877
2160.15625	2.14103	-4.85892	-2.69427	7.39880
2164.06250	3.75260	-5.74458	-4.17404	8.23742
2167.96875	2.14061	-4.93421	-2.48130	8.68016
2171.87500	0.12571	-3.64527	-1.75614	11.22255
2175.78125	0.12543	-2.52981	-2.43775	13.82375
2179.68750	2.13978	-2.54411	-1.61082	12.35019
2183.59375	4.96002	-1.38592	-1.85564	10.77872
2187.50000	1.33346	-2.07424	-4.85686	9.04667
2191.40625	-2.69608	-2.35018	-6.07737	3.41499
2195.31250	-0.27871	-3.33086	-3.63032	4.48685
2199.21875	-0.68189	-7.07331	-4.14506	8.01942
2203.12500	-2.29386	-6.30510	-7.20513	9.30121
2207.03125	-1.89111	-1.64491	-6.04070	9.43476
2210.93750	-3.50298	-0.24770	-5.96579	7.69931
2214.84375	-0.27972	1.52314	-6.41725	6.00983
2218.75000	0.52592	-1.52149	-5.45949	2.86563
2222.65625	-1.48894	-5.99516	-4.10311	3.39899
2226.56250	0.92839	-5.25883	-3.61596	4.20411
2230.46875	4.95751	-2.57797	-3.03569	2.32081
2234.37500	5.36027	-0.86219	0.48250	3.88956
2238.28125	4.55420	-2.40702	-0.71693	7.76659
2242.18750	4.95683	-3.27462	-1.81461	6.76892
2246.09375	1.33020	-2.84301	-0.40360	4.63656
2250.00000	7.77681	-0.47861	-1.31918	9.44354
2253.90625	10.99999	0.39139	-2.27305	17.06572
2257.81250	-1.49111	-2.87857	-1.19771	12.24409
2261.71875	-5.11776	-2.57388	-0.33714	7.31939
2265.62500	-1.49162	-2.05341	-0.83602	8.71653
2269.53125	-2.29778	-3.62195	-0.41580	6.50602
2273.43750	-3.10388	-3.17882	-2.19476	4.03899
2277.34375	-4.31298	-3.33781	-1.66236	2.59764
2281.25000	-6.73081	-3.08498	-0.87687	0.61507
2285.15625	-7.53699	-0.47237	-0.48049	-0.48029
2289.06250	-6.73136	-0.72805	1.28377	-1.25112
2292.96875	-7.53757	-3.11289	-0.09059	-1.74461
2296.87500	-8.74661	-3.38095	-1.70695	-4.65320
2300.78125	-7.13520	-3.59719	-1.81943	-4.48267
2304.68750	-1.89737	-1.32302	-0.94814	2.83237
2308.59375	1.32580	0.14261	0.55384	7.12680
2312.50000	-1.09208	-2.23293	-2.81234	5.35920
2316.40625	-1.89822	-3.81301	-3.74818	2.57948
2320.31250	-5.92785	-2.09356	-1.55027	2.09630
2324.21875	-7.13698	-2.18683	-3.44643	0.92341
2328.12500	-4.71969	-2.22028	-5.02487	-0.99607
2332.03125	-4.72001	-3.76412	-3.10982	-0.83702
2335.93750	-6.33207	-5.03666	-2.95072	-0.68566
2339.84375	-5.52646	-3.81014	-4.09615	1.00842
2343.75000	-3.10923	-5.07754	-3.94451	0.23755
2347.65625	-3.10952	-11.44451	-5.38081	2.98997
2351.56250	10.18695	-10.52900	-0.98538	17.14258
2355.46875	15.82773	-1.81352	-0.12026	18.59240
2359.37500	7.36586	1.73145	-5.42514	7.15922
2363.28125	9.78313	4.10885	-6.06711	5.20393
2367.18750	19.05020	6.71801	-7.36509	7.80334
2371.09375	20.66154	6.48141	-11.35031	10.14330
2375.00000	24.28761	7.87075	-11.77785	17.70422
2378.90625	26.30194	10.50369	-12.78792	20.14345
2382.81250	29.92792	13.68877	-14.24462	17.83444
2386.71875	37.58325	16.40517	-12.59060	21.90593
2390.62500	36.37408	17.44792	-13.25502	28.53480
2394.53125	33.55323	15.95691	-14.55429	29.69182
2398.43750	33.95586	14.04672	-12.48268	28.67701
2402.34375	35.16425	13.59057	-8.73094	29.26163
2406.25000	35.96983	14.79620	-8.56688	32.80727
2410.15625	36.37241	12.69833	-9.52248	30.81870
2414.06250	30.32814	5.11821	-8.04787	23.53219
2417.96875	30.32781	3.90065	-7.32809	22.68541
2421.87500	28.31283	4.62212	-8.46134	17.72433
2425.78125	23.88025	2.29360	-8.59080	9.07815
2429.68750	21.46239	2.70657	-10.63161	8.13301
2433.59375	22.26794	5.57341	-10.39192	8.09172
2437.50000	20.25298	7.86915	-7.39585	4.98758
2441.40625	14.61162	7.33502	-6.58344	2.55960
2445.31250	15.01426	5.89381	-6.61812	2.69547
2449.21875	13.40218	3.18504	-6.51149	1.98231
2453.12500	10.98431	0.80078	-6.27710	1.90819
2457.03125	12.59568	0.56854	-6.23793	4.59404
2460.93750	12.19239	1.18165	-4.30333	6.73140
2464.84375	10.98325	0.61532	-3.85701	5.59918
2468.75000	9.77396	-1.17964	-4.01414	3.50409
2472.65625	6.14701	0.87202	-4.16694	3.77545
2476.56250	2.92302	2.14599	-4.65928	1.35743
2480.46875	1.31077	0.26668	-4.03591	2.43371
2484.37500	2.92178	0.15835	-4.33596	6.10170
2488.28125	6.54738	2.50471	-5.15647	5.84956
2492.18750	8.15831	2.96500	-5.27289	6.84571
2496.09375	7.35168	1.32031	-5.88331	2.12668
2500.00000	7.35083	-0.24256	-7.79364	-2.68185
2503.90625	7.75293	-1.11682	-6.44219	-0.23233
2507.81250	6.94623	-1.47754	-5.91114	2.17012
2511.71875	9.76593	-0.17471	-4.35952	1.85522
2515.62500	11.37688	3.73275	-1.04547	-3.97553
2519.53125	11.77906	6.10286	-4.29154	-8.21339
2523.43750	8.55486	2.02911	-5.74141	-9.37420
2527.34375	5.33076	1.78085	-3.86162	-12.76939
2531.25000	6.53898	3.13549	-3.84665	-14.41450
2535.15625	4.12084	1.72740	-3.84545	-17.34965
2539.06250	1.70282	1.97877	-3.19751	-18.19169
2542.96875	-1.92403	1.13583	-4.24615	-17.69938
2546.87500	-3.13324	0.99661	-5.05277	-22.04459
2550.78125	0.08986	3.22321	-2.52805	-21.81329
2554.68750	-0.71635	2.95939	-3.40471	-21.47367
2558.59375	0.08915	0.68357	-5.71794	-21.73978
2562.50000	8.55038	1.84597	-5.17759	-18.76439
2566.40625	8.95307	2.21298	-5.85879	-20.01482
2570.31250	5.32642	-0.31670	-4.43565	-22.75592
2574.21875	7.34082	-2.24244	-5.36538	-23.59852
2578.12500	8.54938	1.01004	-5.00103	-21.67992
2582.03125	6.93747	0.53483	-3.69791	-20.22793
2585.93750	4.92253	0.59420	-1.44472	-19.57414
2589.84375	1.29593	0.16911	0.50137	-22.07483
2593.75000	-1.12189	-3.00012	-1.67021	-22.51352
2597.65625	0.89260	-0.26394	-1.44803	-19.22274
2601.56250	-1.52508	-2.79551	-0.61066	-20.88515
2605.46875	-1.52519	-3.45677	-1.88395	-20.32110
2609.37500	0.89224	-2.57388	0.19210	-18.15606
2613.28125	0.48919	-5.35864	1.63464	-19.02201
2617.18750	1.69784	-2.73411	0.91258	-17.18995
2621.09375	1.69766	-0.89021	1.66899	-18.32199
2625.00000	2.90616	0.93947	2.09121	-19.03392
2628.90625	0.48835	1.92851	0.67829	-23.08573
2632.81250	-3.13833	0.75363	-0.69097	-27.22453
2636.71875	-3.13861	-0.75845	1.27601	-24.85006
2640.62500	-3.13894	0.20896	0.72624	-23.01826
2644.53125	-1.12462	1.29260	-1.20324	-26.99662
2648.43750	-0.31907	-1.63689	-2.47437	-25.98262
2652.34375	-2.73704	-3.60276	-3.81389	-23.34455
2656.25000	-0.72271	-1.99237	-2.77457	-25.68211
2660.15625	-1.12597	-1.91361	-2.22724	-24.09723
2664.06250	-5.15556	-2.39663	-2.90140	-23.25840
2667.96875	0.88811	-1.18351	-5.64125	-21.60662
2671.87500	6.93186	0.10524	-5.31925	-15.84053
2675.78125	1.69353	-0.79408	0.44578	-18.88012
2679.68750	-0.72432	-1.61444	0.46654	-24.78563
2683.59375	-1.93335	-0.45642	-0.58441	-25.95397
2687.50000	-4.75408	-0.74197	-3.58591	-32.52104
2691.40625	-3.94848	-0.61519	-5.20958	-34.92905
2695.31250	-7.17222	0.01570	-1.15110	-32.64815
2699.21875	-5.15786	0.70529	0.34856	-28.30950
2703.12500	-1.12887	2.68216	-1.90590	-22.19235
2707.03125	-2.33803	0.89529	-4.77100	-19.23804
2710.93750	1.69096	-0.12517	-4.69626	-16.13824
2714.84375	2.89932	0.43663	-1.92455	-14.20108
2718.75000	0.48137	0.21238	-0.56406	-13.71876
2722.65625	-1.53369	0.97664	-4.44601	-15.19993
2726.56250	-2.33998	-1.91359	-4.76499	-18.02106
2730.46875	-2.34036	-4.87398	-2.57322	-20.30730
2734.37500	-4.75827	-2.35254	-4.29329	-17.93252
2738.28125	-5.96744	2.14646	-2.67242	-14.86126
2742.18750	-3.55023	3.69624	0.25899	-14.24704
2746.09375	-2.74476	3.32185	-0.34491	-14.36456
2750.00000	-3.55099	2.86556	-2.06651	-17.61602
2753.90625	-0.73088	2.92944	-1.40881	-20.46989
2757.81250	-1.13421	4.89738	-2.34832	-24.48556
2761.71875	-3.55215	3.18717	-3.50259	-27.39547
2765.62500	-3.14968	0.48400	-2.79288	-28.41585
2769.53125	-1.13544	1.33273	-4.79046	-28.20863
2773.43750	-0.73289	0.96977	-4.95793	-25.43751
2777.34375	-0.33038	1.61643	-3.61981	-21.23771
2781.25000	1.28087	1.06315	-6.46092	-17.57917
2785.15625	0.87750	-0.35375	-6.06474	-17.46562
2789.06250	-1.54048	0.59914	-6.71827	-17.02756
2792.96875	-2.34681	1.03465	-6.88402	-14.29750
2796.87500	-2.75014	-0.84531	-6.48591	-15.19130
2800.78125	-5.16817	-1.46471	-7.00149	-12.60303
2804.68750	-1.94511	0.00339	-4.11577	-8.91426
2808.59375	-1.94551	-1.35174	-2.61402	-10.66363
2812.50000	-3.15471	-1.30988	-1.95112	-8.80467
2816.40625	-1.14043	0.33320	-2.08132	-7.95791
2820.31250	1.67974	-1.17097	-2.70415	-9.64978
2824.21875	2.08221	-1.26446	-3.79461	-5.18149
2828.12500	-3.96216	-1.29813	-5.77625	-6.69789
2832.03125	-1.94793	-1.23050	-4.26431	-6.94171
2835.93750	4.49853	-0.48861	-1.28494	-0.74636
2839.84375	5.70686	-0.06816	-0.41597	-0.66395
2843.75000	7.72103	1.08183	0.94420	-3.04654
2847.65625	10.13805	1.96739	-1.70119	-2.71165
2851.56250	7.71992	1.67385	-3.34999	-1.04996
2855.46875	6.10762	-0.08717	-5.30569	-4.03220
2859.37500	10.94225	-1.78059	-5.37261	-4.58616
2863.28125	13.35915	-1.82107	-0.37378	-0.49746
2867.18750	10.53799	-2.43567	-1.26899	2.90782
2871.09375	5.70217	-0.65789	-3.64260	6.45672
2875.00000	1.26924	0.32821	-2.86156	8.37667
2878.90625	-1.14905	-2.27727	0.15749	8.80128
2882.81250	-3.97022	-2.31590	1.92405	4.07472
2886.71875	-2.76206	-1.61436	1.16036	1.69946
2890.62500	-2.76267	-2.98945	-0.31014	1.88152
2894.53125	-5.18089	-3.27195	-4.43009	3.44163
2898.43750	-7.59908	-3.16778	-4.77626	7.26205
2902.34375	-8.00255	-2.81836	-5.85981	5.02633
2906.25000	-5.18264	-1.21006	-4.48711	7.76625
2910.15625	-7.19788	-3.30822	-4.63704	8.19539
2914.06250	-7.19850	-4.44172	-7.99772	3.72947
2917.96875	-3.97563	-0.82435	-6.87516	5.70339
2921.87500	-1.15573	1.50851	-7.20269	6.38344
2925.78125	0.05248	1.19430	-6.52637	2.97543
2929.68750	-5.58909	-0.81065	-4.94101	-2.80471
2933.59375	-7.20141	-5.59983	-7.11909	-5.26341
2937.50000	-5.59023	-3.30435	-8.15247	-7.15863
2941.40625	-6.39673	0.19043	-8.14610	-10.39239
2945.31250	-2.77090	-1.25109	-6.97216	-12.67395
2949.21875	0.45199	-0.73664	-7.67154	-14.19292
2953.12500	-2.77202	-1.91229	-8.64613	-11.84927
2957.03125	-3.98138	-2.14483	-8.60719	-13.99842
2960.93750	-1.56434	-1.53203	-7.88161	-13.87561
2964.84375	-1.16201	-1.29282	-7.43547	-15.41062
2968.75000	-1.56547	-0.67037	-8.39863	-16.69965
2972.65625	-2.37193	0.17236	-7.34281	-14.01041
2976.56250	-5.19298	-0.56861	-7.83536	-15.21932
2980.46875	-2.37308	-0.43349	-7.21218	-17.76904
2984.37500	-2.77654	-2.55680	-3.48304	-16.92112
2988.28125	-6.40349	-3.83708	-2.28898	-14.35214
2992.18750	-3.18059	-3.77985	-4.01716	-16.57880
2996.09375	-2.37528	-3.41025	-3.01595	-19.28249
