 	TP9	AF7	AF8	TP10	
-1000.00000	5.28980	3.62020	-5.03695	-1.87298
-996.09375	-1.41743	0.66406	-5.71664	-2.33682
-992.18750	-2.67021	-0.95002	-4.24409	-1.09569
-988.28125	5.21795	-0.54378	-1.37054	-0.47851
-984.37500	3.27425	-2.29019	-1.73706	3.12859
-980.46875	1.34814	-1.31473	-2.30714	1.83276
-976.56250	1.87306	-1.87082	-2.98897	0.18182
-972.65625	3.74306	-2.94015	-4.61141	1.71425
-968.75000	2.31657	-0.80895	-2.45503	1.83160
-964.84375	-3.99052	-2.62098	-2.08439	8.30558
-960.93750	2.23557	-4.62340	-1.58056	13.18176
-957.03125	7.58988	-3.60828	-2.28470	7.94441
-953.12500	6.94470	-0.51817	-5.39886	-1.50351
-949.21875	5.86111	1.33820	-4.34819	-4.31476
-945.31250	6.05801	-0.11467	-2.81926	-3.05054
-941.40625	5.93560	-0.66305	-2.04963	-4.49406
-937.50000	-2.40073	0.28964	-2.79554	-5.24187
-933.59375	-2.73530	2.28649	-2.98037	-2.28744
-929.68750	-1.87551	1.46263	-3.42618	-3.20109
-925.78125	-2.84325	0.39169	-3.13733	-5.55358
-921.87500	-0.84989	0.49471	-2.50403	-6.06761
-917.96875	-1.50658	-1.05318	-4.11640	-3.51836
-914.06250	3.71496	0.63923	-5.01159	0.16796
-910.15625	1.27016	3.59112	-3.72072	-1.27203
-906.25000	-3.29361	4.53698	-0.62268	-0.00726
-902.34375	-1.60156	2.47740	-3.34535	-1.61285
-898.43750	-2.22003	0.82765	-4.22981	-3.40767
-894.53125	0.10515	-0.62406	-3.03035	-2.19679
-890.62500	0.39157	-0.74031	-2.81641	-2.15218
-886.71875	3.09631	2.24551	-1.32123	-0.51237
-882.81250	2.87364	1.65941	-0.54349	-1.20372
-878.90625	3.91847	-2.12352	0.09003	-6.52407
-875.00000	2.14927	-2.71088	2.15817	-8.97998
-871.09375	-7.73301	-2.66929	0.09050	-7.04881
-867.18750	-7.04207	-1.24725	-2.01189	-4.24605
-863.28125	-7.57162	-2.36185	-2.15653	-4.84022
-859.37500	-10.89514	-3.05384	-2.03337	-7.63166
-855.46875	-3.85295	-1.59026	-3.95033	-8.09507
-851.56250	-0.94092	-0.98881	-3.46322	-3.46966
-847.65625	-5.90514	-2.72075	-1.08513	0.88196
-843.75000	-4.73299	-5.96009	-4.55796	-1.24005
-839.84375	-5.96711	-8.00456	-5.35934	-1.89731
-835.93750	-2.99390	-6.52774	-0.40184	4.08271
-832.03125	0.62230	-2.95311	1.42938	7.37760
-828.12500	2.88208	-0.16329	1.45641	9.23298
-824.21875	0.91290	-0.27160	1.92240	11.61197
-820.31250	3.79212	1.15854	0.59050	8.66200
-816.40625	11.17200	-1.00090	-0.49136	6.59880
-812.50000	5.41951	-2.51931	-0.54418	8.57028
-808.59375	1.99549	-1.23362	-0.83665	6.30364
-804.68750	1.71053	-1.81735	-2.05686	3.49674
-800.78125	-1.76562	-3.36428	-1.10480	1.88327
-796.87500	-5.27563	-3.54201	0.61827	-0.14601
-792.96875	-6.69468	-2.10552	3.91208	5.34700
-789.06250	-5.33937	0.51237	4.12102	7.81101
-785.15625	-0.32498	1.89212	0.02360	7.85900
-781.25000	-0.07763	2.20197	-0.77274	12.41737
-777.34375	-2.37468	-0.85150	1.31788	14.06619
-773.43750	3.36483	-2.51783	2.70985	11.00461
-769.53125	3.04089	-2.58382	-0.59611	8.51914
-765.62500	1.65712	-2.44163	-2.71668	4.95672
-761.71875	3.21381	-0.27302	-4.05290	-2.44773
-757.81250	2.54759	-1.38821	-5.64315	-4.75994
-753.90625	0.94670	-0.12955	-4.55388	-4.67712
-750.00000	-1.47011	-0.45180	-1.29101	-4.46369
-746.09375	-2.41599	-2.73277	-0.20613	-0.37330
-742.18750	3.27162	-1.52058	-2.48231	3.62393
-738.28125	7.07106	-1.11984	-3.33899	1.39524
-734.37500	4.58524	-0.98413	-0.95560	2.62352
-730.46875	-3.15635	-2.76435	0.82544	1.90492
-726.56250	0.75361	-0.59541	9.97110	5.97366
-722.65625	14.19758	2.48961	9.58115	13.70884
-718.75000	5.15047	-0.84922	-1.43748	2.71253
-714.84375	0.98402	-5.08011	1.01463	-2.14951
-710.93750	6.44546	-1.86782	4.94535	1.83896
-707.03125	-15.02343	-3.68775	1.62236	-14.27874
-703.12500	-41.77496	-2.74750	-3.72272	-45.12362
-699.21875	-59.62659	-2.99104	-4.77118	-69.30848
-695.31250	-78.75866	-8.78986	-9.52125	-89.51022
-691.40625	-93.94514	-6.62874	-11.49747	-106.60125
-687.50000	-108.17037	-2.74521	-11.55509	-123.17927
-683.59375	-120.72709	-1.92044	-9.75639	-128.95398
-679.68750	-122.79308	-3.91601	-7.69660	-128.04012
-675.78125	-122.22575	-4.85863	-6.77443	-130.92551
-671.87500	-119.38145	-1.33424	-5.79383	-131.21706
-667.96875	-111.46946	-1.39697	-7.80559	-130.13965
-664.06250	-109.03274	-2.68542	-8.11697	-124.55834
-660.15625	-109.80889	-0.80104	-10.21146	-119.49180
-656.25000	-101.21334	-0.13414	-9.27798	-113.10064
-652.34375	-90.81502	0.31478	-8.56772	-103.83911
-648.43750	-87.37347	1.96566	-15.33665	-101.23819
-644.53125	-78.01118	3.41842	-16.53392	-95.19609
-640.62500	-69.83365	1.52105	-12.71633	-83.95847
-636.71875	-64.47734	-3.47844	-7.35940	-69.48090
-632.81250	-43.70273	-2.89131	-3.29973	-54.28380
-628.90625	-32.65718	-2.33081	-2.72218	-44.53098
-625.00000	-29.67668	-4.96580	-2.77343	-37.23964
-621.09375	-20.59780	-4.60347	-5.53868	-25.87389
-617.18750	-15.64520	-4.00976	-4.64288	-14.97679
-613.28125	-9.87507	-5.31172	-1.27258	-10.35314
-609.37500	-4.13146	-7.03630	-3.00528	-6.35275
-605.46875	2.12556	-5.27537	-3.50365	-3.06855
-601.56250	6.87177	-5.06991	-3.58559	-0.03810
-597.65625	7.80919	-6.96334	-2.73803	6.89256
-593.75000	10.26587	-4.52877	-1.27773	14.25279
-589.84375	16.33766	-2.48325	-0.87705	19.34252
-585.93750	19.41094	-3.95910	0.61454	24.24187
-582.03125	25.46751	-5.11510	0.80009	26.18529
-578.12500	28.04542	-4.27750	0.77524	24.73309
-574.21875	23.57017	-4.16819	1.52021	27.59234
-570.31250	27.54321	-3.98565	1.64553	30.54255
-566.40625	31.04491	-3.83984	1.11778	26.96485
-562.50000	28.33821	-5.54389	-0.43904	27.81400
-558.59375	28.54130	-5.21683	0.66148	34.11010
-554.68750	36.48441	-3.82626	1.88383	35.70836
-550.78125	35.53070	-3.89012	2.94858	35.30731
-546.87500	25.74640	-3.71142	2.03352	32.90446
-542.96875	26.36195	-3.13222	-3.27278	33.05264
-539.06250	23.39734	-4.54040	-1.86786	33.81227
-535.15625	20.80298	-5.91918	1.02294	27.72047
-531.25000	23.78153	-3.81045	-1.80486	24.77406
-527.34375	23.66345	-2.36769	-1.47570	23.93134
-523.43750	22.35865	-3.11798	-0.04500	22.96376
-519.53125	19.86468	-2.64807	-3.18372	19.00261
-515.62500	19.23641	-2.78936	-4.68740	18.93883
-511.71875	21.71168	-0.12178	-3.75198	23.52302
-507.81250	16.73940	0.18848	-4.57716	23.01491
-503.90625	16.73112	-1.06916	-5.26131	24.14110
-500.00000	15.92693	-1.55181	-4.89568	24.33081
-496.09375	13.24895	-1.68749	-5.57545	23.86693
-492.18750	13.60784	-1.28704	-3.29713	23.09337
-488.28125	12.63133	-2.08974	-2.43830	20.88995
-484.37500	16.73143	-1.41875	-4.41664	20.06484
-480.46875	18.43158	0.36246	-4.98672	20.38067
-476.56250	18.55339	1.41792	-2.44517	22.35609
-472.65625	21.22904	2.36308	-2.05305	20.66503
-468.75000	19.39951	0.06188	-2.71723	17.96189
-464.84375	19.53914	0.26442	-2.74960	21.21246
-460.93750	20.52711	1.88820	-1.84294	24.07401
-457.03125	23.86666	-0.72315	0.27343	22.46302
-453.12500	18.38631	-0.85670	1.18841	22.28251
-449.21875	14.48228	1.80536	-0.17857	24.70940
-445.31250	16.69388	0.75532	-0.26150	23.15319
-441.40625	14.55691	0.20689	-0.70072	23.72436
-437.50000	16.29392	1.15946	1.37375	26.20006
-433.59375	16.36239	1.14148	0.78592	27.13991
-429.68750	16.01347	1.52629	-0.06293	25.82339
-425.78125	17.06045	0.85810	-0.98297	21.45630
-421.87500	14.21872	0.96105	-0.75264	22.95692
-417.96875	12.35322	1.42759	0.85830	24.29736
-414.06250	11.53078	0.70232	-0.03693	21.53679
-410.15625	11.10055	1.23647	-1.56670	24.52906
-406.25000	14.19243	2.18218	-1.28925	26.19677
-402.34375	11.45221	-0.28046	-1.19152	21.36772
-398.43750	14.45996	1.69598	0.34146	19.57283
-394.53125	13.56157	1.85590	-2.48839	15.94856
-390.62500	6.59516	-2.69274	-6.30387	13.97852
-386.71875	11.71732	-2.93052	-5.61459	16.82724
-382.81250	18.34436	-0.69627	-4.03101	22.17985
-378.90625	23.01544	0.75879	-5.00927	24.11228
-375.00000	25.67828	4.20052	-5.35881	24.07396
-371.09375	20.22812	5.45079	-3.80020	19.15532
-367.18750	17.29261	4.45508	-3.48503	14.70538
-363.28125	15.95712	4.95211	-3.22681	13.70836
-359.37500	10.21590	3.85710	-4.71541	8.90228
-355.46875	10.00524	2.09700	-6.22954	6.82711
-351.56250	10.49956	3.50420	-6.14546	5.00569
-347.65625	6.34110	2.98091	-4.97617	5.32796
-343.75000	6.30448	1.75602	-0.79337	8.04115
-339.84375	8.29375	2.12901	-1.99787	6.98093
-335.93750	7.23757	2.79991	-3.48729	9.73755
-332.03125	9.24201	3.55385	-2.46202	13.43534
-328.12500	10.29291	0.29954	-2.43508	13.67899
-324.21875	10.33832	0.59407	1.25428	13.64046
-320.31250	9.18819	0.81529	1.13106	13.10809
-316.40625	9.71825	-1.74720	-1.96552	15.07430
-312.50000	11.62143	-3.66870	-0.40664	15.43411
-308.59375	13.83836	-2.38313	0.91253	15.18227
-304.68750	14.35922	-1.35532	-1.11360	15.59881
-300.78125	9.27137	-5.31993	-1.77332	13.98547
-296.87500	8.58184	-7.10949	-1.25912	14.77674
-292.96875	14.41549	-4.06144	0.01995	16.64337
-289.06250	15.36790	-3.45832	1.03466	16.28686
-285.15625	11.51774	-5.30213	3.38404	15.52898
-281.25000	9.34744	-4.99240	5.00514	14.44629
-277.34375	9.06499	-2.00206	5.08104	16.09512
-273.43750	9.96929	-2.45971	5.26420	16.65996
-269.53125	8.43643	-2.92878	2.36107	10.54810
-265.62500	7.45549	-1.17497	0.24043	6.17986
-261.71875	6.59442	-2.22995	-0.29001	5.22228
-257.81250	5.92811	-2.53942	0.53728	6.13364
-253.90625	3.92425	-1.68382	-0.38816	4.20190
-250.00000	4.32791	0.41143	0.05415	4.41540
-246.09375	7.41126	1.35380	1.94489	7.69994
-242.18750	5.04015	0.14833	2.89206	6.86209
-238.28125	4.00433	0.14594	4.04998	3.42466
-234.37500	3.13014	-3.34472	4.41867	5.05594
-230.46875	2.64120	-5.93097	3.37916	5.14323
-226.56250	3.32762	-4.16513	0.83976	1.55632
-222.65625	5.48951	-2.28899	0.44973	5.26225
-218.75000	2.08338	-0.38986	2.72769	8.36859
-214.84375	4.76669	-0.59156	1.95633	3.90949
-210.93750	9.82518	-0.60283	1.05171	-0.16065
-207.03125	1.25000	-0.40823	-0.25666	-1.36996
-203.12500	-0.11699	-1.88564	0.03918	-2.39799
-199.21875	2.58081	-0.92054	1.81118	-4.01872
-195.31250	4.80405	-0.27257	1.89619	-6.89437
-191.40625	4.92896	-2.54383	1.12867	-12.30043
-187.50000	4.00036	-4.70439	-0.94370	-13.96997
-183.59375	1.91984	-3.87977	-2.36851	-13.29766
-179.68750	-1.75793	-1.44324	-2.72638	-10.77200
-175.78125	0.42111	-0.77431	-0.59548	-4.79281
-171.87500	1.25073	0.33234	-1.22665	-6.29314
-167.96875	-4.13401	0.26946	-5.25314	-8.43916
-164.06250	-1.29445	-1.42204	-3.54994	0.36563
-160.15625	6.79389	-2.35839	-2.42104	8.65568
-156.25000	6.92791	2.74068	-4.30810	2.15306
-152.34375	3.62666	6.00991	-7.22432	-5.10553
-148.43750	5.85946	5.64590	-8.35233	-3.31043
-144.53125	5.14858	2.26335	-6.32624	-2.50641
-140.62500	8.08816	0.76875	-4.12042	1.07557
-136.71875	12.23573	1.81313	-3.59873	1.85354
-132.81250	8.83456	-0.82334	-1.95678	0.53049
-128.90625	6.18062	-0.26297	0.63526	1.41891
-125.00000	6.34081	0.72824	0.98688	3.47221
-121.09375	6.95825	1.09051	-0.16677	3.95886
-117.18750	6.67286	0.87817	-0.07691	4.37983
-113.28125	3.98153	-0.42395	0.06992	4.16846
-109.37500	6.50178	1.07476	-2.06581	2.93086
-105.46875	9.13252	1.62680	-2.56424	5.81220
-101.56250	12.26715	1.83204	0.17425	8.84280
-97.65625	14.41342	3.16196	1.42469	9.32668
-93.75000	12.43797	1.56703	-2.75612	9.03133
-89.84375	15.68927	4.82119	-1.95255	7.67431
-85.93750	13.12152	7.37448	-2.07278	6.52971
-82.03125	8.70199	5.81536	-3.09602	5.65265
-78.12500	6.04177	5.44400	-1.10628	5.40920
-74.21875	-1.65687	4.34435	-3.18186	0.61284
-70.31250	-1.71297	2.91510	-2.65370	-2.07796
-66.40625	1.38588	2.65782	-2.37559	2.00014
-62.50000	-2.93243	4.57998	-1.91779	4.46116
-58.59375	-2.72929	4.10105	-0.81735	7.53385
-54.68750	-2.44179	1.05924	-0.80392	10.74405
-50.78125	2.64862	0.59236	-0.94803	14.37238
-46.87500	11.80214	1.57679	-5.08655	18.41659
-42.96875	14.83548	2.55875	-3.54305	20.98251
-39.06250	9.45330	0.34459	0.68229	14.89239
-35.15625	9.27661	0.17448	-1.66507	8.80074
-31.25000	10.24054	2.28305	-2.47831	13.91292
-27.34375	6.89907	0.09927	-0.94043	15.89073
-23.43750	10.42954	-1.85989	2.10189	16.13203
-19.53125	12.77072	-1.39010	1.38064	19.82653
-15.62500	6.90435	0.08020	-0.52600	14.92766
-11.71875	3.73858	-1.68457	-0.79946	13.87079
-7.81250	6.01911	-4.59780	-0.81884	18.19783
-3.90625	1.57859	-5.04972	2.12327	16.50347
0.00000	0.37150	-6.33842	2.89181	15.88745
3.90625	2.93164	-7.68298	0.19727	15.42371
7.81250	-0.73873	-5.67096	1.66970	14.65031
11.71875	-0.90932	-4.45914	3.73729	14.46169
15.62500	0.37035	-5.39998	2.16186	14.03963
19.53125	-2.76462	-6.03650	-1.63173	7.50579
23.43750	-3.44857	-7.39877	-3.92544	3.84030
27.34375	-6.01082	-8.87128	-4.74216	3.35815
31.25000	-6.22862	-7.14334	-3.79463	1.46095
35.15625	-4.07423	-5.32927	-2.61825	1.48814
39.06250	-2.28041	-2.09388	-3.32333	1.52928
42.96875	-0.55261	-2.69073	-3.22175	1.12709
46.87500	4.04018	-5.24195	-2.30678	3.36429
50.78125	8.19467	-1.37127	-1.25628	6.19406
54.68750	7.18262	0.39910	-1.33921	5.04069
58.59375	6.65717	-1.35834	-1.37559	8.02947
62.50000	7.99115	0.39993	-2.52460	10.50519
66.40625	11.68584	2.39652	-4.32126	11.44502
70.31250	15.76899	2.78118	-0.73791	14.96368
74.21875	18.02472	2.11284	-0.85214	15.43175
78.12500	15.58583	0.60389	-5.05411	13.30602
82.03125	14.52619	1.47326	-5.45784	8.60256
85.93750	16.92723	4.37421	-1.11500	10.27430
89.84375	13.67650	3.69950	-2.24187	9.64029
93.75000	10.72446	1.42165	-4.78503	5.26407
97.65625	8.79011	-0.63821	-3.47848	4.06146
101.56250	9.38029	-0.67654	-1.94556	0.65497
105.46875	10.09366	1.49789	0.46255	5.49229
109.37500	5.14191	-0.23032	1.48218	9.56626
113.28125	5.42899	-0.06534	-0.64918	6.77388
117.18750	10.84724	2.97467	0.12848	6.08254
121.09375	12.69777	2.41491	0.35891	5.19446
125.00000	9.31664	-0.18740	0.41227	5.96194
128.90625	5.47819	-1.75787	0.35912	7.89311
132.81250	6.16897	-1.14198	1.48006	9.89004
136.71875	4.83338	-0.24222	2.94700	10.10178
140.62500	5.53906	1.08015	-0.55632	9.72791
144.53125	6.13428	2.94637	-0.45877	11.68202
148.43750	1.79337	3.54751	1.23695	13.88982
152.34375	-1.15618	2.21822	-0.01143	8.57111
156.25000	-4.01335	-0.61857	-0.66381	7.65801
160.15625	-3.63583	0.15723	0.95223	9.82126
164.06250	-0.25975	1.23086	-0.13435	4.51926
167.96875	0.93888	1.17880	-1.52672	4.59072
171.87500	1.58688	3.96834	-1.09685	4.83447
175.78125	0.02063	3.85977	-3.45147	0.36376
179.68750	-2.74123	2.46917	-3.17179	3.05489
183.59375	-9.06098	2.72704	-3.04502	4.21522
187.50000	-7.15780	2.82007	-3.09788	0.94870
191.40625	-4.13496	2.49384	-2.18172	3.11442
195.31250	-8.04635	-0.10486	-3.80494	4.33692
199.21875	-7.09023	1.57149	-3.25592	6.34995
203.12500	-6.97389	1.79641	-1.13012	6.73837
207.03125	-7.99000	-4.02010	-1.05992	4.17282
210.93750	-6.23180	-3.41712	-1.25408	3.41345
214.84375	-10.08189	-0.82885	-2.53108	1.84979
218.75000	-13.46096	-0.92221	-2.11883	0.76719
222.65625	-10.92285	-1.96130	-0.83419	0.40144
226.56250	-6.79520	-1.21028	-2.66580	4.59269
230.46875	-4.70166	-0.47068	-1.94260	9.76299
234.37500	-4.87671	-1.53749	-2.85449	9.02113
238.28125	-4.12598	1.83961	-1.77325	6.85484
242.18750	-4.79224	2.73884	0.26275	6.15447
246.09375	-7.60198	-0.83794	-0.66286	3.81979
250.00000	-8.80997	-2.36915	-1.42939	2.42161
253.90625	-4.51785	-1.42691	-1.95643	0.87102
257.81250	-5.68016	-1.42376	0.60243	0.83895
261.71875	-9.53637	-1.42623	1.35729	1.02798
265.62500	-7.18713	-0.88780	0.51708	-1.37007
269.53125	-4.45257	-0.25066	-0.52252	-4.90907
273.43750	-7.39250	-1.30544	-1.04734	-7.69007
277.34375	-8.85694	-2.25000	-1.03455	-8.81925
281.25000	-7.83086	-0.35103	1.64630	-5.71295
285.15625	-7.16223	-0.14994	3.29248	-0.90458
289.06250	-5.73013	-0.96727	4.40242	5.50152
292.96875	-4.63500	-0.77278	2.69103	5.90401
296.87500	-2.77849	-1.44447	-0.63956	2.45842
300.78125	-1.28954	-1.68827	1.13236	4.46411
304.68750	-2.28983	-0.63757	0.81433	5.21483
308.59375	-4.17964	-2.10308	-2.77377	4.64391
312.50000	-0.27314	-2.65209	-2.42866	4.18319
316.40625	2.48146	-0.61889	-1.03301	2.84068
320.31250	-0.39055	-1.00300	0.22072	4.15752
324.21875	-1.03210	-0.33415	1.54570	2.48094
328.12500	-1.00836	1.98118	2.92911	0.17473
332.03125	-0.75215	1.11233	4.14064	0.44625
335.93750	-0.33012	1.03241	3.02319	3.61007
339.84375	-0.70328	0.49890	0.92861	1.82683
343.75000	-3.79261	-1.25208	-1.76446	-5.07867
347.65625	-5.48218	-2.01220	-3.06902	-5.08453
351.56250	-2.44354	-0.36167	-1.77953	-6.51291
355.46875	-0.73684	3.50840	-2.17113	-6.51480
359.37500	-1.82658	1.61076	-1.57710	1.09652
363.28125	-2.11121	-3.79189	-1.45845	0.66573
367.18750	0.53162	-2.39918	-1.42833	2.16317
371.09375	1.90692	-1.03310	0.76071	5.87210
375.00000	-0.75344	-1.65370	1.91815	4.29902
378.90625	-1.74772	-2.09748	-1.65317	4.38279
382.81250	-0.82441	-1.50411	-3.98098	2.78911
386.71875	-0.29227	-1.19460	-1.81959	0.16011
390.62500	1.42212	-1.71066	-0.73196	0.13127
394.53125	3.24694	-1.56171	-1.23051	0.19207
398.43750	-0.46835	0.25516	-0.90974	-2.82137
402.34375	-5.97778	-0.02678	-2.47988	-7.17271
406.25000	-7.55038	0.39281	-1.82557	-7.87096
410.15625	-7.92545	1.63218	-1.02214	-6.81036
414.06250	-9.28439	-1.45564	-1.54534	-7.55202
417.96875	-7.25706	-3.41785	1.05765	-6.81726
421.87500	-2.26149	-5.40103	3.45023	-5.85184
425.78125	1.32190	-5.29202	2.98624	-2.99243
429.68750	0.86277	-3.90097	2.30549	-3.26563
433.59375	1.54397	-3.75542	1.37473	-4.42558
437.50000	-1.56560	-3.84795	2.63835	-2.77038
441.40625	-2.97432	-3.11826	2.52992	-2.92106
445.31250	1.74534	-0.11618	2.54327	-0.51680
449.21875	1.19461	0.22264	1.99619	-2.93236
453.12500	0.67779	-1.61354	0.67804	-7.75266
457.03125	1.69642	-3.85508	0.20684	-7.60428
460.93750	2.76109	-3.24885	-0.80590	-3.62116
464.84375	4.19603	-0.59860	-0.73579	-1.65423
468.75000	1.53353	-0.90778	-3.56374	-2.58597
472.65625	1.81830	-1.88289	-2.42889	-2.21981
476.56250	2.52814	0.59000	-1.40123	-4.79904
480.46875	0.83989	3.88020	-2.92841	-5.53679
484.37500	1.42024	2.52983	-2.82055	-3.58587
488.28125	3.89524	0.36191	-1.48233	-0.21053
492.18750	4.96675	1.88072	0.91576	-0.71871
496.09375	4.55530	-0.98897	2.24608	-3.21899
500.00000	9.39194	-5.50124	3.82034	4.22346
503.90625	13.56355	-2.41378	3.54329	2.95375
507.81250	1.83426	4.03032	0.58334	-13.93706
511.71875	-5.58928	2.42149	0.23325	-16.14042
515.62500	-7.53339	0.27172	-2.14822	-11.32452
519.53125	-10.66859	2.05258	-2.71848	-17.05251
523.43750	-9.74095	2.70487	-0.98301	-18.30052
527.34375	-11.49755	1.23217	-1.39689	-14.35045
531.25000	-11.71540	2.15417	-1.25539	-13.42721
535.15625	-15.20213	2.75935	-1.69084	-14.20594
539.06250	-17.43766	1.15949	-0.78434	-17.38831
542.96875	-14.90402	0.15957	-1.89161	-19.80518
546.87500	-7.49067	0.02586	-3.79721	-14.74747
550.78125	-4.14193	3.09057	-3.14973	-10.70878
554.68750	-4.75093	4.86076	-1.62103	-9.04154
558.59375	-5.27630	3.10326	-2.46335	-10.88782
562.50000	-4.74818	0.83209	-5.62710	-14.05309
566.40625	-5.08278	-1.60371	-5.81216	-12.30729
570.31250	-5.83474	-2.02508	-5.45228	-8.78855
574.21875	-2.37025	1.33581	-3.55197	-6.30580
578.12500	-5.21206	1.03553	-0.50131	-8.43151
582.03125	-9.89809	-3.33333	-1.71102	-9.91148
585.93750	-7.09421	-4.86475	-2.20352	-7.83684
589.84375	-3.49511	-3.92788	-0.51002	-8.06790
593.75000	-1.61205	-3.38532	1.37896	-6.80313
597.65625	-0.72594	-3.83357	-0.53805	-8.81155
601.56250	-0.13572	-2.66331	-2.22866	-10.60633
605.46875	-3.45176	-2.10074	-2.64113	-12.21587
609.37500	-5.98591	-4.23206	-2.42740	-14.58870
613.28125	-4.89295	-2.45546	-2.54417	-14.96333
617.18750	-5.51871	-1.83319	-3.37827	-18.07207
621.09375	-2.45931	-1.18430	-4.35674	-16.13957
625.00000	-2.21405	-0.96629	-4.30348	-11.74554
628.90625	-2.42604	-1.32799	-4.75968	-9.00831
632.81250	0.27945	0.89949	-2.83293	-8.22003
636.71875	-4.27958	0.59032	-0.96318	-10.02285
640.62500	-5.58854	-1.31082	-3.66075	-11.20242
644.53125	-2.17273	-0.25061	-5.57794	-13.27748
648.43750	-1.27548	1.15626	-5.49402	-12.27833
652.34375	-3.01623	-0.57611	-5.13080	-9.13548
656.25000	-5.87337	-0.59246	-2.15693	-12.46614
660.15625	-6.30164	-1.02558	-0.94388	-9.49695
664.06250	-4.13432	-3.57841	-1.62766	-5.12852
667.96875	-1.32398	-3.63059	-1.81125	-6.66871
671.87500	0.93578	-2.85583	-4.20204	-9.24546
675.78125	0.17543	-6.59094	-6.15386	-7.67213
679.68750	6.68101	-7.98167	-4.66547	3.48059
683.59375	12.04633	-2.08292	-0.50944	9.87908
687.50000	6.69684	-0.37826	3.06395	6.20970
691.40625	6.49624	-1.51054	1.56250	6.76381
695.31250	21.52265	2.74049	-0.46376	14.43318
699.21875	30.13448	5.22254	1.29393	20.47556
703.12500	27.83323	1.01513	5.03149	21.66987
707.03125	30.84644	1.24238	4.29572	23.93954
710.93750	30.99301	1.44242	6.51908	32.85053
714.84375	26.73989	-2.81927	6.45073	33.30156
718.75000	31.01652	-2.50986	4.84829	31.81607
722.65625	31.13705	-0.32561	6.13276	31.85321
726.56250	28.41501	0.42529	3.89815	26.77707
730.46875	27.68801	-0.04403	2.20365	24.69459
734.37500	27.91581	0.50081	3.70926	23.95283
738.28125	27.05480	1.86316	5.19331	24.20409
742.18750	27.59729	3.56810	4.00578	23.10075
746.09375	27.60801	3.21469	4.28895	21.57196
750.00000	26.39999	0.07154	1.91057	19.36786
753.90625	25.05113	0.20782	-0.63119	16.60854
757.81250	23.08307	1.01677	0.31586	15.77067
761.71875	25.27082	0.61127	0.26481	15.95967
765.62500	26.00840	-0.86505	-0.57550	11.14407
769.53125	22.69900	-2.64563	-1.61520	5.59042
773.43750	22.57956	0.73175	-1.33427	6.83874
777.34375	23.12976	0.99592	1.09602	7.72426
781.25000	21.73835	0.47722	0.55333	8.41307
785.15625	19.98942	1.08113	0.58764	8.38629
789.06250	18.19811	2.27842	2.10051	11.16607
792.96875	14.86107	5.29331	2.00071	9.15105
796.87500	13.49409	3.41277	0.28173	4.49669
800.78125	14.58022	2.36298	0.03892	3.27897
804.68750	14.78880	1.80191	2.13837	4.43266
808.59375	13.30195	-0.06663	1.77362	4.26471
812.50000	16.40269	3.01068	3.73033	4.20693
816.40625	19.15734	4.64085	6.73766	3.67038
820.31250	17.89715	3.45080	3.96200	2.97258
824.21875	15.24097	1.70195	-0.35417	2.10193
828.12500	11.63832	2.40541	-0.58258	-1.81590
832.03125	10.28289	4.35700	-0.17697	-5.57361
835.93750	15.13719	3.87400	-1.29442	-6.03614
839.84375	18.79330	2.13159	-1.37448	-5.80464
843.75000	13.68924	1.99227	-3.26171	-11.09836
847.65625	10.38798	2.44080	-4.56640	-12.31290
851.56250	4.96507	0.86786	-3.67986	-9.30895
855.46875	0.62784	-2.51495	-2.86274	-8.90771
859.37500	3.56741	-2.80090	-0.25417	-7.74322
863.28125	4.08862	-1.75670	-2.95620	-6.56224
867.18750	5.52268	-2.37870	-3.73196	-7.48230
871.09375	9.71845	-1.81852	-1.14011	-6.59381
875.00000	11.89326	0.78420	1.62892	-4.13755
878.90625	7.67552	-0.06254	1.28094	-5.66544
882.81250	6.58418	2.14253	-0.64404	-4.03572
886.71875	7.11628	4.06365	-0.09453	-0.62076
890.62500	8.83064	3.95042	-1.02166	-4.27590
894.53125	11.86424	5.71106	1.70315	-4.61802
898.43750	7.74605	3.90145	2.42680	-4.00501
902.34375	5.05713	0.79892	-0.75520	-4.32694
906.25000	5.49920	-0.39327	0.30194	-4.21929
910.15625	7.94464	0.44307	-0.10348	-1.14405
914.06250	11.01794	1.38447	1.38780	-1.88563
917.96875	9.01597	-0.98072	1.57317	-6.38898
921.87500	9.98216	-1.35229	-0.46656	-6.63221
925.78125	11.14796	0.77129	-0.52772	-9.81674
929.68750	10.68886	0.14760	0.80619	-11.29862
933.59375	8.14661	-0.10994	2.69585	-10.04094
937.50000	1.00779	-1.81429	-0.06997	-9.99744
941.40625	-4.02716	-1.08470	0.62739	-10.14805
945.31250	-3.73969	0.30551	2.25249	-5.32613
949.21875	-1.46988	-1.37039	1.70526	-2.90648
953.12500	-0.37499	-3.60962	1.99876	-5.30910
957.03125	-4.19152	-0.21026	1.93038	-7.57821
960.93750	-7.96194	-0.81293	0.91746	-7.62426
964.84375	-6.92980	-4.20664	1.79336	-6.46313
968.75000	-3.95120	-2.90421	3.39753	-6.58889
972.65625	-1.65164	-1.86479	3.32347	-3.80512
976.56250	-2.95643	-3.42133	4.75392	-3.16083
980.46875	-5.04748	-4.16059	0.80903	-9.94237
984.37500	1.57695	-1.88463	-2.70955	-11.61774
988.28125	4.45510	-2.03792	-1.77432	-11.86855
992.18750	-2.53180	-2.13094	-2.59978	-13.98821
996.09375	-2.54005	-0.16558	-3.28420	-10.84723
1000.00000	-0.52373	-0.24572	-2.11297	-7.03100
1003.90625	-1.99287	-2.79932	-0.37544	-5.48003
1007.81250	-5.26039	-1.99628	-0.91783	-6.65633
1011.71875	-2.20759	-0.78470	-0.86507	-5.63607
1015.62500	3.90718	-0.51703	-0.02320	-5.65514
1019.53125	3.59280	0.05503	-2.60823	-6.14486
1023.43750	3.71480	1.51310	-2.48454	-4.16917
1027.34375	3.16724	0.84621	-2.89854	-7.87455
1031.25000	-1.07965	-1.05245	-5.17479	-13.80072
1035.15625	-4.56612	-0.04438	-2.38692	-13.77328
1039.06250	-8.41313	-0.43557	-0.67470	-15.74649
1042.96875	-8.29678	0.17621	-0.17031	-18.16296
1046.87500	-9.34466	2.05704	-0.46440	-17.53716
1050.78125	-11.63676	-2.93695	-1.02579	-17.52748
1054.68750	-10.23084	-6.00199	-1.10889	-15.05400
1058.59375	-8.33835	-3.73028	-2.35427	-12.46776
1062.50000	-4.58651	-1.56935	0.92871	-10.79752
1066.40625	-6.12966	-2.39348	1.54944	-13.08081
1070.31250	-6.07558	-4.02372	1.10329	-13.59110
1074.21875	-1.40209	-2.67754	1.79475	-10.70513
1078.12500	-0.21455	-1.36624	-0.39280	-9.20418
1082.03125	-0.87116	0.30874	0.00909	-7.46045
1085.93750	-1.69347	1.59776	1.12826	-4.57971
1089.84375	-2.92943	-3.10655	-0.80473	-4.00466
1093.75000	0.16259	-4.57875	-0.52756	-1.53086
1097.65625	2.66061	-2.20662	-0.83299	0.49022
1101.56250	3.65386	-3.05105	0.69972	-1.30436
1105.46875	-0.06493	-2.89157	-0.92161	-6.94302
1109.37500	-1.39016	-1.39658	-4.73738	-11.33039
1113.28125	-0.29719	-1.23177	-3.64552	-11.70495
1117.18750	-4.14624	-1.01254	-1.65928	-11.59022
1121.09375	-5.51898	-3.18425	-1.83199	-14.49273
1125.00000	-2.85602	-4.17510	-3.39061	-16.54553
1128.90625	-3.87382	-4.13404	-3.44398	-17.43463
1132.81250	-7.21219	-3.51845	-3.12911	-14.63163
1136.71875	-2.90664	-0.60429	-2.87119	-7.97284
1140.62500	-0.58924	-0.89387	-2.74835	-6.33185
1144.53125	-2.81445	-3.86308	-1.84518	-8.00390
1148.43750	-1.51426	-2.05331	1.46201	-4.58712
1152.34375	0.77420	-1.77119	1.42222	-3.05582
1156.25000	0.33468	-2.99640	0.36665	-4.37184
1160.15625	1.11519	-1.41500	-1.64397	-4.62608
1164.06250	9.32644	-0.34161	-3.13368	-9.12205
1167.96875	5.28701	-1.60271	-2.91454	-11.46802
1171.87500	-3.73523	-2.03686	-2.48493	-7.19493
1175.78125	-1.67512	-2.14568	-2.82520	-8.44212
1179.68750	-2.42236	-3.13366	-2.54576	-7.76549
1183.59375	-2.69812	-3.68189	-1.21037	-3.38160
1187.50000	1.62272	-2.38032	-0.86056	-1.40998
1191.40625	2.63088	-3.91561	-0.75047	-1.66171
1195.31250	-1.28050	-5.30575	-1.97104	-1.24507
1199.21875	0.48144	-4.03263	-3.43689	0.36517
1203.12500	3.01542	-4.21089	-3.72882	-0.85798
1207.03125	3.61103	-4.38670	-2.85297	-3.02038
1210.93750	4.56348	-3.38103	-1.43556	-0.95901
1214.84375	2.32521	-2.80765	-1.50402	-3.73114
1218.75000	-0.65076	-3.70712	-1.89782	-5.61932
1222.65625	-2.14176	-2.32893	-3.43385	-4.37310
1226.56250	-5.26668	-2.38405	-3.65389	-5.01672
1230.46875	-4.78475	-5.67402	-2.93091	-2.66666
1234.37500	-4.95974	-4.72646	-5.05171	-1.79647
1238.28125	-6.62653	-3.76720	-5.58241	-7.58891
1242.18750	-2.05464	-3.27121	-3.54659	-6.67737
1246.09375	-2.04383	-2.41602	-1.65181	-2.56495
1250.00000	4.00098	0.08173	0.40191	-1.94830
1253.90625	6.27847	1.02373	1.88938	-2.28990
1257.81250	-3.74828	-0.98797	2.43332	-6.75399
1261.71875	-1.56063	-1.79660	1.57627	-8.57954
1265.62500	2.80331	-3.27302	-0.87585	-8.15691
1269.53125	1.10558	-3.44207	-0.30398	-9.68121
1273.43750	-0.22272	-3.28833	-1.23199	-7.62689
1277.34375	-0.07546	-2.62144	-1.62233	-7.54712
1281.25000	1.35373	0.08315	-0.55340	-10.08165
1285.15625	-1.60397	-2.53648	0.28661	-10.51127
1289.06250	-2.99241	-5.36863	-1.02123	-10.14893
1292.96875	-0.68841	-4.77150	-5.95632	-7.73165
1296.87500	2.37683	-2.62297	-5.66080	-5.53606
1300.78125	4.67164	-4.07582	-6.70967	-7.96248
1304.68750	11.32706	-5.04000	-7.83377	-5.59996
1308.59375	15.07834	-2.47646	-2.55759	3.49964
1312.50000	1.65892	-6.65205	0.20490	-4.21373
1316.40625	-6.46560	-9.05125	2.40618	-10.79411
1320.31250	-12.15808	-12.65910	2.45093	-16.32699
1324.21875	-14.81432	-14.81100	1.76096	-19.21222
1328.12500	-8.74669	-12.09305	1.93531	-16.28021
1332.03125	-8.89344	-12.55921	0.32608	-19.23202
1335.93750	-13.30669	-13.44525	1.22304	-18.48569
1339.84375	-13.27697	-12.77029	-0.06592	-21.07466
1343.75000	-12.33713	-12.10386	-1.55041	-21.13018
1347.65625	-9.99739	-12.05844	-0.43762	-17.91249
1351.56250	-6.95877	-10.40810	-1.56587	-16.92309
1355.46875	-4.84923	-9.76179	-3.97235	-16.92477
1359.37500	-6.34199	-8.43622	-3.37854	-14.14850
1363.28125	-4.20900	-6.98925	-1.64843	-13.77328
1367.18750	-1.56625	-8.01438	-2.82727	-14.69326
1371.09375	5.04709	-9.06608	-4.26481	-12.59599
1375.00000	5.20713	-7.26940	-1.09304	-7.31914
1378.90625	-4.24875	-9.32512	2.18525	-4.41478
1382.81250	-1.71370	-10.34367	1.87183	-3.59076
1386.71875	0.83309	-8.01981	1.21242	-5.41377
1390.62500	5.36796	-4.10386	0.28516	-9.06877
1394.53125	10.81916	-1.94047	0.59227	-9.41074
1398.43750	3.88050	-1.33263	2.52460	-5.97708
1402.34375	0.78865	-1.21187	0.14834	-6.70184
1406.25000	0.42488	-5.62767	-2.42104	-5.38528
1410.15625	6.49664	-5.59734	-2.82657	-1.10113
1414.06250	14.40499	-3.85028	-2.54415	-0.23093
1417.96875	7.16486	-4.20096	-1.15013	-0.70488
1421.87500	3.69882	-4.16973	1.24217	1.87243
1425.78125	2.04408	-5.26974	1.58382	0.70261
1429.68750	3.19675	-4.28179	1.70878	-1.98801
1433.59375	5.48965	-3.73360	-1.23687	-2.74490
1437.50000	5.60354	-1.81176	-2.79404	-0.68670
1441.40625	8.62710	-0.27650	-2.90269	0.77442
1445.31250	9.72037	-2.10985	-2.88950	-0.85048
1449.21875	-0.90364	-2.98012	-2.22808	0.36041
1453.12500	-4.24100	-4.41360	-3.14350	1.58417
1457.03125	3.62739	-2.22321	0.01140	0.12093
1460.93750	1.87157	-2.42310	0.20717	-3.95436
1464.84375	-3.14034	-4.20525	-0.12589	-3.19614
1468.75000	0.24118	-3.30581	0.67224	0.30457
1472.65625	2.54071	-3.87826	-2.62537	-1.74678
1476.56250	-1.18165	-2.61442	-2.40388	-1.10238
1480.46875	-3.27278	-2.14503	0.50088	5.81579
1484.37500	5.36630	-1.07802	-0.60023	8.97577
1488.28125	7.84155	-0.02268	-0.06809	5.09860
1492.18750	0.45175	-2.53346	-0.08782	2.97899
1496.09375	2.86104	-2.58290	0.83939	4.10533
1500.00000	3.66859	-2.26024	2.41345	2.68355
1503.90625	3.40815	-1.99350	0.92738	-2.21224
1507.81250	4.97584	-0.38476	0.78770	-0.16504
1511.71875	3.99938	0.42373	0.03444	2.46700
1515.62500	4.47308	0.28842	-1.54135	-0.37251
1519.53125	1.33809	-0.34855	-0.90303	-2.47397
1523.43750	1.86288	0.70639	3.65272	-3.31884
1527.34375	-0.29656	-1.16941	2.43278	-5.81555
1531.25000	-5.75257	-1.85945	-0.24642	-4.89204
1535.15625	-1.98660	1.96889	2.13842	-3.65589
1539.06250	-2.61039	2.38339	2.23885	-3.21169
1542.96875	-3.30019	-2.64607	1.93722	0.01270
1546.87500	-2.33372	-6.00356	-0.77454	-1.37632
1550.78125	2.22372	-0.11855	-1.33606	-0.15803
1554.68750	2.42057	3.26315	-1.01643	-0.50523
1558.59375	1.89526	1.10244	-3.06776	-10.00708
1562.50000	-1.20296	-0.76600	-4.21710	-11.15756
1566.40625	-7.58144	-0.78450	-3.99944	-8.20285
1570.31250	-3.49824	-0.40022	-4.84865	-10.32505
1574.21875	-2.04839	-0.66598	-6.17195	-9.45386
1578.12500	-1.26378	-0.16065	-3.52445	-7.14719
1582.03125	0.49710	-0.09750	-2.31678	-3.79188
1585.93750	-3.54875	-0.42037	0.01101	-4.13461
1589.84375	-5.18771	-0.69255	1.70429	-3.55963
1593.75000	-1.69291	-3.37368	-1.24210	-4.30929
1597.65625	-0.40383	-3.82216	-0.33883	-5.51167
1601.56250	0.58928	-0.63746	0.38790	-4.08284
1605.46875	6.13781	4.35712	-0.02483	0.35171
1609.37500	6.82720	2.22559	-0.21432	2.41126
1613.28125	6.30848	-2.44488	-4.36066	0.02206
1617.18750	7.29457	-1.01697	-4.79213	1.34564
1621.09375	10.75696	1.64637	-1.33859	4.08417
1625.00000	10.19640	1.46126	0.32619	1.62847
1628.90625	5.14927	-0.10948	0.27271	-1.67812
1632.81250	5.03425	0.90897	1.39334	0.31905
1636.71875	6.92224	3.42014	2.85995	-1.88650
1640.62500	7.22501	4.74216	2.17678	-1.05125
1644.53125	9.02909	4.19037	5.49744	3.32072
1648.43750	9.92632	2.77655	4.37231	2.30538
1652.34375	6.97667	1.04394	0.70593	2.22495
1656.25000	14.59568	0.62440	2.47080	3.32670
1660.15625	14.97326	1.39982	3.68352	3.07255
1664.06250	9.88777	1.26427	2.99955	5.42647
1667.96875	11.89224	0.40599	2.00979	6.70691
1671.87500	12.94317	-0.43123	0.82753	3.32443
1675.78125	13.39159	2.68331	0.89016	3.68908
1679.68750	7.00337	0.48652	0.36358	1.94815
1683.59375	14.38331	-0.06188	-2.33046	4.31748
1687.50000	19.91287	1.23955	-1.57781	11.93025
1691.40625	1.17752	-4.32518	4.17318	4.02299
1695.31250	-9.58363	-8.13299	3.35549	-12.08039
1699.21875	-10.23925	-3.63656	-0.52803	-14.49944
1703.12500	-10.92875	-0.18861	1.19459	-15.31965
1707.03125	-12.34778	-1.57333	0.86154	-19.49672
1710.93750	-15.82760	-4.19411	0.66716	-21.06177
1714.84375	-14.84251	-6.03845	3.41909	-22.22226
1718.75000	-10.96880	-5.32634	2.21939	-25.72227
1722.65625	-15.68343	-5.15702	0.68314	-30.92302
1726.56250	-21.22603	-5.21223	2.07465	-29.55205
1730.46875	-17.52077	-4.07010	1.58875	-26.39619
1734.37500	-18.09882	-4.73431	-0.53223	-27.54073
1738.28125	-14.52766	-4.98392	0.95168	-26.88635
1742.18750	-9.14997	-4.08507	3.39029	-24.36305
1746.09375	-9.94505	-3.63291	1.25566	-21.86229
1750.00000	-8.73548	-2.34398	-1.12292	-16.41046
1753.90625	-0.01106	-1.40209	-0.44145	-10.30512
1757.81250	3.25896	-3.81684	2.52000	-8.32228
1761.71875	-4.22356	-4.22261	3.67748	-8.93892
1765.62500	-0.66541	-3.28155	4.04575	-7.71034
1769.53125	-0.34838	-4.25649	5.02046	-7.21985
1773.43750	-2.48235	-4.10285	3.68939	-3.95665
1777.34375	-0.32040	-3.43597	2.89604	-1.05635
1781.25000	2.31752	-0.32850	1.14429	-2.38198
1785.15625	3.79211	0.27518	0.77540	-4.02020
1789.06250	2.00088	-2.96000	2.28804	-2.04604
1792.96875	3.49911	-3.97463	2.18800	-1.64330
1796.87500	4.14695	-3.84073	1.67760	-0.65642
1800.78125	0.39794	-3.27901	-0.17722	-0.66514
1804.68750	5.44178	-1.82574	-0.89849	-3.13766
1808.59375	8.79026	-0.87400	1.55702	-0.88781
1812.50000	2.62369	-0.21445	2.70770	3.48681
1816.40625	4.97548	1.41556	1.68543	0.93582
1820.31250	4.92413	3.85163	2.13299	-0.16468
1824.21875	3.07398	6.13178	2.24884	1.78536
1828.12500	1.48611	2.80577	1.21435	0.68823
1832.03125	0.93660	1.53362	0.00799	0.15419
1835.93750	2.16463	2.25924	-0.70678	-0.71104
1839.84375	8.64133	0.11362	-1.99583	-4.10574
1843.75000	2.32858	-0.83180	-3.07747	-5.77288
1847.65625	-1.77839	-0.78647	-2.36775	-4.56970
1851.56250	2.06623	0.46083	-1.07857	-5.99774
1855.46875	-2.27087	1.51008	-3.48507	-6.80508
1859.37500	-1.34585	4.04431	-1.68262	-3.22279
1863.28125	-0.42160	5.49119	0.04745	-0.83273
1867.18750	3.83304	5.27188	-1.93740	3.88852
1871.09375	3.59676	2.20539	-1.36037	5.18015
1875.00000	4.56280	2.39028	1.40837	5.62206
1878.90625	6.38909	3.55794	2.67192	9.73539
1882.81250	6.50668	2.53931	0.74673	7.73905
1886.71875	10.66536	2.84846	-0.31573	5.91618
1890.62500	8.35062	-1.29430	-0.03423	9.91700
1894.53125	10.17560	-3.56320	-0.53317	11.58981
1898.43750	10.89269	3.89435	-3.83905	-4.31709
1902.34375	7.39801	11.67074	-6.21542	-20.75594
1906.25000	7.84015	10.47832	-5.15848	-18.23044
1910.15625	8.67396	5.67337	-3.14652	-15.55791
1914.06250	1.67398	4.59986	-4.07300	-24.35782
1917.96875	-9.19253	5.86079	-2.67913	-29.66681
1921.87500	-11.44976	3.47433	-0.28684	-24.26886
1925.78125	-21.16309	3.18013	-0.75112	-21.00627
1929.68750	-30.08378	2.95918	-2.64098	-24.90554
1933.59375	-25.77624	1.49264	-3.57206	-24.05059
1937.50000	-22.43887	0.59387	-1.90586	-18.36585
1941.40625	-19.01236	0.92034	2.41765	-12.87529
1945.31250	-15.50151	0.29569	2.02778	-11.27658
1949.21875	-13.63466	0.63424	-1.74308	-11.67727
1953.12500	-12.53980	3.63289	-1.04691	-10.05032
1957.03125	-14.74462	0.98806	-0.30966	-12.72219
1960.93750	-11.66529	1.19101	-0.11403	-9.94747
1964.84375	-8.21564	3.03517	0.35874	-7.57734
1968.75000	-14.90734	1.11394	1.55969	-6.49401
1972.65625	-16.23417	-0.66734	1.08253	-6.12744
1976.56250	-13.91249	2.20819	1.70691	-7.90042
1980.46875	-10.76534	5.09508	4.61167	-4.60844
1984.37500	-14.21413	3.74448	5.12217	-6.68635
1988.28125	-20.20039	-0.43839	4.44544	-7.33984
1992.18750	-18.72572	-0.53162	4.42565	-3.41532
1996.09375	-9.06367	3.44826	3.74103	-3.49755
2000.00000	-5.03261	3.36789	5.71790	-2.09869
2003.90625	-9.32224	2.02281	6.24647	2.67599
2007.81250	-6.14286	4.84028	5.70385	6.73795
2011.71875	-0.67233	3.63403	6.15928	8.16140
2015.62500	2.21906	0.67808	4.98637	10.96303
2019.53125	1.50171	3.26456	4.01286	12.08520
2023.43750	2.83243	3.51361	5.34516	12.04636
2027.34375	1.88189	2.04067	4.52802	10.75868
2031.25000	8.91691	2.15643	0.63993	7.25005
2035.15625	13.48887	3.16423	1.01004	5.66587
2039.06250	5.20942	4.38454	5.13969	6.11024
2042.96875	3.31093	4.19015	3.62919	5.30550
2046.87500	1.45691	2.44436	-0.69433	5.12544
2050.78125	0.77628	2.28537	-0.04710	3.52336
2054.68750	2.58491	2.84646	2.28712	0.35570
2058.59375	2.46257	3.10330	1.04153	-1.49031
2062.50000	4.19960	2.04064	0.29498	-0.22303
2066.40625	-0.97009	0.00749	1.31845	-0.08873
2070.31250	-0.11013	0.79457	3.28971	2.62444
2074.21875	6.57798	2.94637	4.78677	6.71928
2078.12500	1.31873	3.45169	4.61367	7.41439
2082.03125	-4.97884	1.90303	3.00076	5.93475
2085.93750	-2.57775	-0.03159	2.10503	3.98044
2089.84375	1.82737	0.90491	0.97776	2.13798
2093.75000	14.58974	3.05885	1.25476	13.47644
2097.65625	15.87900	4.22202	4.17258	14.69179
2101.56250	-6.90056	0.15386	5.70507	0.40652
2105.46875	-14.64856	-3.71611	2.87467	-1.60554
2109.37500	-11.54148	-1.81842	-0.13534	-1.96338
2113.28125	-8.41519	1.42293	-0.18169	-3.91719
2117.18750	-3.57843	2.72582	0.68192	-6.04251
2121.09375	-3.97979	1.46371	1.99888	-11.86559
2125.00000	-5.99289	1.60498	1.20887	-11.07079
2128.90625	-3.17077	0.68454	1.65528	-8.08316
2132.81250	5.29252	0.33438	1.94104	-7.29252
2136.71875	0.05620	1.15017	-0.46672	-4.91106
2140.62500	-7.19473	3.78427	-0.88490	-1.28384
2144.53125	-1.95478	5.12875	0.30459	-0.03697
2148.43750	0.06169	3.12890	1.65662	2.39833
2152.34375	-2.75700	3.27432	0.83603	1.02480
2156.25000	-2.35225	2.00845	0.41222	-2.18575
2160.15625	-5.57384	1.28135	0.67674	-2.80817
2164.06250	-7.98954	1.39119	0.20229	-2.29287
2167.96875	-2.34675	1.12324	0.43352	1.21856
2171.87500	-3.95672	1.77852	0.53020	0.89026
2175.78125	-5.16383	0.46444	0.49649	-1.08924
2179.68750	-5.96806	-1.61094	-1.37379	-3.54777
2183.59375	-5.56355	-0.74096	-3.12519	-6.15824
2187.50000	0.07909	4.33783	0.40370	-1.55098
2191.40625	-3.54576	3.09737	1.42435	-1.24760
2195.31250	-4.75312	2.96348	0.59013	-2.02307
2199.21875	1.69515	7.19687	0.21697	0.92701
2203.12500	-3.94460	4.37599	-2.82577	0.04745
2207.03125	-8.37564	-0.12083	-3.67028	0.13190
2210.93750	-5.95688	1.18456	-0.91568	-0.95423
2214.84375	-6.35871	-1.37507	0.28818	-3.77589
2218.75000	-9.17811	-4.52828	-1.40026	-5.09899
2222.65625	-10.78872	-0.98418	-1.71774	-6.24311
2226.56250	-5.54964	0.64161	-0.50545	-2.19546
2230.46875	-5.54861	0.87321	0.35814	0.56455
2234.37500	-6.35339	2.35525	1.19999	-2.71749
2238.28125	-4.33766	5.11943	-0.58453	-5.91098
2242.18750	-5.14241	4.53654	-1.00777	-4.07990
2246.09375	-4.73834	2.19390	-0.57655	-5.71345
2250.00000	-3.52843	0.54956	-1.60519	-7.56737
2253.90625	-1.91561	1.25827	-0.70565	-2.47023
2257.81250	-2.72033	3.09992	-0.55909	-3.11977
2261.71875	-0.70456	2.80881	0.11248	-1.92719
2265.62500	1.31119	3.32844	0.95343	0.45515
2269.53125	-3.11994	0.61463	1.65499	-1.57523
2273.43750	-4.32758	-3.05676	1.41890	1.40192
2277.34375	-0.29710	1.09817	2.30210	6.09600
2281.25000	-3.51931	4.31103	4.86846	6.65924
2285.15625	-6.74159	2.43490	3.28042	2.20519
2289.06250	-3.11407	2.27568	1.67647	1.21624
2292.96875	-3.11291	3.10708	1.93030	-0.36502
2296.87500	-5.52935	2.74026	3.56576	-0.82674
2300.78125	-3.11061	4.61356	7.21797	2.33582
2304.68750	-0.69189	6.36513	5.19760	-1.67517
2308.59375	1.72685	3.51714	2.08519	-4.83343
2312.50000	-5.12185	-0.39928	0.42327	-2.12677
2316.40625	-5.12067	0.77278	-0.39535	-0.91927
2320.31250	0.11862	3.31540	1.11863	0.41167
2324.21875	-3.10364	0.21271	1.06614	1.30167
2328.12500	-1.89365	-0.49702	-0.34244	0.82529
2332.03125	2.94271	1.33001	-1.89558	2.56683
2335.93750	7.77915	5.67089	1.69917	5.01453
2339.84375	13.01848	8.47720	2.28589	3.30242
2343.75000	11.00505	4.12653	-1.05303	2.26806
2347.65625	6.57404	1.11202	-0.36797	3.28389
2351.56250	5.76946	-0.57210	-0.59613	3.24293
2355.46875	6.17362	0.91303	0.58041	5.29225
2359.37500	9.80127	3.17752	1.45336	6.57465
2363.28125	9.80251	4.00653	0.05125	9.27940
2367.18750	9.40080	4.71797	0.39762	11.80898
2371.09375	12.22254	5.17391	-0.11234	8.76902
2375.00000	9.40331	6.64408	-0.53003	5.55791
2378.90625	3.76360	6.75829	-0.16943	3.37748
2382.81250	6.58536	6.70514	0.75482	3.39430
2386.71875	5.78079	5.08323	2.35794	3.02912
2390.62500	4.57327	2.85175	1.16562	0.61234
2394.53125	2.55993	3.92446	0.78309	-1.84164
2398.43750	-1.87098	4.31228	1.04401	-2.26059
2402.34375	-0.66082	3.76355	0.65700	-2.89998
2406.25000	-3.47994	5.43195	-1.73846	-6.53744
2410.15625	-0.25520	4.94996	-4.01644	-7.52501
2414.06250	5.38721	3.63093	-3.54082	-7.63559
2417.96875	0.55346	2.28674	-2.15910	-6.31010
2421.87500	0.55488	2.03403	-3.06050	-6.78590
2425.78125	2.97384	3.34774	-3.83145	-5.61062
2429.68750	4.58699	4.21394	-1.15414	0.07303
2433.59375	8.61764	6.56702	0.19549	0.26743
2437.50000	9.82784	6.32299	-0.51166	0.09393
2441.40625	0.15895	3.93674	0.88640	3.82134
2445.31250	-2.66011	2.45851	2.52761	2.58360
2449.21875	-3.06165	0.64234	1.29020	1.64957
2453.12500	-5.07488	0.64234	-0.09812	1.72463
2457.03125	-2.65589	1.10948	-1.67009	-5.61129
2460.93750	-2.65448	1.01246	-1.60307	-9.35910
2464.84375	0.16746	-0.45750	0.01473	-9.35680
2468.75000	3.39235	1.88947	2.10713	-4.00322
2472.65625	0.57329	3.58314	-0.79777	-4.06688
2476.56250	2.18643	3.97168	-3.62078	-6.09881
2480.46875	6.62011	6.56026	-2.06567	-4.02262
2484.37500	3.39808	5.48083	-2.90655	-0.73947
2488.28125	1.78781	3.92511	-0.31516	0.03745
2492.18750	2.59508	1.28421	-1.50259	-0.98677
2496.09375	8.64046	-0.40282	-4.75331	3.87128
2500.00000	13.07413	0.43541	-0.09727	7.33797
2503.90625	9.85208	1.74095	3.03350	6.27116
2507.81250	8.64466	3.92832	4.09670	7.72760
2511.71875	10.25776	5.02494	6.64960	12.17710
2515.62500	9.85631	5.31083	5.40680	12.21353
2519.53125	16.70756	3.99500	3.49740	16.66256
2523.43750	23.55888	1.62211	4.54043	24.16273
2527.34375	22.35156	2.70492	8.09054	21.48448
2531.25000	22.35305	3.92389	7.53988	22.13123
2535.15625	24.36919	6.60557	6.30847	28.60112
2539.06250	20.74426	5.55567	4.68995	24.35309
2542.96875	18.73107	5.52979	3.22840	21.10039
2546.87500	19.94131	7.50797	3.60860	19.95148
2550.78125	17.12222	5.63438	0.36036	15.17829
2554.68750	15.91481	5.89708	-1.64756	18.38456
2558.59375	16.31917	7.93878	-0.95171	22.34983
2562.50000	14.30587	6.21382	1.91999	20.45015
2566.40625	19.14250	5.84723	1.12792	21.66138
2570.31250	15.51752	6.52768	-0.78796	21.94334
2574.21875	3.02811	3.98902	-1.13747	19.03986
2578.12500	1.41784	3.48958	-1.74253	18.30864
2582.03125	4.64269	2.87097	-0.18832	15.35951
2585.93750	5.85289	1.75317	-0.15570	12.91313
2589.84375	5.85429	4.18453	-1.95014	10.59713
2593.75000	8.67617	9.34073	-1.43075	7.20052
2597.65625	4.24533	8.72847	-0.50309	9.00656
2601.56250	0.62042	4.36826	-0.27389	7.03417
2605.46875	3.03939	3.68860	-2.25524	2.56853
2609.37500	2.23497	3.43837	-2.72421	1.69034
2613.28125	-0.98704	2.20608	-2.12691	-0.20718
2617.18750	-2.19438	1.49425	-0.86046	-2.33250
2621.09375	-4.61045	-0.57381	-1.15537	-2.11167
2625.00000	-0.57972	-1.23847	-3.96004	1.10062
2628.90625	3.45104	1.87043	-3.11087	3.68528
2632.81250	-1.78555	3.13202	-0.40773	7.29627
2636.71875	-0.57523	2.73891	-0.39807	10.08047
2640.62500	-0.57369	2.55249	0.79528	8.87227
2644.53125	-2.98976	0.27061	3.99933	8.10430
2648.43750	-1.77944	1.89706	3.73952	6.91292
2652.34375	0.63971	3.25126	2.11287	4.33031
2656.25000	1.04419	4.40298	2.89768	4.74583
2660.15625	1.04575	4.07875	3.16206	3.31728
2664.06250	4.27074	2.57691	2.68746	0.20586
2667.96875	5.48107	3.11488	2.51556	-0.31227
2671.87500	10.72070	3.77012	3.01503	1.77667
2675.78125	10.72219	5.67947	3.78701	6.64676
2679.68750	7.09726	4.40994	3.12535	11.03781
2683.59375	11.53099	4.07114	1.77674	12.45647
2687.50000	8.30900	6.32946	3.69370	9.40801
2691.40625	6.69878	7.50661	5.11717	7.69673
2695.31250	7.50613	7.77566	5.08871	4.10076
2699.21875	5.89592	7.57679	4.71545	1.40993
2703.12500	4.68861	6.36760	2.88140	4.55996
2707.03125	3.07836	4.28833	1.63376	3.03296
2710.93750	3.48281	3.57915	1.97071	3.96181
2714.84375	4.69310	4.24291	-0.04899	7.18444
2718.75000	3.48578	5.92486	-0.52872	5.86175
2722.65625	3.48727	4.23080	1.97423	7.94153
2726.56250	2.27997	3.43892	2.78358	6.34865
2730.46875	0.66978	6.08804	4.05003	5.88569
2734.37500	-0.53752	4.74951	4.89190	4.21579
2738.28125	-4.56531	3.48431	3.10735	-0.58894
2742.18750	-5.36971	4.51303	2.28115	1.24261
2746.09375	-6.57697	4.18493	2.30948	2.43007
2750.00000	-4.15794	2.94347	3.29544	-1.43806
2753.90625	-0.12713	1.63746	2.58328	-0.77263
2757.81250	-4.96076	3.47903	0.31225	-0.21296
2761.71875	-4.95927	4.79952	-0.62787	-4.25801
2765.62500	-4.55480	3.70738	-0.99573	-2.27815
2769.53125	-8.17966	3.41107	0.51174	0.12424
2773.43750	-6.56636	0.14252	-0.53027	4.31065
2777.34375	-0.52088	-2.14944	-0.05006	11.42274
2781.25000	-0.92232	2.67514	-1.51301	5.94248
2785.15625	-5.35311	6.84292	-3.90690	-6.56973
2789.06250	-4.94872	6.28066	-2.69031	-11.99050
2792.96875	-6.55900	3.88851	-3.64537	-13.16845
2796.87500	-8.16935	6.34215	-4.42746	-12.01805
2800.78125	-9.37673	4.99186	-1.58119	-12.07855
2804.68750	-13.00164	-1.71811	-1.98984	-14.07452
2808.59375	-14.61197	-5.37200	-1.87887	-11.99433
2812.50000	-14.61053	-8.88558	-0.72037	-12.51072
2816.40625	-8.96801	-13.75751	-0.73313	-10.09400
2820.31250	-6.95187	-15.64718	-1.23388	-4.73335
2824.21875	-6.95036	-18.74989	-1.28634	-5.45465
2828.12500	-5.33718	-21.87718	-0.27741	-5.52778
2832.03125	-8.96208	-29.31763	-0.21890	-5.80052
2835.93750	-2.91667	-37.46761	-1.45933	-6.57589
2839.84375	-0.90057	-41.91409	-2.08145	-5.46707
2843.75000	-7.34602	-44.25008	0.22064	-4.48645
2847.65625	-2.10646	-47.66760	1.71149	-5.48502
2851.56250	0.31260	-58.21627	1.48325	-5.12273
2855.46875	3.94045	-64.78973	1.85386	-3.47601
2859.37500	5.95652	-61.31653	0.30914	-4.61096
2863.28125	5.15201	-53.63776	2.13041	-3.92060
2867.18750	1.12413	-49.29995	2.47670	-3.40544
2871.09375	-2.90372	-44.81475	-0.04798	-4.43055
2875.00000	0.72416	-32.86845	1.95181	-4.41792
2878.90625	4.75496	-17.04001	3.11826	3.07233
2882.81250	5.96526	-0.17012	2.83368	3.89518
2886.71875	7.17550	13.92214	2.01905	0.30684
2890.62500	8.78876	26.59904	2.03547	4.33720
2894.53125	8.38733	34.92443	2.86176	3.49517
2898.43750	9.59766	38.13267	0.70496	2.67354
2902.34375	10.80798	40.40443	1.12379	1.63152
2906.25000	11.21246	37.64054	1.54868	-3.21450
2910.15625	11.21397	34.74091	-1.53516	-2.18719
2914.06250	14.03595	33.01893	-3.88015	1.73179
2917.96875	19.27555	35.30103	-1.69263	2.65456
2921.87500	17.26239	35.04826	-0.57940	3.38776
2925.78125	9.60818	31.52676	0.26126	2.95154
2929.68750	7.59506	31.99001	3.74441	5.81488
2933.59375	6.79075	29.91078	3.88518	10.03892
2937.50000	4.77761	27.65197	1.96917	8.25386
2941.40625	3.57031	28.48909	2.15837	9.56379
2945.31250	2.76598	27.41372	5.00831	13.96722
2949.21875	5.18503	24.79164	4.97956	8.60107
2953.12500	3.17189	21.97102	2.78530	4.24394
2957.03125	1.96469	22.03521	2.01914	5.36964
2960.93750	3.17498	22.34107	2.08606	3.23357
2964.84375	3.17656	23.28859	2.49491	1.62437
2968.75000	3.17815	22.81497	2.57264	0.12825
2972.65625	2.37389	19.67352	1.27933	0.87065
2976.56250	1.97257	18.45024	1.27678	-1.96699
2980.46875	-1.65224	16.60651	0.01123	-4.32289
2984.37500	-1.24768	17.54169	-1.23262	-3.86009
2988.28125	-0.44025	19.61232	-1.05892	-5.90348
2992.18750	-1.24455	15.76255	0.17117	-3.70393
2996.09375	-2.85480	13.67256	-0.25919	-1.66622
