 	TP9	AF7	AF8	TP10	
-1000.00000	1.85750	-1.85347	-6.74400	4.43379
-996.09375	1.24832	-0.81500	-7.12583	2.02629
-992.18750	0.00979	1.64151	-5.00393	1.41518
-988.28125	-1.28343	1.43459	-4.54852	1.79888
-984.37500	-4.26183	-2.91359	-3.95328	0.92496
-980.46875	-4.94872	-3.59649	-3.61201	0.10078
-976.56250	-4.30695	-0.10322	-4.37896	-0.64975
-972.65625	-3.59831	-0.30783	-2.53797	-3.82650
-968.75000	-9.00846	-4.07085	-5.64464	-4.39359
-964.84375	-9.56064	-2.48723	-5.12803	-1.18770
-960.93750	-8.54230	-2.50999	-4.09821	1.79355
-957.03125	-7.44316	-3.03221	-6.07427	1.51626
-953.12500	-8.40298	-2.67875	-4.51913	-0.58328
-949.21875	-10.68225	-1.51600	-3.51721	-2.51806
-945.31250	-9.62839	-3.65278	-3.06425	-2.51104
-941.40625	-8.11829	-5.84418	-1.35071	-0.96600
-937.50000	-5.74474	-1.94386	-3.34542	-3.56719
-933.59375	-4.33160	-1.84591	-6.11297	-7.79372
-929.68750	-4.69185	-2.99164	-6.22727	-4.65976
-925.78125	-2.85181	-2.78478	-5.41864	-1.43105
-921.87500	-0.45359	-3.12050	-2.21765	-0.92661
-917.96875	1.18921	-0.86499	-0.21957	1.01951
-914.06250	0.55601	-2.24216	-1.67859	1.13452
-910.15625	-0.70664	-3.66572	-0.88336	4.89809
-906.25000	2.30878	-1.89946	0.70124	7.69589
-902.34375	2.76630	-1.18676	-0.65382	3.11947
-898.43750	2.07467	-0.59873	-0.72405	2.78192
-894.53125	-0.99404	-3.06191	-1.28945	3.63583
-890.62500	-1.14327	-5.15290	-2.79914	1.17629
-886.71875	3.03454	-1.80436	-2.43507	4.72619
-882.81250	2.34736	1.57048	-1.09032	8.35129
-878.90625	2.14822	-0.33632	0.78467	8.96964
-875.00000	6.73132	0.53026	0.69596	8.16983
-871.09375	7.29582	4.63215	-0.69451	6.33794
-867.18750	6.58027	5.15410	-0.72689	5.78024
-863.28125	6.34878	3.94380	-2.72040	7.91912
-859.37500	6.24340	2.74580	-3.34692	6.68560
-855.46875	5.19586	0.47646	-4.58612	1.03480
-851.56250	3.65883	-0.90671	-5.04760	1.44699
-847.65625	3.27724	-0.77008	-3.04069	3.20591
-843.75000	3.89210	-0.10990	-2.32025	3.43549
-839.84375	2.67406	0.99499	-2.23732	2.37403
-835.93750	-3.58733	-1.20746	-5.44969	-4.07207
-832.03125	-7.21875	-4.44554	-2.96617	-3.01891
-828.12500	-6.06663	-3.86528	-2.93161	2.64757
-824.21875	-2.20125	-1.72565	-6.73937	0.94556
-820.31250	-3.32285	-2.36241	-7.56923	-5.17638
-816.40625	-6.32297	-3.71423	-7.53425	-7.15361
-812.50000	-1.16076	-0.74826	-6.53934	-1.41821
-808.59375	1.92038	2.31270	-5.63989	-3.14417
-804.68750	-0.64783	4.33476	-3.88987	-3.98162
-800.78125	1.14548	2.74988	-3.62611	-2.67158
-796.87500	4.64270	-0.19191	-4.79417	-3.78085
-792.96875	4.10336	-1.50125	-3.68034	-4.22682
-789.06250	4.27284	-1.17677	-1.09466	-3.28691
-785.15625	4.12132	0.34201	0.18360	0.74416
-781.25000	-0.44165	-1.79744	0.32651	3.44002
-777.34375	-0.91180	-3.12937	-1.25713	6.04315
-773.43750	-0.69414	-3.07947	-3.65733	3.06045
-769.53125	-3.84298	-5.47235	-5.41563	-3.01574
-765.62500	-9.24771	-6.04904	-5.80195	-7.03632
-761.71875	-12.92020	-2.30218	-3.36543	-8.19872
-757.81250	-14.93003	0.36987	-4.17381	-9.11383
-753.90625	-11.92793	-2.66320	-5.26204	-7.76254
-750.00000	-4.29408	-2.92133	-3.29377	-1.11931
-746.09375	-1.26624	-1.94600	-2.50706	-0.72699
-742.18750	-1.23536	-4.00041	-3.82120	-4.95155
-738.28125	0.86489	-3.79429	-4.27470	-2.51528
-734.37500	3.03864	-1.86452	-3.65922	0.77570
-730.46875	3.32376	-1.98827	-2.78978	3.61408
-726.56250	0.66854	-2.25890	-2.82680	0.33480
-722.65625	-1.65056	-4.87564	-1.84528	-0.11529
-718.75000	-1.47725	-5.14274	-1.96012	2.86900
-714.84375	0.68788	-1.08619	-4.08652	-0.74016
-710.93750	2.08840	1.75629	-4.30854	-2.91594
-707.03125	5.01981	2.27762	-5.95685	-0.62438
-703.12500	10.81603	0.71453	-4.68942	8.32460
-699.21875	4.23213	-2.06076	1.56331	4.61804
-695.31250	-4.87911	-3.95419	3.93287	-1.83624
-691.40625	-6.79079	-4.18118	2.22126	2.25942
-687.50000	-8.76007	-4.85891	0.18868	1.63679
-683.59375	-6.94845	-4.95773	-0.26523	3.84838
-679.68750	-3.76638	-3.00702	-0.14887	1.11705
-675.78125	-3.59047	-2.40884	-2.16439	-5.33548
-671.87500	-1.95810	-2.07403	-0.52817	-3.01975
-667.96875	0.83264	-1.91279	-2.52426	-0.93696
-664.06250	4.69052	-0.53650	-3.07791	2.57396
-660.15625	5.55144	0.08035	-1.85654	4.45097
-656.25000	5.76067	-0.47800	-3.03630	2.86159
-652.34375	4.90145	0.01722	-0.06753	4.21409
-648.43750	2.77371	-2.18337	0.40757	2.53649
-644.53125	1.41141	-4.15331	0.57208	0.87637
-640.62500	1.15887	-4.48081	3.69551	1.72372
-636.71875	2.22036	-3.80095	3.33341	0.18803
-632.81250	-0.71768	-3.14738	1.99056	-1.82575
-628.90625	-2.93490	-2.85323	0.92343	-2.44455
-625.00000	-0.66693	-1.30310	-0.59762	-1.24228
-621.09375	5.61954	-0.16777	-1.62279	3.40965
-617.18750	9.55977	2.53283	0.02325	5.17569
-613.28125	7.37472	2.53342	1.21285	6.66268
-609.37500	5.46656	-1.91049	0.22961	9.91044
-605.46875	0.47133	-2.46261	-0.14097	5.08458
-601.56250	-0.81110	-0.67739	-0.08050	0.64258
-597.65625	1.58630	-0.00909	-0.07081	-0.31091
-593.75000	0.56958	-0.26725	-1.59516	-1.34691
-589.84375	0.98284	1.04449	-1.27320	-3.50939
-585.93750	-0.81337	-0.38042	0.73225	-2.70477
-582.03125	-2.01607	-1.17261	-0.13760	0.67384
-578.12500	3.68284	1.46963	-0.97608	-0.15799
-574.21875	4.25071	0.53788	-1.19567	0.73771
-570.31250	3.76181	1.17372	-0.76676	4.84456
-566.40625	3.13666	1.71873	-2.00864	4.40375
-562.50000	0.79614	0.36361	-2.19568	2.69719
-558.59375	-1.07514	0.12224	-2.28732	-0.81539
-554.68750	-5.35559	-1.90073	-1.61777	0.02161
-550.78125	-7.14783	-1.92844	-1.87956	4.75508
-546.87500	-5.00286	-1.00220	-4.33590	3.04344
-542.96875	-0.83602	1.51497	-4.23904	1.47433
-539.06250	-1.81019	0.38371	-4.80812	0.13103
-535.15625	-4.47801	-1.13595	-6.08443	3.35237
-531.25000	-0.71974	0.19667	-4.61364	5.49122
-527.34375	1.36330	0.31891	-3.43104	2.08175
-523.43750	1.54965	0.67106	-3.04356	3.85518
-519.53125	-0.13551	1.04838	-1.68627	6.70746
-515.62500	-5.20582	-1.59929	-2.90971	6.29536
-511.71875	-5.56150	-1.31776	-2.92676	9.47201
-507.81250	-2.74478	0.44152	-3.32520	9.17786
-503.90625	-1.71645	1.05606	-3.44394	6.21431
-500.00000	-5.72284	-0.29845	-1.78393	4.00284
-496.09375	-9.15257	-6.10992	1.05764	4.41592
-492.18750	-1.12373	-7.27989	4.38829	9.44590
-488.28125	2.01515	-0.23414	0.81435	5.80027
-484.37500	-4.99265	4.28199	-2.21685	0.49417
-480.46875	-10.11191	3.59894	-1.47265	-3.15045
-476.56250	-9.47028	3.06268	-1.03083	-0.67756
-472.65625	-1.91202	4.06677	0.00423	7.83063
-468.75000	3.55680	4.33281	-1.89359	2.83122
-464.84375	1.79569	5.51343	-2.58582	-2.02164
-460.93750	1.60498	2.66996	-3.57069	4.18302
-457.03125	3.50983	2.14760	-5.54686	9.14374
-453.12500	1.34101	3.70970	-2.78300	10.67049
-449.21875	3.89669	4.06643	-0.97523	13.57070
-445.31250	6.56211	0.72071	-1.32822	12.77177
-441.40625	3.63973	-2.67965	1.19114	13.91375
-437.50000	2.38666	-2.40590	-0.80365	18.56523
-433.59375	3.79962	-2.71099	-3.16833	17.15905
-429.68750	3.84218	-0.23052	-1.67103	13.84601
-425.78125	0.04106	-1.63548	-1.66833	9.01607
-421.87500	-0.38136	-2.77719	-2.49674	8.71450
-417.96875	4.08176	-0.11893	-2.91634	9.45178
-414.06250	5.86600	0.11553	-4.37543	5.94034
-410.15625	6.21495	0.70642	-5.19201	3.66001
-406.25000	5.60387	0.05502	-4.01036	2.02550
-402.34375	6.46421	0.36472	-4.55963	3.09016
-398.43750	9.39893	0.95258	-4.62992	3.55854
-394.53125	14.38874	1.30979	-3.18074	5.21827
-390.62500	19.47754	4.85975	-1.46705	7.59399
-386.71875	17.20838	3.37303	-3.52065	8.72634
-382.81250	10.88015	-0.10205	-2.57886	11.54565
-378.90625	9.47214	0.00570	-0.70398	12.96993
-375.00000	6.80247	0.46923	-0.79275	13.37900
-371.09375	3.74059	0.94460	0.23431	13.56184
-367.18750	5.84542	0.25772	-2.61863	15.01888
-363.28125	4.00225	3.88250	-1.79168	16.75496
-359.37500	-1.34127	3.89324	0.80522	13.10391
-355.46875	-3.59773	-1.19668	-0.43402	7.05019
-351.56250	-7.55239	-2.17708	-0.08968	5.44781
-347.65625	-7.12821	-2.44348	-1.70914	3.98324
-343.75000	-3.29001	-0.97759	-1.79458	3.00412
-339.84375	-5.71697	0.12713	-2.92054	0.73393
-335.93750	-2.30809	0.34217	-2.10358	0.33185
-332.03125	-0.70150	-0.07545	-1.23177	1.38499
-328.12500	-5.99642	-0.70411	-3.61482	2.21636
-324.21875	-2.53405	0.62949	-2.18451	2.52903
-320.31250	0.37349	-0.41027	-1.80569	0.83936
-316.40625	-0.20910	0.25246	-0.15903	4.90618
-312.50000	-1.49389	2.00960	-0.37299	2.98596
-308.59375	-2.44212	0.23528	-3.50289	1.66303
-304.68750	-2.99576	-2.57797	-2.96171	2.84029
-300.78125	-2.81423	-2.55121	-3.10100	2.53860
-296.87500	0.27997	-1.06094	-3.06033	5.45863
-292.96875	-3.88587	-2.37035	-4.76706	-1.03128
-289.06250	-2.91063	-2.44892	-7.01658	-6.13531
-285.15625	-2.65931	-0.93023	-6.54430	-8.14826
-281.25000	-4.40190	2.97413	-5.19267	-6.66114
-277.34375	-0.03698	6.07429	-3.55286	-2.44624
-273.43750	2.19530	4.91524	-2.72972	-4.22004
-269.53125	-2.56534	2.52222	-2.87631	-7.47572
-265.62500	-5.14972	1.54246	-2.45682	-8.27292
-261.71875	-1.16663	2.46876	-1.63204	-9.03244
-257.81250	0.04684	1.91718	-1.23170	-7.93288
-253.90625	-4.60696	0.49573	-3.52870	-6.17872
-250.00000	-2.61441	2.25211	-1.96341	-7.59424
-246.09375	1.21900	2.42142	-1.17679	-10.42554
-242.18750	2.86123	1.57557	1.13543	-8.60633
-238.28125	2.94651	3.39327	0.68189	-8.99067
-234.37500	1.09060	4.51701	0.08853	-10.53513
-230.46875	-1.04217	1.57257	0.95793	-5.68238
-226.56250	1.13741	2.91345	-0.69084	-6.94716
-222.65625	2.04146	5.53465	-1.32114	-10.21791
-218.75000	-3.42655	5.67028	-0.22725	-8.84547
-214.84375	-4.08216	3.68271	-1.54780	-9.63433
-210.93750	-2.68187	2.09278	-1.36692	-11.40727
-207.03125	-4.98874	0.59937	-0.59776	-9.11579
-203.12500	-4.02788	-0.96387	-2.15097	-9.83722
-199.21875	-4.56793	-2.12759	-3.55393	-15.15554
-195.31250	-10.45586	-3.61819	-2.79618	-14.76007
-191.40625	-12.36774	-5.05410	-0.88145	-12.67908
-187.50000	-10.71074	-4.52316	0.30934	-15.71929
-183.59375	-10.10804	-3.81631	1.87001	-15.11948
-179.68750	-8.53781	-5.89495	0.77750	-11.80682
-175.78125	-5.13860	-4.08815	1.17953	-7.78315
-171.87500	-2.29754	-2.94756	-0.00488	-6.27327
-167.96875	-2.32747	1.24284	-2.00097	-11.04024
-164.06250	-4.91658	3.42485	-2.95761	-14.78194
-160.15625	-5.26446	0.81819	-2.13917	-14.91955
-156.25000	-5.45823	-2.56081	-1.70728	-14.49425
-152.34375	-6.31754	-2.06575	-1.96201	-11.12695
-148.43750	-4.81902	0.16579	-1.48698	-7.96923
-144.53125	-1.74911	0.21045	-2.12839	-7.21165
-140.62500	-1.19577	-1.32596	0.18905	-3.94668
-136.71875	0.26856	0.15965	-1.38184	-3.06467
-132.81250	-0.25193	2.02193	-4.33643	-5.07834
-128.90625	3.97767	2.31598	-5.40369	-2.87656
-125.00000	13.90120	2.65721	-3.70135	10.81662
-121.09375	15.35249	2.18074	2.92911	18.69217
-117.18750	9.62231	-0.75982	5.78389	11.59383
-113.28125	4.21376	-2.77398	4.15292	5.82817
-109.37500	2.30556	-3.18871	4.37835	1.82321
-105.46875	2.54841	-1.72623	5.61944	1.02676
-101.56250	-1.55455	-1.14996	7.29153	0.61423
-97.65625	-3.99238	-0.48169	6.09234	0.46671
-93.75000	-1.78564	-2.35169	4.97088	5.07193
-89.84375	0.23932	-3.05467	4.08396	6.13303
-85.93750	2.47248	1.56429	3.67178	7.74361
-82.03125	4.09033	0.36913	5.62236	10.71940
-78.12500	5.75989	-0.61511	4.38084	7.87308
-74.21875	8.34247	2.07945	3.75819	9.57485
-70.31250	7.85353	1.50639	5.79878	12.87598
-66.40625	7.63132	1.64832	6.97441	14.85276
-62.50000	5.29071	1.90476	7.19018	13.54918
-58.59375	2.61361	-0.75427	5.48676	9.23073
-54.68750	2.76536	0.04322	4.54444	9.66492
-50.78125	5.80835	2.03000	4.68553	11.17504
-46.87500	5.13271	2.15028	5.45254	11.47812
-42.96875	-1.17670	1.44388	4.34062	10.71491
-39.06250	-0.53924	0.71546	1.75685	5.74535
-35.15625	2.43387	2.01619	2.49516	3.32570
-31.25000	1.35689	1.73701	3.16001	3.44996
-27.34375	3.84273	1.05322	1.11913	3.26404
-23.43750	2.82027	1.40526	-1.31393	3.42580
-19.53125	-0.07380	0.57367	0.44625	0.23422
-15.62500	-2.72666	-2.47699	3.65500	-0.98365
-11.71875	-5.09707	-5.41902	-0.79436	2.59597
-7.81250	-3.48920	-6.07745	-3.61048	6.73414
-3.90625	-6.08733	-7.88062	-3.72924	4.57649
0.00000	-5.66148	-7.62348	-1.26346	5.99144
3.90625	0.17616	-4.97350	-0.03372	5.59868
7.81250	3.36975	-4.12896	-1.13533	-1.86214
11.71875	4.09106	-2.72437	-2.29177	-1.88136
15.62500	6.35065	-0.22298	-2.50248	0.46831
19.53125	7.27544	0.70566	-0.14664	-1.16159
23.43750	3.48489	0.97519	-0.10784	-2.71788
27.34375	0.96997	1.97921	-1.08745	2.56702
31.25000	2.81240	1.43933	-0.97078	5.62637
35.15625	5.88645	0.60517	-1.66310	0.77372
39.06250	5.29276	1.79093	-0.63340	-0.67724
42.96875	5.18293	2.47735	-0.19205	-2.56620
46.87500	5.02877	1.62177	-0.24876	-4.66573
50.78125	0.73458	-0.84206	-0.85864	-5.79462
54.68750	1.38533	0.24437	-2.01753	-5.38461
58.59375	2.89517	1.27610	-1.10997	-4.64547
62.50000	2.04493	-4.89707	3.74503	1.21494
66.40625	7.89005	-3.99352	8.23009	7.86748
70.31250	4.30609	2.51614	3.28042	-2.69821
74.21875	2.51953	3.12572	-0.74625	-8.73689
78.12500	8.14094	3.59561	-0.36591	-0.97971
82.03125	8.57468	3.03039	-1.59144	-0.24243
85.93750	7.13542	1.25005	-3.05060	-2.14206
89.84375	8.29014	3.04971	-3.06141	0.41281
93.75000	6.87310	3.20408	-2.28273	-0.41572
97.65625	6.52455	1.09606	-1.22043	1.05190
101.56250	7.04163	2.08677	-0.08194	3.53501
105.46875	5.18151	2.84683	-0.24458	3.18015
109.37500	7.04679	1.56156	-2.15735	3.94416
113.28125	12.83620	3.29813	-3.40512	7.09118
117.18750	9.73128	1.43465	-1.65755	3.06072
121.09375	3.89097	-4.09871	-0.18561	-1.96187
125.00000	5.25047	-4.84411	-0.67738	2.87947
128.90625	9.03829	-2.75706	0.34962	3.86814
132.81250	9.93423	0.58527	0.72006	4.11640
136.71875	12.12032	2.59819	-0.87062	6.25539
140.62500	15.64122	2.60882	-1.49721	4.21607
144.53125	11.77302	1.95106	-5.95995	1.78884
148.43750	12.25062	1.77650	-6.01856	2.60413
152.34375	11.86890	0.70413	-4.01168	0.73677
156.25000	9.26026	-2.66522	-6.11189	-2.25691
160.15625	10.86263	-3.57514	-6.43202	-3.72119
164.06250	12.25687	-4.16608	-3.60049	-5.33200
167.96875	11.84880	-5.38962	-4.74347	-7.90514
171.87500	13.00074	-3.60075	-5.11190	-8.68538
175.78125	14.44854	-5.08775	-0.86117	-4.34335
179.68750	8.49155	-8.54528	-0.07945	-4.82421
183.59375	5.49141	-7.47971	-3.67094	-8.01004
187.50000	8.23589	-2.90219	-2.27325	-1.06566
191.40625	10.51104	-3.46779	1.44660	2.84960
195.31250	11.97198	-5.87827	1.58481	1.20641
199.21875	13.76517	-5.04579	1.04252	2.91955
203.12500	14.44177	-4.76436	1.08314	3.82507
207.03125	15.11115	-3.25336	2.59979	2.57335
210.93750	9.63951	-3.73496	-0.45570	1.49887
214.84375	6.26445	-4.23102	-1.19221	1.50074
218.75000	8.95412	-1.93845	1.77113	2.98799
222.65625	12.11022	-2.06182	2.20203	2.36777
226.56250	9.91028	-0.80343	0.20460	-1.42060
230.46875	3.53797	0.02697	-1.55376	-5.48199
234.37500	1.75963	-0.14705	-0.32850	-6.27896
238.28125	3.32518	0.77908	0.89911	-3.00891
242.18750	0.50956	-0.98136	-0.31231	-4.72972
246.09375	-1.32353	-2.00000	-2.20638	-7.00447
250.00000	-1.74833	-1.85537	-1.44697	-8.01670
253.90625	-1.13806	-1.68609	-0.66036	-11.65353
257.81250	-1.10721	-1.72606	0.04010	-10.63979
261.71875	-2.23044	-1.11726	0.79535	-5.78566
265.62500	1.55494	1.21526	0.60492	-3.70333
269.53125	5.06351	0.68833	-1.34620	-7.31165
273.43750	2.81112	-0.38837	-2.99507	-8.57611
277.34375	-1.92566	-2.19946	-2.41655	-11.04068
281.25000	-2.15534	-2.06382	-2.53156	-13.29424
285.15625	-2.00483	-0.42511	-3.44916	-7.63588
289.06250	-6.24534	-0.80629	-2.46246	-3.76753
292.96875	-3.31404	-2.29984	-2.09622	-5.90798
296.87500	-0.74132	-2.25139	-1.63480	-4.61454
300.78125	0.33042	1.82292	1.79734	-4.29167
304.68750	0.88948	2.34690	1.34625	-7.52235
308.59375	-3.43986	-1.90959	-0.36542	-14.30561
312.50000	-5.40919	-2.99048	0.01947	-16.53976
316.40625	-6.82109	-3.08951	-0.83749	-18.76027
320.31250	-6.05670	-1.94484	0.89047	-18.26798
324.21875	-3.06032	-0.13806	1.29248	-13.84117
328.12500	-5.86029	-1.81812	-1.50364	-9.91359
332.03125	-5.89011	-0.85127	-2.29102	-8.23347
335.93750	-4.44986	0.12192	-0.83010	-9.96040
339.84375	-2.38014	-0.47021	-2.02634	-8.88898
343.75000	-1.76794	-1.02878	-1.99742	-4.83709
347.65625	-3.03020	-2.54841	-0.64043	-2.67846
351.56250	-2.74037	-3.13754	-1.37424	-5.16169
355.46875	-2.08804	-3.49594	-1.61274	-8.03039
359.37500	-1.93765	-2.21196	1.10757	-6.37692
363.28125	-3.29381	-2.74103	-0.06048	-10.33000
367.18750	-4.21719	-2.49060	-1.80633	-15.56702
371.09375	-2.80814	0.22097	-0.05306	-8.93287
375.00000	0.26556	-1.04958	0.84335	-2.49230
378.90625	2.52265	-3.94375	-0.58480	-4.28699
382.81250	2.43350	-0.84045	-1.35639	-5.74425
386.71875	-1.36332	2.38340	-0.16689	-3.85409
390.62500	-3.67449	-1.25485	-2.35910	-7.45595
394.53125	-1.01411	-1.40424	-2.32679	-11.47571
398.43750	-2.69945	-1.23097	1.35992	-11.88810
402.34375	-1.91383	-2.17454	0.96654	-11.22957
406.25000	0.29289	-2.83583	1.45675	-4.20669
410.15625	-2.11432	-5.15060	2.98740	-1.53368
414.06250	-1.49289	-2.14341	3.78401	-1.93761
417.96875	-4.30729	-1.72696	4.12280	-3.39388
421.87500	-9.08463	-2.71135	3.28421	-3.41959
425.78125	-6.90501	-0.82272	4.27329	-2.92650
429.68750	-6.18513	-1.79876	4.70209	-5.66924
433.59375	-8.82494	-3.26860	3.05718	-6.91566
437.50000	-6.73327	-6.23566	1.66122	-9.02495
441.40625	-6.18695	-5.67135	1.56938	-8.91090
445.31250	-6.84109	-3.26218	2.23879	-10.89422
449.21875	-4.20106	-3.69306	2.37984	-10.18977
453.12500	-4.07086	-2.36413	3.14685	-5.85727
457.03125	-6.35096	-1.45885	1.22896	-8.63498
460.93750	-4.10181	1.84195	-0.54903	-7.96342
464.84375	-4.75504	3.54550	-0.61662	-3.13016
468.75000	-4.22022	4.07210	-0.35473	-0.58816
472.65625	-3.34610	2.17950	-1.99272	-1.17681
476.56250	0.06370	-1.90072	-2.00830	6.64079
480.46875	5.63114	-1.52362	0.55767	9.89626
484.37500	-1.05095	3.08129	-1.47176	-3.00649
488.28125	-5.43601	7.39192	-1.89189	-5.87367
492.18750	-2.21640	5.12174	-3.90213	-4.55589
496.09375	-3.20276	4.52731	-5.22977	-3.08696
500.00000	-4.38866	6.79903	-4.77867	-3.68653
503.90625	-2.98325	6.22548	-9.59284	-7.70546
507.81250	-0.59547	6.66711	-8.27693	-7.91342
511.71875	2.14047	6.45992	-5.80706	-7.52945
515.62500	6.01179	6.54364	-5.61484	-4.37376
519.53125	11.36873	8.68099	-4.87079	-1.57129
523.43750	13.21912	9.75638	-2.41434	-0.30685
527.34375	10.30127	6.32805	-0.57355	3.76937
531.25000	4.48798	1.75887	-3.68029	9.24634
535.15625	-2.91417	0.92465	-5.98440	8.42309
539.06250	-4.31363	2.11031	-6.16354	5.36062
542.96875	-2.00592	1.58782	-6.12510	5.08349
546.87500	0.25748	3.55266	-5.37599	1.37234
550.78125	-0.81321	0.28282	-3.97126	0.24356
554.68750	0.24043	-4.27182	-2.30964	3.87716
558.59375	-2.68198	-2.03134	-1.40210	5.42239
562.50000	-7.15855	0.25699	0.22936	5.64184
566.40625	-7.35734	-0.45120	1.49093	5.84772
570.31250	-6.50897	-1.59729	0.16765	6.56429
574.21875	-2.25155	2.23570	0.57321	8.58442
578.12500	-3.07688	3.51142	0.14759	5.86559
582.03125	-1.83720	2.14033	2.54843	4.18552
585.93750	-0.85881	0.35996	0.68626	1.88311
589.84375	-3.33045	-1.86972	-0.93629	-1.60586
593.75000	-1.12113	-0.50668	0.24524	1.99787
597.65625	0.54504	-1.80882	-3.52758	3.46559
601.56250	0.65921	-5.65335	-5.20967	8.36640
605.46875	2.02259	-5.29624	-2.95475	14.05560
609.37500	9.12600	1.87991	-1.24114	13.61098
613.28125	8.06558	7.24284	-4.90658	5.87896
617.18750	6.97539	7.79690	-6.78537	8.29552
621.09375	13.62591	7.90449	-4.91050	20.19614
625.00000	18.20889	8.36786	-4.99941	26.64929
628.90625	19.57917	5.61967	-5.98708	26.42931
632.81250	19.26634	4.12671	-4.00490	29.49825
636.71875	20.24362	2.51319	0.85121	38.08430
640.62500	20.94402	2.52374	1.43337	38.05986
644.53125	19.09051	5.89521	1.40284	33.21522
648.43750	18.35932	5.72057	2.95594	32.82183
652.34375	25.23039	6.25981	0.93342	37.40151
656.25000	30.33811	7.90608	0.08678	34.07437
660.15625	30.15832	6.75584	0.20868	31.08863
664.06250	27.49832	6.94117	-1.33272	32.17714
667.96875	28.45272	8.35536	-0.46026	33.73304
671.87500	28.92732	5.35560	0.99574	34.07876
675.78125	23.86113	2.33938	2.97144	32.75589
679.68750	19.74510	-0.17179	4.17072	29.92443
683.59375	20.32133	-0.04005	3.80158	31.51156
687.50000	18.77361	1.49012	3.57196	29.75432
691.40625	14.74627	0.63667	2.31594	20.27353
695.31250	18.58204	4.04011	1.84041	20.94978
699.21875	16.17277	5.81111	3.71447	24.71097
703.12500	11.13443	3.04845	2.08174	22.38241
707.03125	13.53888	-0.96211	0.33470	19.75010
710.93750	14.26810	-1.67400	-1.60894	14.13824
714.84375	12.48711	0.51568	-4.51669	10.34345
718.75000	10.17278	0.93306	-3.57660	9.40361
722.65625	10.41221	0.49537	-1.25175	9.62186
726.56250	11.53971	0.19368	0.70738	10.56886
730.46875	13.79523	0.83869	1.70969	12.45183
734.37500	14.44233	2.23989	0.41838	12.62502
738.28125	8.99710	-0.29969	0.43038	11.40181
742.18750	8.88554	-2.86137	-0.55531	12.16494
746.09375	9.14954	-1.89150	-0.14432	12.68503
750.00000	6.07617	-0.28899	0.98791	16.02164
753.90625	4.30219	-0.05731	0.92940	16.51528
757.81250	3.78056	-2.31904	-0.38114	9.75349
761.71875	4.94078	-0.57212	-0.25869	10.66816
765.62500	3.54714	1.64832	2.21282	11.59083
769.53125	2.39436	2.59669	3.07376	10.34344
773.43750	2.21467	2.08300	-0.56844	6.30285
777.34375	0.16357	-1.90147	-1.57886	3.25046
781.25000	0.59076	-3.91628	-0.76257	4.72601
785.15625	2.38730	-2.48189	0.93051	5.67203
789.06250	-2.08405	-4.20532	-0.89868	2.67074
792.96875	-4.30943	-3.83278	-2.46570	3.34622
796.87500	0.96652	-1.46501	-0.34232	5.99693
800.78125	4.69818	-1.60918	0.75600	5.21577
804.68750	5.26625	3.04616	1.65135	2.98478
808.59375	3.92395	3.47974	1.96324	0.65974
812.50000	-0.35981	-0.88445	0.07035	2.00733
816.40625	-3.48060	-2.21911	-0.29843	5.10050
820.31250	1.54740	-1.30415	0.67261	7.30017
824.21875	5.33309	-0.70279	-0.45792	11.98752
828.12500	5.91401	0.66962	-0.42929	14.78649
832.03125	3.18616	1.65784	-0.61860	15.18274
835.93750	4.55147	1.87898	0.56650	16.27729
839.84375	3.62757	1.83601	0.19794	14.60400
843.75000	-0.63717	2.79371	-2.17169	11.32194
847.65625	1.46888	3.07801	-2.03261	9.59238
851.56250	3.50975	-0.23814	-1.71433	8.62573
855.46875	1.29042	-2.06620	-1.37492	9.30972
859.37500	0.46113	0.96316	0.54260	11.00879
863.28125	0.24767	0.64479	-0.26412	7.83468
867.18750	-2.96418	-2.18857	-4.05568	1.59669
871.09375	-5.43130	-2.54567	-3.62214	2.88841
875.00000	-5.20419	-2.77440	-1.69206	4.75021
878.90625	-1.50611	-4.32424	-1.11277	2.96124
882.81250	2.34515	-3.11748	-2.38860	5.14955
886.71875	3.09143	0.58476	-2.87191	8.12445
890.62500	-1.87665	-0.02902	-0.30038	8.85219
894.53125	-5.26083	-1.85959	0.01632	10.25712
898.43750	-1.87215	-1.13140	-1.14060	10.60759
902.34375	0.81815	-0.43149	-1.69264	8.09877
906.25000	0.29424	-0.68909	-1.70398	9.83311
910.15625	-0.33085	0.05677	-2.22711	12.41610
914.06250	-0.49038	1.88467	-2.69872	11.32782
917.96875	-1.44384	2.88664	-1.15199	10.98088
921.87500	-0.30572	3.46739	-0.99458	10.63543
925.78125	0.73213	2.45283	-0.95390	12.36152
929.68750	0.01389	2.94781	1.87773	13.98443
933.59375	1.85620	1.20290	3.05445	14.41221
937.50000	7.83704	1.68588	2.88278	16.16972
941.40625	8.23897	2.13488	0.11118	15.57751
945.31250	2.38948	-0.46412	-1.02331	12.88684
949.21875	1.57621	-1.43076	-2.89567	11.14054
953.12500	1.37736	-2.29593	-2.87302	11.45465
957.03125	0.58556	-1.91324	-1.52727	12.87836
960.93750	1.46895	-2.41160	-0.38783	12.44648
964.84375	2.84797	-2.58806	-0.29892	11.40634
968.75000	5.96920	-0.58928	-0.83443	11.94345
972.65625	2.91020	1.05578	-0.33722	13.74008
976.56250	-3.45442	-0.65867	2.94344	9.56987
980.46875	-6.91772	-2.11096	3.55448	8.49298
984.37500	-10.78731	-3.51361	-0.39067	9.93179
988.28125	-10.57920	-4.60183	-0.80394	6.32012
992.18750	-7.24319	-4.86218	-0.21963	7.16895
996.09375	-7.10329	-5.02761	0.57988	6.64913
1000.00000	-5.23766	-3.81108	-0.55072	6.13328
1003.90625	-1.44809	-0.41788	-0.89352	12.48979
1007.81250	0.28331	-0.57518	-2.40182	11.19321
1011.71875	-0.47299	-0.30894	-4.53730	9.07001
1015.62500	-2.30183	0.69258	-4.18668	10.96813
1019.53125	-0.74525	-1.86899	-1.82252	10.60396
1023.43750	-0.56462	-3.77448	0.20955	11.82432
1027.34375	-0.12434	-3.41781	0.41575	9.23579
1031.25000	4.68739	0.61006	1.61572	6.55170
1035.15625	4.50343	1.99465	0.32722	6.00880
1039.06250	2.12592	3.71657	-3.48296	2.56342
1042.96875	1.93447	4.95425	-2.72023	1.88816
1046.87500	1.09165	4.59957	-0.81262	3.26705
1050.78125	2.59884	7.15979	-0.70055	9.28654
1054.68750	3.64337	4.51756	-2.40009	9.10016
1058.59375	2.97190	0.45603	-3.51620	4.57553
1062.50000	4.03311	-0.01644	-0.81584	4.83992
1066.40625	5.94599	0.10791	2.37505	5.37341
1070.31250	6.55996	1.60905	2.21147	7.20328
1074.21875	3.58104	-0.60552	0.12023	6.94837
1078.12500	0.98639	-3.59121	-1.11565	4.95557
1082.03125	0.89461	-2.56627	-2.13348	4.15662
1085.93750	2.75367	-0.77428	-2.10816	4.27113
1089.84375	5.29024	0.07302	-0.12630	3.52713
1093.75000	6.73538	-0.48324	0.23030	2.78005
1097.65625	7.04775	2.05143	-0.71303	6.12157
1101.56250	3.79901	1.33676	2.59661	8.29718
1105.46875	-0.83063	-2.47776	3.87055	2.77827
1109.37500	0.40247	0.13242	0.34288	-0.93522
1113.28125	-0.18894	0.44927	-0.46054	0.22446
1117.18750	0.20327	0.05766	0.10925	4.44811
1121.09375	2.26835	1.21908	-1.12852	2.75381
1125.00000	4.45975	1.84926	-1.44532	3.30993
1128.90625	3.98603	2.99462	1.60333	5.90503
1132.81250	-0.67012	2.59215	1.26907	3.71700
1136.71875	1.00220	0.90310	0.14229	3.96590
1140.62500	2.34482	-0.09641	5.22808	3.64137
1144.53125	-1.92576	-1.89371	6.52469	0.22210
1148.43750	-4.91075	-3.83223	4.05686	-0.93390
1152.34375	-5.58548	-3.32486	0.58132	-2.45409
1156.25000	-5.46366	-3.47175	-0.61458	-4.99402
1160.15625	-2.82303	-3.41330	-1.29857	-3.95036
1164.06250	-1.05087	-0.00464	-2.03421	-4.47345
1167.96875	-2.51414	1.40945	-4.78815	-6.94670
1171.87500	-3.24841	0.42419	-4.54094	-4.18339
1175.78125	-1.06190	1.03432	-1.75949	0.53776
1179.68750	0.86603	2.95533	-2.57484	0.92984
1183.59375	1.03928	1.87818	-0.92943	3.32298
1187.50000	3.52086	0.18485	-1.15902	9.22152
1191.40625	4.73154	2.15190	-2.81803	5.78481
1195.31250	2.12046	1.12302	-1.68190	3.23774
1199.21875	2.53173	2.49098	0.19209	9.01374
1203.12500	1.52282	2.95169	0.17108	10.31180
1207.03125	-0.50495	1.35865	-2.78470	9.29143
1210.93750	1.83608	3.46718	-4.32546	12.94723
1214.84375	3.68150	3.23919	-3.20397	11.57012
1218.75000	4.18767	3.25354	-2.26393	5.39233
1222.65625	2.00952	2.41286	-1.95376	2.79022
1226.56250	-0.08635	1.30522	-3.62107	0.91693
1230.46875	-0.65133	-0.06451	-4.63346	1.18845
1234.37500	-2.01887	-2.28978	-1.89545	4.18238
1238.28125	-1.82298	0.00580	2.54873	11.01799
1242.18750	-1.93450	2.68217	3.17475	11.37838
1246.09375	-1.26755	1.23438	0.36217	9.88407
1250.00000	1.70302	1.22507	2.30021	12.41506
1253.90625	2.74959	1.85964	3.45052	12.50597
1257.81250	1.01919	0.00082	3.75163	10.17663
1261.71875	-0.64104	-0.26701	3.87406	6.65930
1265.62500	-2.84054	0.74458	3.92802	7.58224
1269.53125	-2.78443	0.08123	2.37128	6.73802
1273.43750	-3.76988	0.77637	0.34088	2.29473
1277.34375	-3.40334	2.83576	0.53917	2.46608
1281.25000	-0.96143	3.64144	-0.65921	4.34475
1285.15625	3.25285	3.06121	-1.38377	4.48512
1289.06250	3.61664	-0.67689	-3.21299	3.09580
1292.96875	0.98846	-1.11023	-2.76532	4.17448
1296.87500	-0.58533	-0.35423	-1.04498	3.60192
1300.78125	-1.28578	-4.12482	-5.18472	0.40337
1304.68750	4.11747	-4.30463	-5.09533	9.05171
1308.59375	5.59567	-0.24467	0.05173	9.95034
1312.50000	-10.77598	0.62913	1.38226	-8.04249
1316.40625	-19.53774	0.90618	1.41637	-17.44003
1320.31250	-24.98594	-1.40236	-1.23893	-23.29874
1324.21875	-37.31749	-4.02448	-3.17532	-37.54888
1328.12500	-48.82444	-6.68137	-3.54967	-45.62888
1332.03125	-53.16401	-7.30487	-0.91849	-45.63540
1335.93750	-58.64847	-9.09845	1.47539	-47.36117
1339.84375	-59.97532	-10.35020	-0.90784	-49.84013
1343.75000	-58.19612	-8.18377	-3.27744	-51.10731
1347.65625	-58.91054	-6.28773	-3.54140	-54.44839
1351.56250	-56.86961	-3.15700	-2.41722	-55.01181
1355.46875	-57.07417	-6.59682	-2.48078	-50.29819
1359.37500	-55.08289	-9.61141	-5.80136	-44.56958
1363.28125	-54.49045	-7.51219	-5.39930	-41.29659
1367.18750	-50.85240	-9.53971	-4.35574	-41.49044
1371.09375	-44.05213	-10.29972	-2.31047	-42.21316
1375.00000	-38.98983	-8.91686	-0.38038	-39.94827
1378.90625	-36.90345	-6.84033	1.00477	-36.09599
1382.81250	-35.87277	-3.21599	0.93775	-33.10163
1386.71875	-33.91786	-1.93141	0.45436	-28.11197
1390.62500	-30.42444	-2.14227	2.22002	-24.56357
1394.53125	-25.75003	-3.56998	1.32789	-24.77027
1398.43750	-24.37595	-4.85646	-1.03781	-25.62850
1402.34375	-23.70032	-4.96246	-1.99286	-22.49615
1406.25000	-24.22426	-5.22012	-2.00417	-20.76174
1410.15625	-24.44650	-5.68306	-0.91564	-20.19333
1414.06250	-19.77086	-4.66108	-1.79018	-17.65513
1417.96875	-12.26280	-3.65923	-1.04938	-13.97266
1421.87500	-9.91596	-1.46676	-1.69785	-12.30334
1425.78125	-5.65467	4.36846	0.35735	-6.95070
1429.68750	-3.95531	4.05756	2.38309	-4.92470
1433.59375	-8.96286	-1.71669	1.94808	-5.30271
1437.50000	-9.42887	-1.23374	0.56756	-2.33629
1441.40625	-9.02696	-0.38188	1.42225	-4.54007
1445.31250	-4.80319	-0.56333	3.51116	-3.60426
1449.21875	-3.19883	-0.32118	3.25050	-2.12699
1453.12500	-1.78598	0.02235	2.06431	-4.23035
1457.03125	2.25742	1.61379	0.58951	-2.40358
1460.93750	2.33490	0.30958	0.11722	-3.23832
1464.84375	4.51974	0.93891	2.62361	-2.66667
1468.75000	5.22335	3.34054	2.08806	-2.53237
1472.65625	3.37307	4.58258	0.97354	-4.76496
1476.56250	-1.37989	1.25639	4.65706	0.73527
1480.46875	-7.26084	-1.00178	6.47685	6.10537
1484.37500	-7.50404	-0.38983	4.54630	4.72375
1488.28125	-7.29595	0.93944	3.73005	3.12687
1492.18750	-7.58644	1.88790	3.50856	1.15531
1496.09375	-5.83490	-0.69525	1.08453	-2.18497
1500.00000	-4.37234	-1.09042	1.96862	2.53735
1503.90625	-6.22391	1.89976	5.65509	6.07340
1507.81250	-9.32780	-0.27225	4.54972	4.77684
1511.71875	-6.86086	1.20272	4.02591	7.89178
1515.62500	-6.27228	2.60707	2.76473	7.77519
1519.53125	-1.08942	3.26884	1.50249	5.39647
1523.43750	6.34384	2.97513	2.32572	10.24317
1527.34375	-6.10966	-1.10054	4.14364	7.25184
1531.25000	-13.78880	-2.31073	8.16409	1.34443
1535.15625	-8.33171	-2.53793	6.47261	-2.42177
1539.06250	-10.30632	-2.42773	4.67706	-3.04641
1542.96875	-11.30359	-3.60765	5.43977	1.51662
1546.87500	-9.72883	-3.96234	4.12391	-2.34250
1550.78125	-7.41567	-0.19334	5.04185	-1.96381
1554.68750	-4.75940	-0.01511	5.35692	1.47641
1558.59375	-5.83379	-0.45025	3.83783	2.19012
1562.50000	-3.56371	-0.92275	4.12057	3.26051
1566.40625	0.76669	-2.81309	6.10269	1.37665
1570.31250	1.78352	-2.52085	6.74492	1.99788
1574.21875	0.41633	-1.51195	6.66822	7.78710
1578.12500	-2.17835	-2.48302	7.04414	11.43553
1582.03125	-5.49359	-4.27867	3.60868	9.02505
1585.93750	-4.03755	-2.08379	2.02219	7.93091
1589.84375	-1.90401	-0.02778	1.58642	8.79869
1593.75000	-2.87652	-0.98709	2.34595	9.66351
1597.65625	-4.57879	-2.88473	5.43193	7.36418
1601.56250	-7.82753	-6.01700	5.92109	7.92825
1605.46875	-8.02500	-6.60812	6.38917	11.27392
1609.37500	-5.98601	-4.80385	5.68198	11.18693
1613.28125	-3.35408	-2.47242	4.07268	13.55561
1617.18750	0.26154	-0.44656	5.44828	11.73536
1621.09375	-1.70273	-3.31451	5.82216	10.04113
1625.00000	0.08574	-3.89313	5.90828	11.80615
1628.90625	6.05884	0.07267	3.71878	12.78967
1632.81250	3.82028	0.47603	3.38446	11.40762
1636.71875	-1.76025	-1.21307	4.27227	4.40384
1640.62500	-2.02938	-3.01847	2.91109	3.67655
1644.53125	-3.07656	-1.59244	3.80474	9.12190
1648.43750	-8.07620	-1.51630	4.15733	9.57772
1652.34375	-7.54219	-3.02368	4.30805	8.05769
1656.25000	-2.18223	-2.36469	6.33554	6.32378
1660.15625	-1.55629	-1.09747	6.86028	7.77055
1664.06250	-6.23108	-2.12108	4.51288	6.44174
1667.96875	-7.29141	-3.93044	4.17651	5.98318
1671.87500	-1.57878	-0.08049	8.45290	5.52322
1675.78125	2.62231	-1.48509	6.80210	1.78293
1679.68750	0.92390	-6.41390	2.36029	0.96633
1683.59375	2.30597	-5.07355	3.60275	1.34495
1687.50000	4.78758	-1.52875	4.98480	5.22897
1691.40625	5.59544	0.03533	4.93751	11.05981
1695.31250	5.40188	-1.39652	2.85015	9.72167
1699.21875	6.61901	0.77732	3.91826	9.45383
1703.12500	5.20706	3.25259	4.70305	11.55782
1707.03125	4.38800	1.25662	5.37353	12.14919
1710.93750	8.34072	-0.66419	6.25031	10.16404
1714.84375	8.97725	-2.50400	8.17762	8.78713
1718.75000	4.24525	-2.89260	7.90881	8.65333
1722.65625	2.87285	-4.13627	7.41307	10.88655
1726.56250	8.83545	-5.64681	10.58091	16.26596
1730.46875	12.29964	-2.58437	7.95672	12.10522
1734.37500	11.73785	-0.37745	3.03899	7.04051
1738.28125	8.71014	0.30631	7.08021	8.63797
1742.18750	6.98680	0.96798	8.10906	7.78957
1746.09375	5.23603	0.32604	6.90819	4.68349
1750.00000	0.55079	-0.48917	6.83152	2.78217
1753.90625	1.19430	-0.66048	5.96707	5.29062
1757.81250	1.47843	-3.32525	5.86524	4.57295
1761.71875	2.23568	-3.99600	3.16711	3.47316
1765.62500	2.05076	-1.37275	2.81804	1.17258
1769.53125	-2.72849	-0.42440	4.08179	-2.89509
1773.43750	-1.69941	-2.95284	2.45424	-0.08561
1777.34375	2.29344	-3.71402	1.84665	1.69747
1781.25000	1.91468	-1.69956	1.85703	5.59071
1785.15625	0.08474	-1.07110	0.72947	3.71624
1789.06250	-0.76042	-2.39173	1.72066	3.53549
1792.96875	4.26682	-2.82514	3.37705	11.86665
1796.87500	3.49865	-3.68089	3.88856	14.11444
1800.78125	-0.42550	-3.01926	4.18090	10.10982
1804.68750	2.15705	-1.99033	2.65852	9.08761
1808.59375	4.84388	-0.75098	2.16445	8.77722
1812.50000	8.21556	-0.68309	1.88313	0.85750
1816.40625	10.33276	-0.80907	2.32012	1.53307
1820.31250	8.10787	-0.29711	4.09699	8.16510
1824.21875	4.64066	-3.72520	3.77222	8.01741
1828.12500	1.99811	-3.56162	1.78611	5.98131
1832.03125	0.47899	-0.15590	3.20842	4.36308
1835.93750	-1.37924	-2.75539	1.57293	2.63729
1839.84375	-0.69153	-3.60427	-0.40742	-1.45345
1843.75000	-2.13589	-3.04957	-1.97131	-0.70596
1847.65625	-1.23865	-3.97407	-1.83233	-0.42071
1851.56250	1.20508	-3.26098	-1.11119	-3.40177
1855.46875	2.61212	-2.26859	-1.98065	0.10300
1859.37500	2.58865	-4.07448	-0.46617	1.80235
1863.28125	1.97219	-5.60165	-0.06418	-0.56558
1867.18750	9.23654	-4.40579	0.97931	0.85230
1871.09375	6.36639	-4.76298	1.81572	0.12959
1875.00000	4.17581	-4.18597	1.73110	3.20034
1878.90625	8.27678	-5.73588	2.71328	8.26147
1882.81250	4.06928	-9.36433	1.43738	7.62950
1886.71875	2.80076	-8.88566	1.35688	5.36644
1890.62500	4.27947	-7.48491	1.10780	5.69144
1894.53125	0.49228	-8.50974	1.42434	5.08182
1898.43750	-0.55127	-8.99045	1.47618	0.19442
1902.34375	-2.29328	-10.30531	-0.68772	-2.31428
1906.25000	-2.41432	-10.16009	-2.31085	-0.98270
1910.15625	8.24257	-4.57920	-2.02822	-2.02586
1914.06250	8.48589	-1.13967	0.72354	0.91534
1917.96875	1.89139	-3.36126	0.25553	2.58323
1921.87500	5.84992	-3.58650	0.00988	4.25259
1925.78125	7.29063	-5.00403	3.27389	6.38178
1929.68750	4.55764	-5.31498	3.68779	4.37852
1933.59375	3.57945	-3.43363	2.84974	6.01524
1937.50000	8.75446	-2.14481	2.67796	6.56413
1941.40625	9.55934	-0.89003	2.32385	-0.07180
1945.31250	3.70984	0.13722	3.20389	-4.37401
1949.21875	4.50829	-0.02365	3.74896	-5.31421
1953.12500	7.93593	-0.08304	4.17446	-10.64083
1957.03125	4.32377	-0.90921	5.11721	-12.44015
1960.93750	1.58088	-0.19879	6.25656	-8.84241
1964.84375	2.96002	0.83346	6.74828	-9.88214
1968.75000	6.08133	0.81746	5.00391	-8.13575
1972.65625	8.66347	0.04484	2.27768	-8.75631
1976.56250	2.29899	-2.47546	0.32012	-16.14957
1980.46875	4.07392	-3.52492	-1.08350	-7.55577
1984.37500	14.30701	-0.49537	0.61226	2.34487
1988.28125	14.11228	2.04271	2.61647	-2.87813
1992.18750	4.55464	2.18527	4.81254	-6.86409
1996.09375	1.06829	3.63148	4.00023	-6.57769
2000.00000	1.32220	4.04216	-0.35388	-7.89911
2003.90625	-3.34963	1.79424	-1.50261	-10.40670
2007.81250	0.79943	1.63688	0.61536	-5.25604
2011.71875	1.65485	-0.91744	3.31498	-0.12617
2015.62500	-3.80038	-3.54239	2.05385	-1.04826
2019.53125	-1.43786	-2.07473	2.40329	-0.60616
2023.43750	0.35450	-3.17444	0.40600	3.03209
2027.34375	-2.42864	-4.02665	-2.20836	4.87615
2031.25000	-3.25785	-2.81935	-0.60555	3.40120
2035.15625	-3.44177	-2.24069	-0.28235	4.47041
2039.06250	-0.17821	1.09284	-0.06329	4.24887
2042.96875	3.65977	2.33046	-0.91236	3.97686
2046.87500	2.41399	0.76692	-0.61651	2.13263
2050.78125	-2.52558	0.90952	1.51015	-1.11496
2054.68750	2.54828	2.69941	2.63104	1.92240
2058.59375	8.72662	1.86134	2.32071	4.24793
2062.50000	6.96743	0.18000	1.79757	4.10957
2066.40625	6.05979	-0.09867	2.97382	4.24042
2070.31250	9.89714	2.20824	4.42192	7.27932
2074.21875	12.15634	1.60527	3.13637	9.03929
2078.12500	11.97921	-2.58925	1.49754	10.67307
2082.03125	13.90210	-1.16150	0.88254	14.30665
2085.93750	16.96989	2.24219	1.31075	13.61544
2089.84375	17.49180	2.68646	0.47199	11.66284
2093.75000	14.50475	1.32426	1.23147	7.69251
2097.65625	9.98190	0.63541	1.89985	6.19909
2101.56250	7.53896	1.12945	-0.43160	9.98664
2105.46875	8.95321	2.55296	2.05109	10.91474
2109.37500	14.21556	3.95424	5.37319	10.82780
2113.28125	16.04158	2.25633	4.16675	10.37592
2117.18750	11.19561	1.05870	3.12478	7.74985
2121.09375	6.41087	1.41418	1.88688	4.44395
2125.00000	8.19936	0.02969	3.18180	3.79150
2128.90625	8.93438	0.77201	4.21575	8.80432
2132.81250	4.68118	0.36948	3.47844	10.24289
2136.71875	3.53292	-1.31964	2.35157	8.88024
2140.62500	4.47265	0.09839	0.58741	8.55592
2144.53125	1.81375	-0.08729	0.27223	8.36037
2148.43750	-1.17116	-0.41414	0.22188	8.81622
2152.34375	-0.63710	0.49605	-2.04504	6.49046
2156.25000	3.11123	1.55793	-3.64394	4.35380
2160.15625	5.75193	0.81053	-1.91044	2.17435
2164.06250	5.50946	0.59276	-1.43737	-1.16906
2167.96875	3.64321	2.00679	1.04672	-0.41867
2171.87500	0.08841	0.61858	1.69673	-0.07269
2175.78125	2.67776	1.63153	-0.76002	0.21641
2179.68750	0.97931	3.14953	-2.78429	-0.19715
2183.59375	-0.05628	0.86357	-5.16829	-3.04191
2187.50000	1.21649	-0.42688	-4.59215	-2.78419
2191.40625	-2.00516	-0.87750	-4.23657	-3.80319
2195.31250	0.21881	0.91406	-2.69766	-2.72371
2199.21875	4.65925	3.49077	-1.62963	-4.60327
2203.12500	2.84425	0.32503	-3.26245	-8.94609
2207.03125	-0.79536	-3.28272	-0.57737	-3.51955
2210.93750	-2.08090	-2.38307	0.70225	0.53932
2214.84375	-7.89134	0.20941	-0.19100	-2.85225
2218.75000	-8.59411	1.43247	1.15186	-4.19473
2222.65625	-6.34015	-1.42290	-0.95560	-5.18497
2226.56250	-6.42151	-1.32184	-1.81708	-6.25232
2230.46875	-4.56908	0.53182	-0.00907	-2.75729
2234.37500	-1.90741	1.12703	-0.49467	1.44551
2238.28125	-0.90574	2.21367	-3.70625	4.25191
2242.18750	2.60896	2.06950	-6.30379	6.22408
2246.09375	0.45527	1.83046	-5.49006	3.52108
2250.00000	3.82869	3.83576	-1.94039	4.03752
2253.90625	10.51616	5.27621	2.83609	6.14316
2257.81250	12.00908	5.83489	-0.08632	8.64903
2261.71875	20.82490	6.77580	-3.18748	17.62259
2265.62500	19.83413	3.75804	2.50735	18.94855
2269.53125	12.63737	1.88582	6.59162	14.88105
2273.43750	14.06935	5.80435	4.15812	13.66138
2277.34375	20.07676	5.84901	1.13286	17.05631
2281.25000	21.71277	4.63992	2.75495	22.96445
2285.15625	15.04774	2.85080	5.65666	22.70209
2289.06250	15.41150	1.12727	5.03615	21.71579
2292.96875	22.05063	3.11140	4.67788	23.19746
2296.87500	21.28260	3.86739	2.77178	20.20746
2300.78125	18.97030	2.51428	3.46707	17.00905
2304.68750	18.32954	0.72269	5.16813	20.82241
2308.59375	19.80778	1.96203	6.28576	25.75049
2312.50000	16.73271	2.43287	6.00450	24.27792
2316.40625	17.23826	3.11270	6.44138	22.13326
2320.31250	14.61055	3.62461	7.00941	17.88637
2324.21875	12.75508	2.21114	5.47580	17.33601
2328.12500	15.35053	4.38934	8.72783	19.32940
2332.03125	15.84602	3.76572	8.13547	15.29377
2335.93750	16.00240	2.77794	4.48525	12.35931
2339.84375	16.28719	4.74949	6.13130	15.92437
2343.75000	16.85747	5.30411	7.79086	18.68666
2347.65625	13.32243	5.99124	7.12392	18.56917
2351.56250	10.52803	3.88376	8.24803	16.39410
2355.46875	11.53213	2.86142	7.78144	18.28733
2359.37500	12.71733	6.29356	4.86372	17.97204
2363.28125	14.92137	5.97514	6.07161	15.60415
2367.18750	13.32117	3.14169	7.51800	13.79874
2371.09375	8.83932	2.38154	5.13095	13.07613
2375.00000	8.26042	2.95855	3.03165	12.52061
2378.90625	8.33202	4.63205	2.40206	11.13496
2382.81250	10.16838	5.83875	3.54375	14.53243
2386.71875	13.33206	6.31736	3.46325	18.31352
2390.62500	11.99019	6.10643	3.21418	17.02691
2394.53125	7.39721	5.48455	3.93366	15.20865
2398.43750	2.32433	4.60087	5.19427	15.96238
2402.34375	1.38816	4.89770	3.83619	13.05100
2406.25000	3.68467	4.63997	4.22769	13.17392
2410.15625	3.05948	4.17697	5.31614	13.33960
2414.06250	0.48226	3.99009	3.63568	9.43111
2417.96875	1.94632	4.99193	2.76471	10.29328
2421.87500	3.48723	5.16961	3.72787	14.38040
2425.78125	5.33086	4.55784	1.35082	15.70384
2429.68750	3.80660	4.24692	-1.05577	11.68606
2433.59375	5.24587	5.72535	0.12083	11.30822
2437.50000	7.60035	7.01407	1.15777	12.26016
2441.40625	3.16697	5.85121	1.60947	9.65359
2445.31250	-0.26499	4.46083	1.28075	6.96325
2449.21875	4.15975	4.30003	2.63162	8.44071
2453.12500	5.97546	3.43478	2.65419	11.97855
2457.03125	1.96015	4.22025	1.58219	12.19386
2460.93750	-1.18584	4.12477	1.91564	9.74760
2464.84375	-2.62750	0.72472	0.39267	7.49898
2468.75000	0.49359	1.11162	-0.14294	8.43944
2472.65625	1.06085	2.75656	-0.85456	7.01294
2476.56250	0.33715	3.45959	0.41130	6.06651
2480.46875	1.70889	4.82769	3.43991	4.18409
2484.37500	3.07727	3.42494	0.70340	-2.83844
2488.28125	6.50866	2.73949	-0.91877	-6.04689
2492.18750	7.82987	2.47910	0.47135	-6.80948
2496.09375	8.77549	4.32816	0.06195	-8.13492
2500.00000	6.20875	4.33585	1.75174	-7.03872
2503.90625	-0.88091	1.68500	2.21468	-7.12883
2507.81250	-5.99942	-0.08415	0.70627	-6.81338
2511.71875	-8.77055	-1.42970	-0.62344	-4.50403
2515.62500	-6.97317	-0.02532	1.74173	-3.81443
2519.53125	-8.64006	-0.57240	4.50873	-3.37233
2523.43750	-11.28003	-1.26912	4.12315	0.66881
2527.34375	-9.63101	0.29621	2.71750	0.49832
2531.25000	-12.07204	-0.10818	1.90275	-2.18542
2535.15625	-8.22678	-0.33541	2.62882	4.12196
2539.06250	-5.36631	6.22157	-0.77853	5.10925
2542.96875	-10.39295	5.84750	-4.44807	-3.22132
2546.87500	-14.05637	-0.14830	-1.73472	-6.67722
2550.78125	-14.96674	0.39718	1.60068	-3.47794
2554.68750	-14.32522	-0.63344	1.91567	-3.26100
2558.59375	-8.54986	-0.26273	1.20235	1.07928
2562.50000	-3.05648	2.08521	1.88798	4.16446
2566.40625	-0.33786	4.22412	-0.15928	1.87779
2570.31250	2.29065	4.91927	-2.33763	4.91678
2574.21875	2.13220	5.92807	-2.01146	2.64751
2578.12500	1.95499	7.77748	-0.82986	0.65499
2582.03125	1.86314	5.17590	0.97268	4.69149
2585.93750	1.70736	1.72968	2.60955	5.61210
2589.84375	5.45262	2.97984	3.78544	4.86835
2593.75000	4.48008	2.02053	2.93312	2.50988
2597.65625	-1.25157	0.92872	1.18384	-0.19225
2601.56250	-1.27696	1.82570	0.06120	-2.44855
2605.46875	-2.68331	2.84626	-2.69426	-2.72910
2609.37500	-3.86776	5.05337	-1.78978	-3.21877
2613.28125	-2.84759	4.56431	-0.98162	-4.87931
2617.18750	-0.44087	4.57554	-2.02368	-3.87892
2621.09375	-0.79347	5.33401	-2.45585	-3.15542
2625.00000	1.80078	5.56119	-0.75811	0.22139
2628.90625	2.53571	7.51242	-0.12723	0.39916
2632.81250	-1.31462	5.49819	-0.86463	0.62891
2636.71875	-1.65712	0.98856	-2.39448	3.69856
2640.62500	-0.31456	-0.41387	-1.33824	4.98604
2644.53125	0.65280	1.41513	-1.25056	5.59630
2648.43750	-2.73514	0.68538	-2.10691	1.61997
2652.34375	-3.40991	1.19271	-0.34455	2.51766
2656.25000	-1.27347	3.06045	-1.13769	2.39565
2660.15625	-1.05040	2.71601	-4.23948	-0.18675
2664.06250	-0.08417	1.28946	-2.15475	-0.30665
2667.96875	0.87010	-0.92282	-0.87957	-0.36207
2671.87500	2.15043	-1.10218	-1.43844	0.78988
2675.78125	0.30758	0.71666	0.53698	1.07903
2679.68750	-0.98801	1.83178	-0.27857	1.47140
2683.59375	-1.62067	0.75459	-0.24505	1.85016
2687.50000	-1.95969	-0.13297	0.33103	-1.92134
2691.40625	-1.95792	0.62523	0.68650	-3.34316
2695.31250	-4.97206	0.40214	-0.99804	-5.48692
2699.21875	-8.59023	0.96419	-1.94470	-6.96339
2703.12500	-13.22572	1.42487	-1.16001	-6.06800
2707.03125	-12.43311	0.63762	-1.69842	-5.07347
2710.93750	-8.07761	1.94022	-0.82172	-1.41739
2714.84375	-3.81482	2.92092	1.10552	2.04098
2718.75000	1.12347	4.94991	4.46299	3.92209
2722.65625	1.76573	5.31792	3.96725	3.33494
2726.56250	-1.94204	0.58384	0.28514	-0.14988
2730.46875	-4.11892	-1.59179	1.28726	1.33064
2734.37500	-0.65140	-0.59369	1.20457	4.32476
2738.28125	3.57364	2.50764	0.00760	6.32546
2742.18750	4.26784	5.98979	3.45398	3.86559
2746.09375	1.71124	6.55663	1.04424	0.75977
2750.00000	2.26416	6.95014	-1.45010	1.27636
2753.90625	1.69885	3.55534	-0.70288	-3.87060
2757.81250	-0.03171	0.48762	1.61274	-8.61731
2761.71875	-2.09507	0.21976	1.73503	-8.10513
2765.62500	-5.90636	0.02247	0.17714	-3.15267
2769.53125	-8.26802	1.37368	0.63490	-2.38490
2773.43750	-10.05958	0.45696	1.42485	-4.41034
2777.34375	-10.90203	0.50159	3.23475	-3.83582
2781.25000	-9.26611	0.50131	5.25966	-1.55395
2785.15625	-9.48423	-0.07902	5.34080	-2.21918
2789.06250	-10.32931	-0.59376	3.91432	-4.41416
2792.96875	-7.31665	-0.62428	1.13838	-0.91763
2796.87500	-3.65246	1.74337	0.03813	-1.48992
2800.78125	-7.17352	1.19608	-2.89301	-5.89694
2804.68750	-11.44059	-1.80430	-4.41544	-6.91862
2808.59375	-10.36536	-3.38542	-1.28324	-5.21387
2812.50000	-6.18773	-2.10870	0.45008	-5.07464
2816.40625	-3.66754	-0.21995	0.88696	-3.99574
2820.31250	-3.87771	-0.11093	1.45486	-0.98970
2824.21875	-0.89790	2.10201	2.33879	-0.33118
2828.12500	-0.71990	0.65389	0.75554	-1.96400
2832.03125	-4.65659	-1.58135	0.96903	-2.37312
2835.93750	-10.54407	-0.55442	0.54221	-2.88985
2839.84375	-10.25918	-0.19448	1.38231	-1.33921
2843.75000	-9.68882	-0.44561	3.44476	-2.60612
2847.65625	-9.59735	-3.78771	3.18071	-2.32052
2851.56250	-1.51252	-4.28342	3.09592	0.33977
2855.46875	-0.10544	-2.48518	-0.19124	-5.42256
2859.37500	-2.94937	-1.06762	-1.49734	-10.97578
2863.28125	-0.74533	-2.19189	-1.90131	-10.92587
2867.18750	0.47502	-2.20476	-4.88720	-11.11942
2871.09375	3.24593	0.66152	-3.64797	-10.23015
2875.00000	6.29346	1.23849	-0.10627	-5.54735
2878.90625	7.17095	1.70330	1.27875	-3.70946
2882.81250	4.97807	2.10416	0.40576	-4.34113
2886.71875	2.09785	0.56816	-0.48063	-2.17164
2890.62500	-1.25865	-0.04565	0.07611	-4.66681
2894.53125	-1.41948	-1.07045	-0.01029	-6.88779
2898.43750	-2.46310	-1.14824	-1.57027	-6.13388
2902.34375	-4.20516	-0.85132	-0.10790	-8.64221
2906.25000	-3.92330	-3.12369	-2.13398	-9.72794
2910.15625	-6.16025	-3.18380	-3.06021	-10.77090
2914.06250	-7.52869	-2.56483	-1.11434	-10.64994
2917.96875	-2.84122	-1.16006	-0.77655	-8.98178
2921.87500	-0.89743	-0.98228	-1.42512	-8.92380
2925.78125	0.94622	-1.59402	-1.78757	-5.58551
2929.68750	-0.57797	-2.71081	1.04390	-4.76801
2933.59375	-4.37684	-3.24700	2.62341	-6.35448
2937.50000	-2.82831	0.86226	2.45150	-4.59654
2941.40625	-4.44113	-0.30049	2.50026	-1.96486
2945.31250	-3.84383	-0.88493	1.36559	-4.65507
2949.21875	-1.83671	-1.04577	0.70180	-11.23610
2953.12500	-2.03576	-1.91101	1.93308	-9.71286
2957.03125	-3.23063	0.08326	-1.95939	-4.66238
2960.93750	-5.97382	-0.41517	-5.65533	-1.46755
2964.84375	-7.81846	-0.99466	-3.14899	3.93959
2968.75000	-7.92090	-2.21950	-2.47586	1.65660
2972.65625	-6.14488	-0.17168	1.24464	-0.57569
2976.56250	-4.45107	1.33727	3.31637	-2.73083
2980.46875	-5.49694	-0.51809	0.30092	-2.59850
2984.37500	-2.11396	0.09379	-0.42099	0.45242
2988.28125	-3.51782	0.61713	-2.44611	-1.14421
2992.18750	-9.04649	0.35671	-3.07070	-0.69787
2996.09375	-7.29505	0.19110	-2.67437	2.00618
