 	TP9	AF7	AF8	TP10	
-1000.00000	-7.44219	-16.50929	-2.53692	-22.97981
-996.09375	-11.72959	-16.29731	-3.63989	-25.91639
-992.18750	-12.99710	-14.13707	-4.69050	-25.67685
-988.28125	-11.42389	-12.77804	-3.62452	-22.70164
-984.37500	-6.26986	-9.33484	-4.15380	-21.61088
-980.46875	-5.48485	-10.54458	-7.05163	-22.65071
-976.56250	-3.28854	-12.63838	-6.03493	-21.09569
-972.65625	-0.47603	-12.01508	-3.80435	-17.55342
-968.75000	-0.78851	-13.13504	-3.61037	-16.46720
-964.84375	0.37255	-13.83731	-3.03319	-13.35611
-960.93750	-4.71923	-13.04917	-3.11334	-14.24633
-957.03125	-7.68449	-11.41170	-3.20496	-17.02807
-953.12500	-4.85604	-10.29797	-2.51570	-15.85709
-949.21875	-6.31153	-12.26975	-3.18054	-21.95635
-945.31250	-9.15141	-11.07575	-4.32127	-23.68130
-941.40625	-10.79487	-8.30683	-5.22583	-24.36781
-937.50000	-10.01061	-6.57373	-6.02974	-27.81733
-933.59375	-10.01306	-7.77941	-6.06467	-25.41675
-929.68750	-9.85559	-9.37764	-5.55930	-25.06174
-925.78125	-11.07242	-12.33098	-7.21063	-23.17619
-921.87500	-11.63214	-16.05909	-6.94024	-17.96811
-917.96875	-9.46313	-14.64472	-3.62999	-15.99271
-914.06250	-8.68766	-11.31118	-2.36501	-15.19990
-910.15625	-9.80211	-12.11576	-1.07722	-15.70326
-906.25000	-11.43653	-13.57255	-2.43248	-18.28908
-902.34375	-15.29782	-11.32211	-4.22537	-21.64778
-898.43750	-17.32769	-7.41906	-5.67611	-25.07358
-894.53125	-14.97654	-8.00155	-6.32731	-25.09134
-890.62500	-10.17343	-7.18922	-5.85315	-21.67700
-886.71875	-9.84237	-9.56166	-8.52092	-22.31870
-882.81250	-6.08619	-10.61380	-4.33204	-20.10384
-878.90625	1.04336	-9.07190	-2.90046	-17.59214
-875.00000	-0.66934	-11.55185	-5.86541	-16.00249
-871.09375	-5.32034	-13.13450	-3.77150	-10.33852
-867.18750	-10.31868	-13.19131	-2.91134	-7.46277
-863.28125	-12.20970	-12.32011	-4.43782	-10.92563
-859.37500	-10.36263	-10.33475	-5.37548	-10.07299
-855.46875	-4.44339	-9.87559	-3.80133	-4.44906
-851.56250	-0.07016	-4.97203	-3.29538	-3.03516
-847.65625	-13.26720	-3.50923	-4.94374	-14.81865
-843.75000	-21.58793	-5.55993	-6.95817	-29.17492
-839.84375	-18.51192	-4.75972	-7.86221	-32.74182
-835.93750	-24.68442	-4.58621	-8.59794	-36.36261
-832.03125	-27.05246	-4.86541	-8.05311	-37.23240
-828.12500	-27.95328	-5.49733	-5.75363	-41.16117
-824.21875	-26.97493	-5.64268	-5.04132	-44.23543
-820.31250	-28.64960	-6.04483	-5.12129	-44.90933
-816.40625	-32.37925	-3.34011	-6.95972	-46.46670
-812.50000	-29.44521	-1.13149	-9.18217	-44.02115
-808.59375	-34.22602	-3.44152	-5.74415	-40.95570
-804.68750	-38.04618	-4.10472	-3.11774	-39.99511
-800.78125	-30.30634	-3.71207	-5.20991	-41.74703
-796.87500	-20.27359	-2.91448	-7.34907	-39.99832
-792.96875	-13.68610	-1.42829	-7.49056	-37.49622
-789.06250	-15.55902	-1.77480	-6.93051	-36.35829
-785.15625	-18.94385	-4.97349	-8.84147	-34.58942
-781.25000	-20.66807	-5.81782	-7.72344	-29.70823
-777.34375	-12.94597	-2.50368	-6.14014	-29.04485
-773.43750	-6.76398	-0.92264	-7.81515	-25.70841
-769.53125	-3.77884	-2.51297	-9.31330	-19.30481
-765.62500	-3.11637	-3.41257	-7.30234	-22.38091
-761.71875	-3.37106	-3.89879	-4.19854	-25.72381
-757.81250	-0.32654	-3.31697	-3.73604	-25.29357
-753.90625	-1.42063	-1.22868	-4.51706	-24.36619
-750.00000	3.13422	-1.22528	-4.02917	-22.02480
-746.09375	-1.04381	-4.65885	-4.54322	-17.47596
-742.18750	-4.61529	-6.01140	-5.10965	-14.49145
-738.28125	-0.95439	-2.53341	-4.16630	-10.21322
-734.37500	3.96099	-0.33380	-1.22477	-6.87117
-730.46875	6.39543	-1.94273	-2.36152	-6.63657
-726.56250	1.77762	-3.87635	-4.59233	-6.17628
-722.65625	-8.29148	-4.49775	-3.60479	-10.52374
-718.75000	-2.34178	-5.39059	-5.41581	-12.41518
-714.84375	4.14908	-2.67181	-3.17781	-10.28736
-710.93750	-2.04498	-2.65227	-4.71472	-18.66383
-707.03125	-1.90403	-4.69087	-7.85181	-22.32818
-703.12500	-3.12461	-2.17628	-6.93473	-24.70721
-699.21875	-0.86714	-1.00855	-7.08108	-23.84539
-695.31250	-2.06042	-2.20071	-7.15451	-21.31382
-691.40625	-6.86770	-4.16193	-9.07585	-19.01490
-687.50000	3.22338	-2.26673	-7.06851	-13.55007
-683.59375	6.44549	-0.65627	-6.23302	-10.30891
-679.68750	4.67241	0.54091	-7.54957	-6.63387
-675.78125	5.88538	-0.53322	-9.53000	-8.51865
-671.87500	5.63550	-3.65311	-10.20863	-11.30838
-667.96875	5.07449	-2.64802	-8.28618	-8.85070
-664.06250	2.28049	-1.54748	-7.13889	-9.23974
-660.15625	7.01749	-1.54690	-6.41737	-11.55607
-656.25000	6.23049	-2.10298	-4.26159	-7.76068
-652.34375	2.83516	-3.54572	-6.10050	-5.20716
-648.43750	5.66693	-5.02935	-8.28154	-6.61574
-644.53125	1.70016	-4.84793	-10.05331	-7.00014
-640.62500	2.13124	-3.64381	-10.12988	-4.77268
-636.71875	-1.83010	-3.68708	-7.87038	-12.59174
-632.81250	-12.03708	-5.05064	-8.84128	-19.64112
-628.90625	-13.52953	-5.38195	-6.65187	-19.33166
-625.00000	-15.04414	-4.51188	-4.09529	-21.32356
-621.09375	-14.02337	-4.53908	-4.98578	-20.13699
-617.18750	-13.05832	-5.68916	-7.46305	-21.40036
-613.28125	-6.73895	-4.54388	-6.74792	-20.75723
-609.37500	-5.36646	-1.69216	-6.21859	-19.59456
-605.46875	-6.45431	-0.94067	-6.18650	-21.59126
-601.56250	-0.75811	-1.81306	-5.48907	-21.79543
-597.65625	-2.87630	-4.07993	-7.47246	-17.66682
-593.75000	0.20243	-1.62438	-7.88103	-11.77134
-589.84375	2.36057	-2.01988	-7.38540	-9.41249
-585.93750	-1.94700	-3.80328	-7.05802	-5.38801
-582.03125	0.01416	-3.92524	-5.99658	-5.32341
-578.12500	0.50822	-4.50023	-4.67517	-9.04949
-574.21875	-3.69739	-5.96475	-4.58705	-8.39214
-570.31250	-4.84704	-7.17254	-4.10968	-9.73207
-566.40625	-6.76228	-6.65205	-1.87371	-13.00906
-562.50000	-12.92360	-5.23240	-0.86547	-13.03631
-558.59375	-15.39932	-4.93527	-1.08559	-9.25125
-554.68750	-16.01507	-7.09077	-4.12037	-8.59937
-550.78125	-12.47643	-7.48160	-6.86889	-8.05535
-546.87500	-10.82766	-6.66565	-6.34691	-10.60906
-542.96875	-16.20976	-7.34401	-5.40505	-14.72196
-539.06250	-12.72848	-7.80146	-7.17935	-15.05311
-535.15625	-7.33233	-6.61559	-7.69140	-9.97124
-531.25000	-7.62608	-6.17242	-5.99439	-8.40454
-527.34375	-6.08407	-6.26118	-6.37440	-11.08147
-523.43750	-2.19613	-5.82573	-5.51064	-9.98470
-519.53125	-2.76699	-5.84529	-4.82385	-8.73157
-515.62500	-6.25339	-4.13807	-5.22855	-5.25144
-511.71875	-6.80798	-2.44124	-5.92023	-6.33974
-507.81250	-3.00605	-3.82708	-5.58232	-14.02177
-503.90625	-6.34772	-4.30183	-4.80678	-16.15688
-500.00000	-8.48845	-3.09461	-5.70311	-14.87100
-496.09375	-9.55215	-0.46508	-6.80625	-13.77785
-492.18750	-7.19305	0.88929	-7.85707	-10.71749
-488.28125	1.63323	1.84538	-7.59711	-10.96548
-484.37500	-1.27095	3.67691	-7.72362	-10.68017
-480.46875	-4.91779	1.25836	-9.81571	-11.71977
-476.56250	-9.16801	-2.44716	-9.60503	-10.97039
-472.65625	-9.17582	-2.22686	-7.37469	-7.42793
-468.75000	-5.86168	-2.54105	-6.77791	-9.16206
-464.84375	-5.10339	-0.82584	-6.60383	-13.30361
-460.93750	-2.13635	-0.84364	-7.89288	-15.40254
-457.03125	0.13671	-2.42970	-9.59641	-14.96077
-453.12500	3.36828	-1.31612	-7.69857	-9.35752
-449.21875	3.92759	-0.87035	-5.94597	-6.18939
-445.31250	-1.32975	-0.48226	-6.28104	-9.52614
-441.40625	-7.00234	-1.33985	-7.99159	-10.21261
-437.50000	-7.82959	-2.42739	-10.00446	-9.22982
-433.59375	0.62964	-3.23022	-10.84546	-6.02334
-429.68750	4.01092	-3.61972	-8.32563	-4.45946
-425.78125	-10.09937	-5.76729	-4.73901	-9.82656
-421.87500	-13.07640	-6.67501	-7.69233	-9.05075
-417.96875	-2.84847	-3.24609	-9.21745	-8.28422
-414.06250	-4.89309	-0.31559	-3.52050	-10.71499
-410.15625	-9.23056	-0.71730	-4.24759	-7.99496
-406.25000	-7.64116	-0.56242	-7.61771	-9.77493
-402.34375	-7.87566	-1.53550	-7.39612	-7.49260
-398.43750	-5.06998	-3.27354	-6.02662	-3.66566
-394.53125	0.90792	-3.05021	-5.46926	-3.68346
-390.62500	0.07045	-4.25259	-6.60704	-4.70138
-386.71875	-3.62744	-2.99868	-4.43997	-7.76067
-382.81250	-2.69141	-3.64800	-4.68349	-6.35165
-378.90625	-7.24644	-4.12083	-6.87844	-4.24290
-375.00000	-1.30314	-2.16862	-6.62018	-5.47381
-371.09375	4.92536	-4.15431	-6.13813	-7.06266
-367.18750	-2.89300	-4.21122	-6.88984	-10.23091
-363.28125	-0.75428	1.49510	-6.40185	-10.87333
-359.37500	2.30199	0.65989	-3.71334	-4.37968
-355.46875	0.16300	-3.71622	-3.34817	-0.36759
-351.56250	0.10448	-6.87132	-7.67755	-0.16255
-347.65625	1.41352	-7.02025	-7.31144	-3.08154
-343.75000	2.36085	-5.84760	-4.08796	-2.93231
-339.84375	5.43750	-5.45036	-2.97749	-1.26105
-335.93750	5.30966	-4.47097	-3.31050	-3.27009
-332.03125	0.92768	-5.55605	-2.76584	-1.31925
-328.12500	1.63920	-4.97917	-2.07823	-3.63630
-324.21875	4.63279	-5.12461	-3.38074	-7.91922
-320.31250	1.34699	-3.10921	-5.07260	-11.41358
-316.40625	2.05021	-1.21033	-7.71705	-12.56793
-312.50000	-1.05906	-1.41943	-7.11922	-10.12233
-308.59375	-2.61590	-3.32657	-5.29303	-9.07144
-304.68750	-0.39154	-3.18391	-4.68142	-6.09608
-300.78125	0.49890	-3.99999	-3.95317	-7.04221
-296.87500	2.07043	-3.60537	-3.67494	-4.08472
-292.96875	5.43470	-0.91042	-3.01070	2.84945
-289.06250	6.78548	1.16056	-2.04795	3.98729
-285.15625	2.19207	2.39406	-3.15323	2.53255
-281.25000	-0.33777	-2.47965	-2.43835	0.96660
-277.34375	6.17573	-4.80665	-0.85520	2.03259
-273.43750	7.52280	-4.43447	-0.91870	0.93660
-269.53125	8.49352	-5.21897	-2.81997	0.89299
-265.62500	11.57381	-2.08925	-2.82389	-0.57163
-261.71875	6.88708	-1.36671	-3.34669	-4.72065
-257.81250	5.49958	-4.00839	-5.70485	-5.90238
-253.90625	5.21172	-4.74067	-4.47146	-6.58687
-250.00000	4.12585	-4.73736	-4.38664	-7.87205
-246.09375	1.96295	-4.54466	-6.51260	-9.36731
-242.18750	2.42125	-5.49433	-7.07917	-3.56242
-238.28125	10.51493	-3.62816	-2.91256	5.14779
-234.37500	8.58099	-3.04027	-1.17997	1.63977
-230.46875	2.55451	-4.24632	-1.91405	-0.94621
-226.56250	11.23398	-3.35951	-1.72747	1.12560
-222.65625	18.08860	-3.57803	-3.96357	0.00142
-218.75000	14.36863	-6.88844	-3.35722	3.34792
-214.84375	13.60741	-8.19903	-0.31352	11.11659
-210.93750	12.24909	-8.17949	0.16399	10.79859
-207.03125	11.58479	-7.80044	-0.95864	7.93992
-203.12500	8.75308	-7.30057	-3.26513	5.56077
-199.21875	9.39954	-6.53575	-4.21758	7.63129
-195.31250	11.43038	-5.31038	-5.90286	10.56577
-191.40625	11.05602	-3.64523	-5.80972	11.65583
-187.50000	14.70093	-4.97352	-5.41432	11.47957
-183.59375	14.70033	-5.37778	-6.59369	9.88552
-179.68750	11.31615	-6.19537	-7.10460	8.32236
-175.78125	8.09756	-9.28419	-6.26470	4.01989
-171.87500	7.44528	-7.97189	-2.10836	4.05062
-167.96875	4.87019	-6.16104	-2.60363	6.10525
-164.06250	4.09147	-7.88107	-5.88872	4.50741
-160.15625	8.02331	-7.07470	-4.36153	2.59401
-156.25000	12.07218	-5.61608	-2.20596	2.76315
-152.34375	6.66294	-4.23836	-2.83622	3.70506
-148.43750	-0.17479	-4.91619	-6.62909	2.69947
-144.53125	3.91782	-2.31721	-5.17757	2.71814
-140.62500	4.34967	-1.51605	-2.03088	0.51340
-136.71875	4.01546	-5.58874	-3.80088	-1.26168
-132.81250	0.65910	-6.14650	-5.17486	-0.25243
-128.90625	-3.65309	-5.26906	-5.00035	-1.55463
-125.00000	1.27987	-6.01074	-3.24979	-1.12886
-121.09375	5.92771	-4.02332	-2.93166	0.05780
-117.18750	8.90809	-1.54709	-2.99154	2.01794
-113.28125	8.78116	-1.20773	-1.47063	2.66105
-109.37500	7.33381	-0.77368	-4.16490	4.22669
-105.46875	7.05239	1.18659	-6.55055	8.27390
-101.56250	9.52571	1.11998	-7.06207	4.04033
-97.65625	2.17005	-2.75864	-7.43395	1.72201
-93.75000	0.41421	-3.52666	-5.02216	4.39406
-89.84375	5.79646	-1.90751	-6.54135	-0.09690
-85.93750	1.89244	-2.48217	-7.01995	-8.16035
-82.03125	0.22790	-3.81301	-6.76455	-13.73677
-78.12500	-0.08334	-3.98519	-9.47262	-13.43365
-74.21875	3.36733	-2.22633	-8.98178	-10.35875
-70.31250	1.81525	-2.62823	-8.10158	-5.25190
-66.40625	0.70641	-3.71946	-7.88051	2.75302
-62.50000	5.82765	-1.89692	-3.24602	5.54618
-58.59375	4.15828	-0.79397	-0.64573	1.27256
-54.68750	3.14002	-2.54657	-3.27779	-0.09033
-50.78125	2.24690	-2.93757	-2.80304	4.07991
-46.87500	-0.53613	-0.10699	-1.07245	2.73493
-42.96875	0.12621	-1.99424	-2.54836	-0.16930
-39.06250	1.59336	-2.85471	-3.11404	-5.33570
-35.15625	0.54314	-2.87767	-4.83505	-8.31240
-31.25000	2.26458	-4.04626	-5.15282	-3.92520
-27.34375	5.01591	-2.52334	-7.95059	-5.39337
-23.43750	6.48682	-0.87921	-8.69871	-7.92293
-19.53125	4.70761	-0.89880	-6.40039	-8.28149
-15.62500	4.84817	-0.80333	-5.59647	-6.01025
-11.71875	12.35275	-1.12119	-5.07951	-3.47219
-7.81250	9.30540	-0.49244	-5.54765	0.12784
-3.90625	2.33789	0.64448	-3.96636	-2.00738
0.00000	3.42111	1.04573	-2.84820	0.89023
3.90625	5.98442	0.04878	-5.96616	1.17737
7.81250	9.55286	-1.01449	-5.80837	-1.40336
11.71875	9.51521	-0.86438	-3.53391	3.58667
15.62500	6.61138	2.17575	-2.45185	2.26020
19.53125	6.18837	1.36885	-3.33532	2.83221
23.43750	6.37071	-4.35139	-4.73650	3.98448
27.34375	4.34855	-7.35460	-4.92391	1.07998
31.25000	-1.20161	-5.65421	-4.32730	2.56924
35.15625	-2.45786	-3.93907	-2.54171	-0.36365
39.06250	-5.13177	-3.95698	-4.23383	-5.28306
42.96875	-2.45588	-2.31969	-5.53464	-3.22961
46.87500	2.78997	0.00259	-5.24856	-4.07322
50.78125	3.34870	1.25406	-4.70496	-4.93429
54.68750	5.34327	2.44790	-3.02547	-4.24164
58.59375	9.74304	1.99324	-2.72156	-3.71924
62.50000	11.33212	1.30855	-3.52578	0.89009
66.40625	10.11941	1.71446	-3.56103	2.88792
70.31250	13.90151	3.74249	-3.05603	6.06358
74.21875	15.90605	5.62414	-0.67841	7.54633
78.12500	13.73237	6.32810	-0.00548	9.12803
82.03125	10.25791	4.92180	1.28981	8.68579
85.93750	9.01635	5.03164	0.94267	2.62873
89.84375	8.30234	4.22686	-0.59045	-1.50109
93.75000	3.03909	2.36698	0.87452	-2.87815
97.65625	4.01049	2.60259	0.69307	-1.80457
101.56250	10.84273	0.86451	1.25662	2.82820
105.46875	13.99736	0.68478	0.60504	1.19863
109.37500	12.75417	3.10865	-1.74168	-8.28092
113.28125	6.23304	3.95951	-1.99230	-10.13148
117.18750	3.94287	4.51891	-3.84775	-8.31952
121.09375	6.23495	4.85190	-5.63999	-8.22547
125.00000	6.93757	3.58054	-5.78478	-4.62130
128.90625	12.76054	4.81819	-6.10876	-3.38973
132.81250	13.80410	4.35823	-3.23432	-1.72287
136.71875	13.92573	1.60290	-1.13482	1.26099
140.62500	18.99428	3.99098	-0.46116	7.35162
144.53125	20.47933	6.06170	-0.90197	9.34908
148.43750	19.20972	3.71236	-2.41109	5.12185
152.34375	20.51646	1.54873	-2.44805	5.42629
156.25000	16.62635	3.12422	-0.43355	6.38134
160.15625	19.70082	4.32727	1.48258	6.03791
164.06250	24.80891	4.90362	2.35825	8.86396
167.96875	16.39552	3.81842	1.69395	8.80009
171.87500	14.28451	7.61859	1.17261	8.90059
175.78125	13.24679	7.87596	3.09336	9.45282
179.68750	9.15329	4.25023	3.41601	5.55546
183.59375	12.67522	6.14903	1.98019	2.38635
187.50000	12.38476	3.52222	2.17497	1.60849
191.40625	7.60288	-0.80255	1.58338	2.65933
195.31250	5.39333	0.95167	2.19484	-0.40934
199.21875	2.25286	1.34424	2.51998	-5.38474
203.12500	2.61409	0.52990	2.79807	-4.44199
207.03125	6.78278	3.62758	2.65631	-3.95469
210.93750	7.72916	4.08674	1.60427	-3.21984
214.84375	10.38705	2.09667	0.49884	-0.64532
218.75000	13.49683	2.05804	-0.80109	0.20631
222.65625	14.77078	4.56604	0.37894	0.06343
226.56250	18.13108	2.11757	0.31529	1.38490
230.46875	23.53267	-0.27880	0.83150	6.57937
234.37500	28.62624	3.25364	3.24504	12.77031
238.28125	23.93821	4.78187	0.30449	11.03875
242.18750	23.35525	5.76642	-0.03920	6.23060
246.09375	19.84260	5.43690	-0.41771	5.14291
250.00000	17.54671	3.42546	-0.33307	7.48412
253.90625	20.21779	4.42397	2.77893	10.42108
257.81250	18.66035	5.48887	2.61518	8.16741
261.71875	18.90625	4.38571	0.18326	4.38008
265.62500	14.72895	5.88622	-1.63164	2.79932
269.53125	15.47593	7.12850	0.49832	7.50334
273.43750	21.50219	10.34665	1.44096	10.48498
277.34375	29.49040	12.99104	-0.33790	9.66499
281.25000	32.14662	10.32954	0.08307	9.89768
285.15625	29.26554	8.33628	-0.00447	8.44007
289.06250	30.84899	10.88159	-0.21704	9.64328
292.96875	34.92541	12.41899	0.25773	13.12083
296.87500	36.07694	10.08735	1.18051	10.22319
300.78125	34.91946	7.80305	3.19802	6.56263
304.68750	34.58824	8.35076	3.21920	8.08028
308.59375	32.55043	7.78168	4.70680	8.57728
312.50000	30.18262	6.85148	7.54996	7.26343
316.40625	30.92802	8.40642	8.35122	11.14557
320.31250	30.84319	8.09053	8.32137	12.90367
324.21875	28.27735	5.92931	6.83025	11.38945
328.12500	25.82457	3.86976	7.61172	10.75761
332.03125	26.62067	4.92441	7.19918	9.43752
335.93750	22.90572	3.92032	5.86421	10.81766
339.84375	19.50668	1.12145	3.36721	8.36432
343.75000	24.02912	3.08690	2.36709	7.48609
347.65625	25.98860	5.99361	3.66036	8.93645
351.56250	25.85837	7.84498	5.24779	10.38062
355.46875	27.32033	7.91257	7.42037	10.84944
359.37500	27.09253	5.43331	7.67854	9.86152
363.28125	24.25680	6.27090	5.54431	6.84404
367.18750	20.95942	7.30079	4.13290	2.31281
371.09375	23.06808	10.77584	5.72351	2.04045
375.00000	22.01104	10.31067	8.18551	3.98812
378.90625	21.35939	6.52312	5.54336	2.88403
382.81250	24.52375	9.43826	3.46897	3.01339
386.71875	24.44143	12.22180	4.99811	5.39658
390.62500	19.87026	9.68553	6.60976	5.77887
394.53125	13.82966	6.28007	4.93655	5.94831
398.43750	16.40317	6.00552	3.00781	8.78123
402.34375	21.60038	7.35228	3.39462	13.71851
406.25000	23.54330	10.27841	6.25434	19.39907
410.15625	25.53938	12.63010	6.29271	20.39272
414.06250	30.17695	11.13220	5.73235	19.55131
417.96875	31.96026	10.32989	6.11815	20.29441
421.87500	28.37312	11.29675	4.91973	16.79309
425.78125	25.92209	10.73684	4.67680	12.49101
429.68750	25.17475	9.53374	5.57605	12.04246
433.59375	20.28712	12.37595	6.54354	11.75900
437.50000	20.47939	11.43997	4.80322	13.24291
441.40625	25.49401	8.37957	4.41936	14.64930
445.31250	27.54906	11.17813	4.29386	11.67000
449.21875	30.87205	14.09319	4.05461	8.13362
453.12500	27.68142	10.41343	4.14629	9.97380
457.03125	21.44335	8.53204	4.70611	12.20135
460.93750	25.04371	7.87031	6.73066	14.93720
464.84375	28.42413	6.76631	8.32813	15.72779
468.75000	27.73049	10.99453	9.38184	13.91066
472.65625	26.17495	9.67587	7.00140	17.01986
476.56250	25.17810	8.05491	4.61971	18.37456
480.46875	25.80518	8.96537	7.82613	20.47051
484.37500	26.93349	9.99184	11.13809	21.84272
488.28125	26.23253	9.50236	11.48217	14.87327
492.18750	25.44398	7.34111	10.67546	12.75489
496.09375	27.65176	9.20436	9.78373	14.83668
500.00000	28.97953	10.86152	9.72260	17.14058
503.90625	26.29802	12.79621	11.11198	19.13456
507.81250	22.75811	12.43486	11.15926	16.66827
511.71875	23.48083	11.46637	10.33195	14.91323
515.62500	24.02749	11.98197	9.72313	14.88286
519.53125	27.30568	13.56159	6.37831	14.61159
523.43750	28.12506	15.58291	4.22075	12.83930
527.34375	28.19133	15.76039	4.78468	10.43642
531.25000	27.54558	15.60273	7.58095	12.21899
535.15625	19.14044	11.95644	8.06536	13.67712
539.06250	20.37340	10.62122	3.83946	14.08612
542.96875	22.33691	14.32339	5.37321	15.84727
546.87500	21.98727	14.23880	9.27957	14.71620
550.78125	23.94669	13.70400	9.27049	15.15384
554.68750	23.46815	12.75478	7.22852	12.02504
558.59375	26.30795	12.51942	6.13777	7.90235
562.50000	28.67195	12.24223	5.70606	4.78457
566.40625	27.51980	11.09152	2.88408	-0.70872
570.31250	29.61544	12.61753	1.69891	-0.45165
574.21875	27.34231	9.94487	4.39269	4.68941
578.12500	22.53845	6.76765	5.61972	7.73932
582.03125	21.73851	8.13204	4.01151	7.04527
585.93750	18.59982	9.54033	5.74320	10.50076
589.84375	21.18921	9.92304	7.42819	12.95456
593.75000	19.48349	9.57074	7.21336	12.22152
597.65625	15.10261	8.68006	9.54029	13.18922
601.56250	12.81152	9.65056	6.73796	12.14849
605.46875	12.55453	9.58426	6.57379	12.48595
609.37500	15.19617	10.05029	9.13000	14.68316
613.28125	16.81935	10.82578	9.24335	14.07475
617.18750	19.30719	12.21479	10.24575	12.15956
621.09375	19.20955	9.94993	9.45473	13.64118
625.00000	17.84542	8.80471	7.38950	13.30581
628.90625	18.09064	11.78776	7.60794	12.39581
632.81250	18.14624	10.08268	8.87027	15.08758
636.71875	19.83678	9.71814	9.34962	15.52549
640.62500	21.18105	11.44980	9.34350	14.74085
644.53125	20.36831	10.42437	9.39887	16.58653
648.43750	20.61187	8.68560	8.90379	18.58937
652.34375	22.26114	8.54897	9.31657	16.47313
656.25000	24.74708	11.26529	8.46536	16.83706
660.15625	27.98581	12.54141	7.21196	17.45563
664.06250	26.56839	12.83184	8.57195	15.07418
667.96875	26.39351	14.03851	8.58288	16.74913
671.87500	27.15684	13.47593	6.95460	23.07152
675.78125	27.58985	8.79917	8.80299	28.17993
679.68750	30.34837	11.61537	7.49460	24.19675
683.59375	37.65026	20.45944	4.10327	19.24263
687.50000	38.66345	19.78504	7.04610	22.59446
691.40625	35.66010	16.39998	9.03547	26.02372
695.31250	38.03399	17.22911	7.14011	29.40661
699.21875	40.75164	19.95643	5.35848	34.15227
703.12500	42.73014	22.42873	7.67809	36.74485
707.03125	42.11509	22.29680	11.14141	39.75596
710.93750	39.31724	19.33350	10.72234	37.82648
714.84375	35.53052	16.00658	8.31280	33.00708
718.75000	37.02669	16.61484	6.44694	36.43641
722.65625	37.37008	16.32315	8.82118	38.56578
726.56250	37.96065	16.33367	7.57022	34.79397
730.46875	43.37420	17.03620	7.17813	33.10130
734.37500	41.83974	16.41398	9.09799	32.93830
738.28125	36.49347	12.87545	6.73302	32.65547
742.18750	36.47295	11.41160	4.31003	31.55093
746.09375	35.87371	15.99654	5.19552	29.87252
750.00000	36.55735	15.54950	5.65334	28.77787
753.90625	32.78874	12.40735	5.06354	27.99313
757.81250	30.68434	12.77004	6.21878	28.04221
761.71875	34.79356	15.35160	7.03980	31.40946
765.62500	37.86995	19.26954	8.85116	33.45504
769.53125	35.79727	17.69122	9.77211	31.30915
773.43750	32.55706	16.07413	8.29706	28.64978
777.34375	31.68173	15.89788	6.51806	25.81511
781.25000	30.30960	12.43046	6.93890	24.83894
785.15625	30.24996	14.06345	10.07467	24.59016
789.06250	27.80507	14.99705	9.05611	22.97289
792.96875	25.03248	12.10211	8.72486	22.01811
796.87500	22.96137	10.57623	11.25910	19.52334
800.78125	20.19303	8.29178	10.05308	19.08621
804.68750	20.66858	10.45116	9.67113	16.57453
808.59375	16.61691	10.28487	9.14389	12.63926
812.50000	15.86169	7.33992	9.56933	12.13128
816.40625	23.05474	7.28309	11.57920	13.59589
820.31250	25.79116	6.16126	11.95218	17.77152
824.21875	26.44956	8.43222	12.47557	23.91298
828.12500	26.41523	9.99898	9.22761	24.48994
832.03125	23.98864	7.82999	8.81496	23.97569
835.93750	22.69202	5.61706	11.50918	22.93833
839.84375	20.90545	4.83267	10.62383	16.85866
843.75000	16.96720	5.18629	9.22064	11.95123
847.65625	14.89815	6.07822	8.49916	13.40166
851.56250	16.78336	7.92949	7.26593	13.63713
855.46875	15.02270	7.19114	5.81206	16.12067
859.37500	18.82492	8.74101	6.47304	17.14746
863.28125	20.42207	12.39909	6.75639	14.13009
867.18750	15.11070	12.22016	4.13603	15.23998
871.09375	14.80245	11.66575	3.30901	12.95297
875.00000	14.95478	10.79753	3.35331	9.66246
878.90625	17.52703	12.24792	3.93450	9.76700
882.81250	15.45379	11.53651	6.29224	8.28455
886.71875	15.37201	10.69350	9.03007	10.26471
890.62500	18.85993	13.39530	9.02993	13.06457
894.53125	21.68430	11.60145	8.56537	11.21930
898.43750	23.04951	10.11800	8.65121	9.21695
902.34375	17.77106	9.45000	7.82922	8.11020
906.25000	12.46171	7.94378	7.06239	9.35846
910.15625	10.02619	6.26603	7.90660	9.14321
914.06250	9.02328	6.78270	10.16665	12.33097
917.96875	12.01596	9.20370	9.34358	11.86515
921.87500	12.05575	9.76748	6.53339	10.37840
925.78125	13.23173	10.01330	7.49920	12.92610
929.68750	14.49970	12.03352	5.98077	10.05989
933.59375	14.44794	13.66691	4.12768	7.35888
937.50000	15.44666	11.92497	3.99899	6.82812
941.40625	13.20914	9.26734	2.40631	5.41400
945.31250	10.83250	8.03650	1.87777	4.85220
949.21875	13.75304	8.13099	1.63843	5.34516
953.12500	14.99510	8.88340	2.53593	7.18528
957.03125	12.38377	7.40481	2.28973	7.39804
960.93750	12.35817	7.54885	5.12000	12.14844
964.84375	11.70966	8.45943	7.52322	14.55066
968.75000	11.41928	9.46408	6.15929	14.74811
972.65625	10.67006	10.56288	7.40509	16.64841
976.56250	9.67361	9.74776	7.84384	14.37669
980.46875	11.50990	9.85229	4.20031	13.24919
984.37500	14.25029	8.46106	5.09459	12.20377
988.28125	15.56431	7.56850	7.85618	12.48707
992.18750	13.97023	10.64522	8.66115	14.39788
996.09375	9.73144	8.47907	6.56057	12.85326
1000.00000	10.65662	4.89804	3.27596	12.33669
1003.90625	10.79597	8.04139	4.66529	14.33067
1007.81250	10.88286	8.88869	6.72710	14.68490
1011.71875	15.63529	9.12889	7.10854	14.54156
1015.62500	15.37651	7.22672	7.30558	8.86999
1019.53125	10.19355	6.38869	7.99002	6.18118
1023.43750	9.40162	6.79814	9.05586	10.45270
1027.34375	9.46828	4.96090	7.20212	8.04977
1031.25000	6.40535	4.40015	3.95440	5.39996
1035.15625	7.67103	3.57424	5.24459	6.45515
1039.06250	9.71025	5.05942	5.45087	6.05823
1042.96875	8.04773	7.55256	4.16405	4.59579
1046.87500	11.32493	9.88544	4.84681	4.67337
1050.78125	11.26999	8.94761	3.22596	1.48449
1054.68750	7.97121	5.98352	1.18399	0.37023
1058.59375	10.81134	7.35976	0.89899	1.88832
1062.50000	8.34039	7.48530	-0.33875	4.00844
1066.40625	6.38271	6.73744	0.06263	2.94721
1070.31250	9.68750	9.06923	0.48917	1.59249
1074.21875	11.44396	8.41118	0.36242	5.92764
1078.12500	13.08733	8.45725	-0.02236	9.78331
1082.03125	11.07893	9.01568	1.99569	9.08914
1085.93750	5.12002	9.21510	5.33905	7.70936
1089.84375	1.26286	8.79175	5.41222	7.74542
1093.75000	-0.03965	4.81294	3.58561	6.60929
1097.65625	3.23545	4.72794	5.10658	5.56219
1101.56250	10.21200	7.30998	4.72169	8.14759
1105.46875	14.38758	6.84065	3.75168	10.90254
1109.37500	11.79142	7.70948	4.29312	10.68200
1113.28125	10.59437	6.47010	4.00350	8.46171
1117.18750	11.47079	5.44133	3.79698	11.78449
1121.09375	12.17925	5.99682	4.21477	14.87776
1125.00000	11.62118	6.46320	4.56708	12.12469
1128.90625	10.25497	5.41680	3.57658	8.79703
1132.81250	12.72842	5.72635	4.43590	7.05643
1136.71875	14.41927	6.57045	4.10927	9.10589
1140.62500	12.54043	6.69034	4.10302	5.90357
1144.53125	9.71333	6.06773	5.36704	3.31698
1148.43750	6.33079	5.94060	4.06603	7.73723
1152.34375	1.53328	7.01262	3.67290	6.02382
1156.25000	3.61650	7.71413	4.03040	5.98467
1160.15625	6.45239	8.18422	5.59740	4.58853
1164.06250	4.22930	6.05699	2.52511	0.99812
1167.96875	4.45751	6.86058	-0.28461	3.47886
1171.87500	4.01222	7.50668	1.71337	4.16009
1175.78125	8.47476	5.65029	1.54704	5.64200
1179.68750	15.26287	6.45170	2.25323	6.89683
1183.59375	9.67114	3.20775	4.90579	7.98652
1187.50000	5.04349	1.32441	5.43106	5.69714
1191.40625	4.45797	1.56556	4.59979	3.88818
1195.31250	3.60862	1.18585	5.12192	8.88252
1199.21875	1.49126	1.89836	4.95188	5.16657
1203.12500	1.85830	2.75884	5.25676	-1.91132
1207.03125	0.03469	1.01512	6.70529	-0.10916
1210.93750	-2.76283	0.46924	3.86860	-0.82999
1214.84375	3.52402	3.18613	1.86196	-1.62024
1218.75000	4.61762	3.39132	4.02533	2.21188
1222.65625	-0.27675	3.09955	3.17605	2.32634
1226.56250	-2.90932	3.10990	1.52213	3.79248
1230.46875	-7.16587	0.99178	2.74167	1.29382
1234.37500	-2.25321	3.59288	6.67612	3.54823
1238.28125	4.89172	6.50107	7.13162	6.48870
1242.18750	2.45387	3.82836	4.70861	5.78685
1246.09375	1.85498	1.56334	5.19115	7.33174
1250.00000	0.52423	4.74248	5.64887	5.43105
1253.90625	1.18812	7.24123	4.65603	5.04901
1257.81250	3.11329	3.97743	2.18487	6.70969
1261.71875	7.62567	2.52948	3.00586	5.24160
1265.62500	10.70234	5.23856	4.81713	4.86946
1269.53125	8.62995	4.86888	0.09706	4.33521
1273.43750	9.41930	4.86344	-0.57218	4.09330
1277.34375	9.35013	5.89587	2.08102	4.07898
1281.25000	5.15769	2.83126	-0.31870	5.11735
1285.15625	0.26313	3.25531	-0.80940	5.67419
1289.06250	5.87705	7.00918	2.20129	3.25078
1292.96875	7.93991	7.74050	3.07880	3.10168
1296.87500	4.25729	5.40862	2.38961	5.44193
1300.78125	6.32438	4.73577	1.18357	8.22818
1304.68750	6.80008	6.49205	1.60743	7.32804
1308.59375	7.58383	5.51975	1.08016	5.00423
1312.50000	2.79946	2.97753	-0.50913	4.49607
1316.40625	0.72541	2.51769	-0.51396	5.55752
1320.31250	4.26809	3.81329	-0.94691	7.31546
1324.21875	6.13565	4.47237	1.18818	11.44214
1328.12500	8.92209	4.83029	2.77531	12.42193
1332.03125	8.91345	5.07884	-0.45796	9.89282
1335.93750	8.42305	4.07459	-0.58429	8.04948
1339.84375	7.44263	2.48433	-0.66390	5.59610
1343.75000	1.89295	1.62903	-2.06716	4.31489
1347.65625	-2.99623	0.50624	-1.57992	2.94473
1351.56250	-5.94592	-2.47774	-2.81314	3.18008
1355.46875	-1.66230	-2.41031	-1.44655	4.05181
1359.37500	4.15496	-1.66642	2.84079	2.66087
1363.28125	5.34960	0.37970	0.70644	2.86679
1367.18750	4.87372	2.61823	-1.91394	1.96183
1371.09375	2.55107	2.46665	-1.12932	2.09232
1375.00000	3.50962	2.00121	0.52668	5.24865
1378.90625	5.27635	2.24274	-0.50383	7.36784
1382.81250	7.63562	2.33705	-0.16074	5.88522
1386.71875	6.34522	3.10565	0.56238	3.03011
1390.62500	5.40117	2.18090	-0.24362	3.00925
1394.53125	7.42001	2.40156	-0.70820	0.35805
1398.43750	7.97968	4.54432	-2.63697	1.98193
1402.34375	8.34252	5.08503	-0.63856	6.51618
1406.25000	2.22770	3.17572	0.20643	3.73513
1410.15625	-2.22227	1.90073	1.05057	1.90810
1414.06250	0.80443	4.43187	4.92233	1.06654
1417.96875	-0.63485	1.61461	2.89042	0.60071
1421.87500	-0.59479	1.37239	2.09484	1.93440
1425.78125	0.58145	5.24447	3.06061	1.66148
1429.68750	-2.17964	4.44403	1.13921	-1.60770
1433.59375	-7.06642	4.06252	0.89787	-4.30881
1437.50000	-4.45573	3.93213	0.76916	-5.24258
1441.40625	1.76848	4.09484	1.19111	-5.04511
1445.31250	1.00388	3.26678	-1.75505	-8.02454
1449.21875	0.70139	-0.26530	-5.21786	-6.72581
1453.12500	3.95844	0.88985	-2.70865	-0.05056
1457.03125	5.37680	2.63460	-1.34309	3.38560
1460.93750	6.96322	3.18136	-2.13914	0.88328
1464.84375	7.12092	2.88304	-2.95937	-1.95264
1468.75000	2.39874	1.47005	-2.30863	-0.94932
1472.65625	-1.97648	0.95697	0.14600	0.95107
1476.56250	1.86260	0.54468	0.58471	3.51454
1480.46875	7.32572	-1.76850	2.98519	2.78999
1484.37500	10.87243	-3.56275	2.67068	6.57976
1488.28125	10.17229	-1.63479	-0.20872	9.68349
1492.18750	0.52006	-3.39327	0.99914	9.17680
1496.09375	-2.10659	-4.75362	4.53952	8.03519
1500.00000	3.25132	-1.88780	2.06074	4.69815
1503.90625	-0.23521	-3.57970	-0.57923	-2.57522
1507.81250	-8.20648	-9.58224	0.27382	-7.86202
1511.71875	-5.87124	-7.73045	-0.55358	-5.18485
1515.62500	3.54076	-2.37991	0.44926	-3.20069
1519.53125	0.37278	-2.81514	1.93950	-3.47200
1523.43750	-3.64226	-6.03212	-1.02398	-2.42396
1527.34375	1.25985	-4.24310	-2.07184	-1.60359
1531.25000	0.61480	-2.38635	-2.09616	-0.22412
1535.15625	1.47783	0.01105	-1.61191	1.23385
1539.06250	3.92022	-0.11549	-0.19685	2.44855
1542.96875	3.86973	-1.65167	0.93392	2.59780
1546.87500	2.31195	-1.33352	2.01964	1.86940
1550.78125	0.24257	-0.25683	0.80169	1.50101
1554.68750	-0.23537	1.21124	-0.43446	0.78957
1558.59375	0.59041	2.18444	-3.13709	1.90469
1562.50000	-6.31252	0.29524	-3.56893	-1.21336
1566.40625	-7.86696	1.96485	-4.37635	-8.31859
1570.31250	-2.95021	5.90819	-4.75568	-8.06158
1574.21875	-2.40230	6.05584	-2.06203	-5.74117
1578.12500	-5.19092	4.49007	-2.44674	-4.30314
1582.03125	-10.42243	1.01909	-2.84627	-4.19146
1585.93750	-13.15764	-3.21386	-1.51754	-5.97427
1589.84375	-16.61164	-2.83140	-2.65310	-8.75878
1593.75000	-14.69041	1.65118	-16.56767	-11.10380
1597.65625	-14.23561	1.96902	-19.07599	-15.37444
1601.56250	-12.49684	2.53630	-6.16414	-18.43012
1605.46875	-11.94731	2.06687	-0.28445	-21.31633
1609.37500	-12.12563	0.92089	1.46585	-25.56628
1613.28125	-9.29303	0.89021	-0.43553	-28.18961
1617.18750	-10.83386	-0.54156	-2.65671	-27.28461
1621.09375	-7.70745	2.02843	0.98454	-21.37099
1625.00000	-5.44458	5.31529	0.93391	-17.27429
1628.90625	-4.39288	7.08928	-4.48875	-15.36396
1632.81250	-0.30736	7.80169	-4.83824	-10.65771
1636.71875	-1.83953	5.01935	-3.55306	-10.62296
1640.62500	-4.92691	4.33318	-4.76805	-8.18433
1644.53125	-7.75368	6.12799	-5.92151	-7.14469
1648.43750	-7.91254	6.00069	-4.40196	-8.76848
1652.34375	-5.05411	3.44612	-4.39212	-8.46735
1656.25000	-4.98535	3.34160	-3.22874	-6.89495
1660.15625	-6.58151	6.22908	-3.67634	-5.06779
1664.06250	-1.55168	7.72800	-2.31640	-3.42019
1667.96875	0.28845	9.33727	-1.09678	-0.93956
1671.87500	-2.57410	9.17745	-5.14264	-1.46731
1675.78125	1.08283	8.52967	-4.90604	0.41752
1679.68750	1.02127	8.52512	-1.78223	1.26924
1683.59375	-0.13795	7.69860	-0.33845	0.34414
1687.50000	-3.15361	7.02401	-1.42492	-2.34827
1691.40625	-4.14186	7.26504	-3.86791	-3.75444
1695.31250	-6.60275	5.27344	-4.95745	-1.17775
1699.21875	-8.31689	2.35946	-5.12745	-0.46164
1703.12500	-4.72618	5.23445	-2.80789	-0.68976
1707.03125	-1.71435	8.72863	-1.35926	-2.51400
1710.93750	-3.30285	6.97389	-4.19591	-1.62315
1714.84375	-7.49198	6.46722	-3.78502	-2.01049
1718.75000	-4.78640	6.26937	-0.41286	1.82151
1722.65625	-0.41312	7.99205	0.34957	8.78579
1726.56250	-3.85132	6.39059	-2.11015	7.02837
1730.46875	-6.49591	4.67522	-3.30820	4.52964
1734.37500	-3.59777	7.67911	-3.40300	3.56044
1738.28125	-4.51131	4.94615	-2.94752	1.66561
1742.18750	-8.96371	2.27323	-1.34127	-0.24522
1746.09375	-11.98008	0.41101	-2.47052	-3.53569
1750.00000	-9.28137	0.36662	-3.22159	0.60730
1753.90625	-4.18501	4.87989	-3.00562	2.23981
1757.81250	-7.09483	4.03351	-5.87974	-7.38178
1761.71875	-10.23790	2.18250	-9.49092	-13.28221
1765.62500	-8.77270	0.86220	-9.69428	-14.46032
1769.53125	-8.83021	-1.52219	-6.35575	-12.98004
1773.43750	-6.02599	0.08387	-5.41324	-8.38693
1777.34375	-6.49797	1.92206	-6.38646	-6.38678
1781.25000	-13.91365	0.06604	-6.36857	-5.75158
1785.15625	-9.94357	-0.31589	-5.65051	-1.97143
1789.06250	-4.32946	0.21449	-4.65443	3.26075
1792.96875	-2.26648	0.94566	-2.16531	4.72330
1796.87500	-3.12835	1.43427	-0.83984	3.03411
1800.78125	-5.09045	-0.04456	-3.25470	0.98496
1804.68750	-5.42038	-2.72059	-3.63666	0.08464
1808.59375	-5.44238	-5.70754	-2.95507	0.98416
1812.50000	-5.39134	-7.04102	-4.54426	2.49050
1816.40625	-5.45057	-4.27753	-4.14618	4.76056
1820.31250	-5.93708	-2.17608	-2.16151	4.50366
1824.21875	-6.48702	-1.51707	-0.83231	1.78026
1828.12500	-3.29751	0.04950	-0.85682	-2.07530
1832.03125	1.52905	0.29792	-2.88127	-1.38113
1835.93750	1.03868	0.90528	-2.20176	-0.80708
1839.84375	-1.95635	0.92660	-3.49014	-2.05196
1843.75000	2.16435	0.07119	-6.10213	-1.72162
1847.65625	1.70741	-0.64887	-4.40607	1.34020
1851.56250	-0.03338	-0.00658	-1.61003	5.20176
1855.46875	4.25037	1.26944	-2.66096	3.25280
1859.37500	1.60621	0.40151	-2.40298	5.08513
1863.28125	-5.25758	-0.77589	-1.31379	4.48500
1867.18750	-6.13622	-1.76100	-1.51657	0.75944
1871.09375	-4.02634	-1.91265	0.87982	5.72486
1875.00000	-4.27641	-0.76649	2.93871	2.83699
1878.90625	-5.73291	-1.33096	1.10236	-4.31140
1882.81250	-9.41734	-3.25135	-1.37503	-5.39125
1886.71875	-9.90156	-4.09462	-1.45776	-4.21722
1890.62500	-5.20440	-4.21366	-1.05499	-0.61182
1894.53125	-4.39411	-2.38138	-1.51956	1.16902
1898.43750	-8.66940	-3.46219	-1.83670	-2.44537
1902.34375	-8.30628	-3.32454	-1.04702	-3.55237
1906.25000	-6.36229	-0.39883	-1.41084	-0.69255
1910.15625	-6.78266	-0.46512	-0.96961	-1.31097
1914.06250	-6.17331	-0.35159	-1.12718	-1.34687
1917.96875	-6.40361	-1.55729	-1.95025	1.41055
1921.87500	-1.12527	-4.21718	-1.93997	3.95285
1925.78125	0.85694	-3.56873	-2.18292	0.45639
1929.68750	-10.76844	-3.16049	-4.10430	-10.87158
1933.59375	-15.65507	-2.33323	-6.36034	-13.57287
1937.50000	-23.11744	-3.26961	-8.50363	-21.75968
1941.40625	-29.78677	-3.91291	-8.88758	-29.21798
1945.31250	-34.58052	-3.53237	-6.59564	-27.76534
1949.21875	-40.52380	-1.42346	-6.43201	-34.92826
1953.12500	-40.89278	-1.47723	-10.36968	-43.16155
1957.03125	-41.89176	-4.16492	-9.80993	-43.35177
1960.93750	-43.12548	-2.40943	-8.18841	-41.82478
1964.84375	-42.56450	-3.51381	-9.00860	-43.04891
1968.75000	-42.45121	-4.92695	-7.14901	-39.22507
1972.65625	-41.18507	-4.23137	-5.09730	-34.10124
1976.56250	-37.74858	-3.43497	-6.67313	-33.55239
1980.46875	-39.13498	-4.53944	-7.09317	-32.66518
1984.37500	-37.60256	-3.91624	-4.18414	-26.86070
1988.28125	-31.45267	-1.58556	-3.84012	-24.15984
1992.18750	-27.00200	-2.53836	-4.24400	-23.05483
1996.09375	-26.00200	-4.30185	-4.32993	-20.57010
2000.00000	-23.06143	-4.65960	-5.19694	-21.89262
2003.90625	-20.90664	-3.12823	-6.62808	-23.52503
2007.81250	-22.02782	-2.68410	-6.17796	-22.76788
2011.71875	-20.09518	-4.45878	-5.39356	-20.49373
2015.62500	-19.54739	-4.34657	-5.19659	-17.30086
2019.53125	-21.90909	-5.99075	-5.72098	-15.15469
2023.43750	-21.08860	-7.19326	-8.68444	-13.70369
2027.34375	-19.40953	-9.03082	-10.94105	-10.46576
2031.25000	-18.44241	-14.42691	-8.54767	-10.69801
2035.15625	-17.17615	-13.23850	-5.24283	-10.85182
2039.06250	-15.94216	-7.32131	-0.60423	-8.02544
2042.96875	-10.75423	-4.02247	1.33244	-7.47330
2046.87500	-5.86479	-2.89867	-2.01405	-9.41051
2050.78125	-5.51625	-4.64261	-2.02313	-8.57019
2054.68750	-5.99393	-6.39817	-3.25920	-5.25231
2058.59375	-4.76500	-1.79878	-5.96173	-4.94307
2062.50000	-6.83244	1.95288	-6.79637	-5.64364
2066.40625	-14.02772	0.39882	-9.21546	-6.70497
2070.31250	-13.14008	-0.09018	-6.77421	-7.65695
2074.21875	-5.33919	-0.34554	-3.27458	-5.33661
2078.12500	-0.87480	-1.50853	-0.43581	-3.09287
2082.03125	0.74380	-2.56214	0.77640	-3.38427
2085.93750	1.63536	-3.97468	2.10507	0.07091
2089.84375	2.21105	-3.18945	0.16368	0.91270
2093.75000	-3.12015	-2.73627	-1.66291	-1.43239
2097.65625	-4.27659	-1.20972	-0.54483	-4.09134
2101.56250	-4.55213	-1.04543	-1.33261	-6.34113
2105.46875	-4.40524	1.30555	-2.30259	-4.39218
2109.37500	-2.16557	3.78582	-2.16401	-5.01574
2113.28125	-2.15323	-0.27420	-2.45367	-8.04203
2117.18750	-0.87321	-4.12374	-2.66011	-8.34574
2121.09375	-0.56712	-3.97143	-2.64524	-8.47609
2125.00000	-0.72169	-3.50529	-1.48705	-7.20008
2128.90625	-0.47568	-4.55187	-2.47752	-5.69282
2132.81250	4.41588	-1.42206	-2.42405	-3.00146
2136.71875	4.49551	1.83940	-1.54174	-3.36979
2140.62500	-0.20326	-2.87617	-3.96554	-4.96063
2144.53125	1.40250	-4.70786	-3.50733	-1.10061
2148.43750	5.27331	-2.01477	-4.00244	3.72240
2152.34375	3.69987	-0.54007	-3.58963	6.03810
2156.25000	0.94851	-1.04763	-1.62037	5.19293
2160.15625	1.36742	-2.18954	-2.06792	1.37901
2164.06250	-2.06401	-3.51121	-3.12552	-3.42035
2167.96875	-1.02936	-1.90204	-1.50290	-2.55153
2171.87500	1.34646	0.75853	-2.32536	-3.48219
2175.78125	3.39209	2.93116	-4.10334	-2.80618
2179.68750	6.15144	2.52358	-4.60590	0.86609
2183.59375	6.60426	-0.31773	-7.19137	-0.46195
2187.50000	8.42411	0.61924	-10.29243	-0.33385
2191.40625	7.03332	0.86011	-9.91480	-4.96349
2195.31250	5.37870	0.48010	-11.40720	-6.81907
2199.21875	1.24727	-2.03112	-13.18887	-6.90887
2203.12500	-1.20558	-3.58848	-8.45163	-8.34583
2207.03125	-1.01393	-3.72075	-4.58535	-5.73803
2210.93750	-3.40799	-6.28142	-5.00444	-4.84742
2214.84375	-2.76169	-5.17651	-6.20518	-5.23495
2218.75000	0.74997	-3.76278	-3.23584	-0.59716
2222.65625	5.12344	-0.83136	-1.26461	2.33760
2226.56250	5.71484	-0.01541	-4.53014	3.80349
2230.46875	2.66755	-2.53676	-7.33982	6.13974
2234.37500	-0.07502	-1.95061	-4.61408	4.36469
2238.28125	4.24978	-1.05728	-2.94970	2.87261
2242.18750	6.24457	-3.73032	-4.96970	5.39406
2246.09375	0.40802	-5.59265	-4.89004	8.14747
2250.00000	0.28655	-2.01079	-2.01465	5.84359
2253.90625	-0.25788	1.69652	-1.39564	2.64082
2257.81250	-6.79379	0.85001	-3.06088	1.07776
2261.71875	-7.11612	-2.61286	-5.06032	-0.39057
2265.62500	-6.05362	-3.12753	-4.45775	-2.77769
2269.53125	-10.54311	-4.30337	-5.14849	-8.55039
2273.43750	-13.78264	-3.90620	-7.42944	-8.79270
2277.34375	-10.62802	-2.87404	-6.38795	-8.00152
2281.25000	-8.77598	-1.50664	-7.17585	-10.58983
2285.15625	-8.43195	2.14064	-7.66644	-7.61564
2289.06250	-7.24970	1.86500	-4.25269	-3.59225
2292.96875	-11.63318	-0.22440	-0.55459	-4.54743
2296.87500	-15.31521	-0.54182	-2.85541	-7.44547
2300.78125	-14.45640	1.60560	-6.88183	-5.86827
2304.68750	-12.36845	2.55570	-5.65199	-2.73922
2308.59375	-12.79301	0.37440	-4.16449	-1.03384
2312.50000	-13.95047	-0.55630	-4.14191	0.06958
2316.40625	-9.98008	0.99820	-4.54956	-0.88372
2320.31250	-7.64577	3.90531	-3.77358	2.88862
2324.21875	-8.59824	4.96711	-2.44423	4.59757
2328.12500	-10.24351	1.69836	-3.67754	2.35368
2332.03125	-9.44591	-0.47100	-5.29891	3.04792
2335.93750	-7.51828	-0.26673	-5.42510	1.60727
2339.84375	-5.27481	0.96312	-5.10159	1.16826
2343.75000	4.48730	2.52512	-6.50473	9.15419
2347.65625	11.68649	5.83431	-7.62911	11.41019
2351.56250	6.72276	4.46177	-3.62413	8.01891
2355.46875	-7.52792	0.49966	-3.06330	0.02599
2359.37500	-6.14241	2.04917	-4.01403	-4.99156
2363.28125	6.33485	4.09512	-3.32774	3.27276
2367.18750	0.21843	0.28944	-0.70989	7.20280
2371.09375	3.94030	0.13773	2.08947	7.33304
2375.00000	7.31697	2.08966	-0.68668	8.47445
2378.90625	9.08423	3.94272	-1.31423	11.80209
2382.81250	10.63817	5.24570	-0.97108	13.54270
2386.71875	7.33365	2.79061	-3.06840	14.71659
2390.62500	10.82230	2.67151	-4.27729	13.48666
2394.53125	9.21521	4.10078	-3.53296	13.25273
2398.43750	7.76070	3.82579	-1.83533	14.87639
2402.34375	6.10931	1.54575	-2.65729	13.36632
2406.25000	5.63595	2.05381	-1.81229	12.19668
2410.15625	7.63331	3.19618	-1.77391	12.38410
2414.06250	4.21354	1.29483	-3.54307	10.33349
2417.96875	3.17765	-0.71683	-2.35141	5.83809
2421.87500	3.21816	-1.36221	1.28538	4.35102
2425.78125	2.78298	-3.53439	1.04249	1.25736
2429.68750	3.24581	-4.33509	-1.68462	-1.20619
2433.59375	0.37415	-1.09045	-0.71703	-2.29585
2437.50000	-3.05867	-0.01225	0.36319	-2.42408
2441.40625	-2.47500	0.15021	-1.63240	1.39946
2445.31250	-1.62749	-0.67812	-2.56373	2.85185
2449.21875	-1.52677	-3.40464	-4.01178	2.13549
2453.12500	2.53654	-0.63805	-3.92002	4.37805
2457.03125	5.16413	2.71811	-3.36024	4.99336
2460.93750	6.75110	2.05579	-2.94738	7.72871
2464.84375	4.08886	1.75716	-1.75283	8.92180
2468.75000	0.57597	1.55266	-3.51954	9.11897
2472.65625	0.63352	0.63641	-4.28820	10.61612
2476.56250	-6.00298	-0.17910	-3.44639	9.95583
2480.46875	-6.98626	0.32794	-3.86633	10.03686
2484.37500	-4.64778	1.75686	-2.16600	10.19995
2488.28125	-6.95921	2.07277	-1.82187	8.46823
2492.18750	-6.13478	1.52280	-2.22559	7.15524
2496.09375	-4.73174	0.56507	-4.72901	1.58096
2500.00000	0.22363	1.01294	-5.59591	1.86983
2503.90625	3.58724	2.94714	-2.19183	5.87810
2507.81250	2.86911	4.19697	-5.36796	3.41137
2511.71875	4.80190	5.24270	-7.00108	0.85006
2515.62500	-3.11170	2.13135	-7.60988	-2.40429
2519.53125	-6.68211	0.48708	-5.71658	-0.66130
2523.43750	-5.45854	0.09031	-4.24777	1.19229
2527.34375	-7.80863	-0.53855	-6.50430	-2.82278
2531.25000	-6.84145	-1.90547	-6.12553	-3.45827
2535.15625	-5.17201	-4.34359	-3.22353	2.43166
2539.06250	-5.14663	-5.27631	-1.40534	1.22849
2542.96875	-7.21127	-2.78353	-3.49792	-7.89005
2546.87500	-12.79789	1.96660	-5.23254	-11.84215
2550.78125	-17.68725	1.43128	-4.43569	-10.59920
2554.68750	-14.13545	-3.14491	-3.65702	-10.50504
2558.59375	-12.10041	-4.18667	-2.33018	-13.01653
2562.50000	-13.36176	-4.06144	-0.34426	-10.09092
2566.40625	-11.28937	-1.98921	0.46023	-9.94361
2570.31250	-9.99846	-2.88131	-0.72486	-9.28400
2574.21875	-7.83830	-2.33096	-1.65743	-4.14332
2578.12500	-5.38832	2.54988	-0.43029	-3.10854
2582.03125	-3.36659	4.31665	-2.44147	-2.19134
2585.93750	-2.47491	4.11278	-3.12726	-0.75100
2589.84375	-3.10780	2.48031	-1.44220	-1.92399
2593.75000	-4.00657	1.32158	-0.44817	-2.25459
2597.65625	-8.78924	-1.18135	-1.34463	-1.69033
2601.56250	-11.48217	-2.22604	-3.34105	-1.52275
2605.46875	-10.93216	-0.68109	-5.11681	-3.20040
2609.37500	-10.30415	-0.21565	-5.78395	-2.61534
2613.28125	-6.26224	1.76813	-7.68516	-1.20957
2617.18750	-1.75865	4.36535	-5.87683	1.30696
2621.09375	-1.04937	3.30875	-2.23550	-0.43528
2625.00000	-3.62119	2.16309	-2.68889	-3.99459
2628.90625	-6.19546	-0.49539	-2.47044	-4.90513
2632.81250	-2.91538	-1.39501	-1.20805	-2.21396
2636.71875	-0.41796	-1.35714	-1.13155	2.65560
2640.62500	0.52442	-2.44645	-2.74939	4.28802
2644.53125	-1.49604	-4.27826	-3.90274	2.50685
2648.43750	-1.65445	-5.21167	-4.39772	-0.32605
2652.34375	-1.61594	-3.33416	-4.38774	-2.84571
2656.25000	-7.59047	-1.82724	-3.62717	-2.48235
2660.15625	-8.38005	0.25419	-2.46284	-4.28180
2664.06250	-8.99069	-0.66464	-0.69977	-6.26084
2667.96875	-12.79102	-3.89082	-1.09169	-2.57166
2671.87500	-14.04138	-3.64803	-2.31699	-1.89081
2675.78125	-16.42789	-5.90777	-1.67732	-7.25911
2679.68750	-16.48889	-8.33021	-2.58264	-11.24286
2683.59375	-13.21540	-8.35109	-4.36214	-8.13893
2687.50000	-13.41005	-7.41424	-6.25426	-5.59350
2691.40625	-9.96555	-4.75593	-7.89114	-6.99996
2695.31250	-3.15847	-0.30083	-6.56294	-6.43824
2699.21875	-2.85750	2.02297	-5.52395	-2.90197
2703.12500	-2.08680	0.46545	-5.62182	-1.11576
2707.03125	4.55189	1.94476	-5.38182	3.50645
2710.93750	6.59023	1.80146	-6.20365	4.79987
2714.84375	4.01335	1.29454	-5.38963	1.59162
2718.75000	2.69001	1.09646	-4.43491	-0.21769
2722.65625	2.22856	0.80424	-4.88103	-3.32702
2726.56250	1.61140	0.41125	-5.32598	-9.51704
2730.46875	0.98193	-3.72192	-8.53850	-16.04537
2734.37500	3.47773	-3.13589	-10.24487	-17.82055
2738.28125	2.96769	-1.03389	-7.77448	-14.88051
2742.18750	-4.30453	-5.72171	-5.36218	-8.73285
2746.09375	-10.14082	-8.39000	-4.87945	-5.17366
2750.00000	-11.87372	-8.83761	-4.42152	-5.46296
2753.90625	-12.41787	-7.95093	-3.39939	-7.85995
2757.81250	-11.29781	-5.57414	-3.04980	-7.81131
2761.71875	-6.38176	-6.61953	-3.43738	-4.84751
2765.62500	-7.33368	-7.53724	-3.64053	-4.81710
2769.53125	-6.98776	-4.68380	-3.12228	-4.54594
2773.43750	-3.78013	-4.68973	-2.58250	-6.40005
2777.34375	-4.25159	-6.88116	-3.55546	-8.83240
2781.25000	0.01822	-7.93154	-3.53733	-2.55637
2785.15625	1.57123	-3.88148	-1.61024	1.22351
2789.06250	-2.88748	-3.35143	-1.41976	-1.60318
2792.96875	-4.04738	-3.02344	-3.76551	-3.36435
2796.87500	-3.70000	-0.52048	-4.85736	-4.24793
2800.78125	-5.66151	-1.59668	-7.27190	-7.90908
2804.68750	-11.22906	-3.87009	-7.65370	-11.63016
2808.59375	-12.86226	-3.23108	-4.95727	-7.50745
2812.50000	-10.39317	-2.95311	-5.33746	-5.19551
2816.40625	-10.04906	-5.42801	-5.34204	-9.37258
2820.31250	-6.50579	-4.93868	-6.98353	-10.03269
2824.21875	-5.44351	-3.87706	-8.07164	-8.72692
2828.12500	-6.68578	-3.92257	-5.27544	-6.94177
2832.03125	-5.88794	-5.28615	-2.86744	-9.47122
2835.93750	-6.37766	-4.27618	-2.59054	-6.47983
2839.84375	-6.14858	-5.46392	-3.07279	-1.68089
2843.75000	-7.66828	-7.12540	-4.07281	-1.35076
2847.65625	-7.72164	-5.42809	-3.58528	0.09904
2851.56250	-4.62670	-4.78613	-1.59485	1.54273
2855.46875	-5.98336	-3.10741	-3.04852	0.39946
2859.37500	-7.82115	-1.96094	-7.22251	-3.40954
2863.28125	-7.83464	-2.73568	-7.34194	-6.02461
2867.18750	-9.11563	-2.51215	-3.51522	-5.31825
2871.09375	-5.79646	-2.26115	-3.93912	-5.59113
2875.00000	-4.83718	-3.53276	-4.70053	-2.83821
2878.90625	-6.69606	-2.08281	-2.10450	4.51855
2882.81250	-2.32147	2.04050	-3.37290	4.24431
2886.71875	-0.79063	2.00282	-3.05244	-2.64055
2890.62500	-3.34570	-2.14580	-1.84358	-0.64715
2894.53125	-3.34087	-3.13437	-2.30791	4.35695
2898.43750	0.44292	-2.60370	-1.81889	5.98048
2902.34375	5.23866	-0.85458	-3.04361	8.09670
2906.25000	7.58603	-0.34675	-3.00430	6.52402
2910.15625	8.77769	0.39257	-2.15992	7.92002
2914.06250	11.40214	2.52038	-2.31713	9.09272
2917.96875	9.56066	3.32909	-3.54290	6.20890
2921.87500	5.16922	0.26599	-4.33822	3.91584
2925.78125	0.30217	-2.71216	-3.37217	-0.78970
2929.68750	-0.44353	-1.90124	-4.48744	-5.67107
2933.59375	0.71446	-1.47723	-5.53439	-9.17853
2937.50000	-5.13571	-4.02563	-6.06576	-9.30694
2941.40625	-8.58102	-4.66909	-4.43479	-11.93034
2945.31250	-9.74782	-3.07998	-2.14255	-13.29846
2949.21875	-10.04957	-3.38901	-2.78450	-13.61188
2953.12500	-11.22401	-4.65182	-4.30431	-16.20441
2957.03125	-8.59613	-6.53385	-4.14727	-11.15686
2960.93750	-2.17376	-3.16698	-3.73430	-8.42144
2964.84375	0.40235	-1.85396	-3.34547	-9.64602
2968.75000	1.72477	-2.46153	-2.69445	-5.82255
2972.65625	2.58830	-1.76624	-3.06009	-3.92262
2976.56250	3.60755	-1.37310	-3.02399	-2.16545
2980.46875	1.01272	-1.26912	-2.23498	-1.68163
2984.37500	-5.91620	-2.66093	-2.95206	-5.95097
2988.28125	-10.24215	-2.74805	-2.20490	-3.25061
2992.18750	-10.62639	-4.90992	-1.39964	-0.93731
2996.09375	-8.82024	-3.85314	-1.88825	-4.89999
