 	TP9	AF7	AF8	TP10	
-1000.00000	-6.46141	-61.11670	-35.70120	-3.33120
-996.09375	-10.89148	-66.75684	-45.77272	-8.96855
-992.18750	-20.96256	-61.11500	-52.21790	-14.60595
-988.28125	-29.01918	-57.08492	-48.99274	-16.61711
-984.37500	-28.61402	-61.51637	-48.18520	-11.77833
-980.46875	-18.13549	-64.73909	-47.78043	-4.92481
-976.56250	-9.26879	-63.93254	-39.31719	-3.71228
-972.65625	-15.71342	-61.91715	-35.28616	-6.12624
-968.75000	-26.18747	-60.70754	-34.07562	-16.19588
-964.84375	-22.96174	-61.10963	-33.26803	-20.22158
-960.93750	-12.08035	-67.55563	-32.05754	-10.54768
-957.03125	-8.04874	-63.12265	-31.25002	-6.11187
-953.12500	-10.46402	-57.07796	-29.63662	-4.49651
-949.21875	-12.87952	-58.68885	-27.62023	-0.86670
-945.31250	-19.72711	-54.25580	-34.46833	-6.50427
-941.40625	-14.48677	-51.83758	-35.27253	-6.09785
-937.50000	-8.03751	-53.85149	-34.06201	-0.45315
-933.59375	-13.27333	-57.07425	-36.88078	-4.47885
-929.68750	-22.94142	-63.52034	-33.65566	-11.32522
-925.78125	-31.40076	-65.13144	-30.02757	-20.18606
-921.87500	-28.57793	-57.47509	-23.98186	-18.57074
-917.96875	-17.69644	-59.89201	-22.77137	-10.50850
-914.06250	-21.32064	-59.89135	-26.39610	-12.11657
-910.15625	-30.98888	-42.96756	-26.79727	-20.57470
-906.25000	-33.00143	-42.16099	-29.21318	-29.43568
-902.34375	-30.98444	-48.20432	-29.61449	-26.61165
-898.43750	-26.95271	-48.60667	-29.20981	-17.34063
-894.53125	-23.32395	-46.18851	-26.38764	-16.93413
-890.62500	-26.54518	-41.75567	-28.40065	-24.18326
-886.71875	-35.40734	-48.60480	-34.84578	-28.61200
-882.81250	-30.97284	-52.23039	-32.02360	-28.60844
-878.90625	-15.65906	-44.57391	-30.81317	-22.96386
-875.00000	-12.43338	-46.58780	-31.21455	-18.93098
-871.09375	-22.50456	-54.64566	-28.39239	-22.55399
-867.18750	-37.41074	-50.21273	-27.18194	-33.42964
-863.28125	-45.86998	-44.97402	-30.40369	-42.69357
-859.37500	-37.00327	-49.40570	-33.22253	-43.49582
-855.46875	-29.74833	-57.46372	-28.78870	-40.67183
-851.56250	-30.14910	-51.01622	-24.35490	-39.05669
-847.65625	-40.22026	-43.76276	-27.17378	-43.48560
-843.75000	-41.82973	-46.58265	-28.78387	-48.72041
-839.84375	-33.36591	-39.32923	-24.75293	-44.68773
-835.93750	-32.96084	-39.73152	-23.94535	-35.41692
-832.03125	-34.57036	-47.78944	-25.15247	-31.38424
-828.12500	-41.41809	-44.16244	-26.35963	-39.43953
-824.21875	-43.43064	-42.14716	-27.96965	-42.25660
-820.31250	-36.17569	-41.34075	-25.55038	-35.80616
-816.40625	-22.87683	-44.16067	-19.50483	-33.78801
-812.50000	-23.27777	-49.80117	-19.10031	-37.81391
-808.59375	-38.18430	-53.42694	-21.11335	-40.63112
-804.68750	-33.74990	-55.84396	-20.70889	-37.80719
-800.78125	-28.91262	-53.42579	-21.51315	-37.40088
-796.87500	-32.93977	-46.97833	-22.72038	-40.21786
-792.96875	-41.39923	-46.97779	-21.91305	-44.24370
-789.06250	-50.66464	-42.14211	-17.88224	-47.86674
-785.15625	-49.85666	-37.30651	-16.26889	-46.65453
-781.25000	-41.79583	-40.93228	-19.49086	-45.44222
-777.34375	-26.07935	-42.94638	-23.51864	-40.20061
-773.43750	-20.03340	-38.51357	-21.90539	-34.15320
-769.53125	-30.10461	-32.06618	-16.66571	-41.40255
-765.62500	-39.36994	-38.51245	-13.44065	-48.24882
-761.71875	-35.74139	-42.94429	-15.05079	-42.60421
-757.81250	-34.53035	-42.13798	-21.09304	-40.18299
-753.90625	-32.11058	-40.92867	-19.88256	-36.55302
-750.00000	-31.30265	-40.12238	-13.43404	-33.72902
-746.09375	-39.35911	-48.98632	-13.02956	-41.78410
-742.18750	-37.74508	-50.59760	-17.46023	-44.19808
-738.28125	-26.46077	-35.68859	-19.47337	-37.34463
-734.37500	-20.01168	-27.22658	-13.83075	-32.10289
-730.46875	-32.90333	-31.25545	-7.38224	-42.57549
-726.56250	-46.60079	-35.28434	-9.39531	-51.43637
-722.65625	-43.37524	-38.50727	-13.42307	-46.59758
-718.75000	-37.73191	-38.10394	-12.21274	-42.56460
-714.84375	-33.70037	-37.70066	-12.61417	-42.15798
-710.93750	-33.29532	-36.08852	-11.00080	-42.15440
-707.03125	-36.91955	-34.07340	-12.20805	-42.95665
-703.12500	-38.52897	-39.31114	-17.44452	-43.35597
-699.21875	-28.05048	-39.71370	-19.05475	-44.15817
-695.31250	-27.64536	-35.28113	-20.66491	-51.00428
-691.40625	-40.13400	-36.48951	-21.46918	-52.20955
-687.50000	-43.75819	-35.68325	-15.82670	-51.80313
-683.59375	-38.92076	-42.53274	-9.37830	-46.96432
-679.68750	-28.03927	-49.78505	-8.16799	-37.69329
-675.78125	-19.97838	-42.12894	-9.77826	-35.27209
-671.87500	-27.22889	-30.84654	-10.17966	-33.65675
-667.96875	-35.68831	-21.57877	-10.58112	-39.29424
-664.06250	-33.67142	-29.23397	-12.19137	-42.11118
-660.15625	-28.83403	-38.09812	-12.99573	-40.09285
-656.25000	-22.38486	-36.48611	-14.20300	-39.28328
-652.34375	-23.59144	-31.24775	-6.94873	-30.01229
-648.43750	-36.48301	-35.67969	-4.12671	-35.24680
-644.53125	-50.58344	-41.32059	-14.60132	-48.53991
-640.62500	-40.10492	-35.27631	-17.01741	-48.53623
-636.71875	-27.20893	-28.02328	-15.00134	-40.47392
-632.81250	-32.04205	-26.00822	-14.99990	-34.02338
-628.90625	-40.50142	-27.61958	-10.96903	-39.25779
-625.00000	-44.93143	-26.81344	-8.55006	-38.85108
-621.09375	-36.06470	-26.81309	-8.54858	-32.80327
-617.18750	-24.37742	-27.61856	-6.93532	-30.38181
-613.28125	-24.37523	-30.03584	-10.15731	-29.57215
-609.37500	-33.23758	-32.85601	-13.37926	-37.22413
-605.46875	-44.11454	-37.28797	-9.75146	-41.24970
-601.56250	-33.23309	-36.48172	-9.34704	-38.42535
-597.65625	-21.94876	-31.24341	-14.98665	-33.98934
-593.75000	-29.19934	-30.84035	-17.80564	-34.79146
-589.84375	-40.88219	-26.40790	-11.76016	-40.83171
-585.93750	-53.77367	-23.58718	-7.32643	-41.63389
-582.03125	-48.13037	-30.03379	-6.92199	-36.79496
-578.12500	-34.02552	-29.63063	-5.71172	-33.56773
-574.21875	-33.62045	-27.61571	-6.91904	-31.95231
-570.31250	-35.63298	-36.07706	-9.33515	-32.35144
-566.40625	-39.25714	-37.28559	-10.94535	-36.37695
-562.50000	-36.83741	-26.00321	-10.54108	-29.52334
-558.59375	-23.13548	-22.37662	-6.91325	-19.84914
-554.68750	-17.08930	-30.03214	-3.68838	-11.78664
-550.78125	-27.96618	-26.00264	-5.70160	-17.02089
-546.87500	-38.84315	-21.97312	-9.32662	-31.92556
-542.96875	-29.17050	-24.79343	-12.54867	-36.75675
-539.06250	-10.23036	-23.58441	-14.56190	-31.11178
-535.15625	-10.63116	-26.00183	-12.14291	-25.46697
-531.25000	-23.11991	-23.58407	-10.12686	-22.64268
-527.34375	-27.55015	-16.33121	-3.67853	-26.26514
-523.43750	-27.14500	-19.55441	-1.66249	-30.29054
-519.53125	-21.50178	-28.41863	-5.28755	-27.46617
-515.62500	-16.26152	-28.41849	-8.50960	-28.67110
-511.71875	-21.49760	-27.20958	-12.53749	-28.66726
-507.81250	-26.73369	-28.41826	-14.14780	-34.70742
-503.90625	-18.67306	-21.97123	-10.52006	-42.35927
-500.00000	-2.15063	-18.74757	-7.69813	-34.29664
-496.09375	1.07494	-24.38860	-5.27913	-25.02529
-492.18750	-6.17574	-20.76217	-3.66595	-22.20094
-488.28125	-18.26173	-22.77668	-2.45582	-23.00303
-484.37500	-30.34741	-30.43207	-2.05153	-24.61089
-480.46875	-33.16548	-26.80557	-2.85605	-22.18941
-476.56250	-26.31331	-26.80541	-5.27236	-23.39434
-472.65625	-30.34037	-28.41708	-2.04759	-25.80806
-468.75000	-39.60560	-20.76146	3.99772	-27.01300
-464.84375	-39.60333	-23.58192	4.80491	-29.02373
-460.93750	-29.93063	-24.79072	5.20919	-26.60225
-457.03125	-24.69019	-21.16426	4.00167	-27.80705
-453.12500	-25.09097	-26.80532	-2.44394	-29.41484
-449.21875	-27.90932	-21.16416	-4.05434	-32.23154
-445.31250	-34.75689	-15.12022	-6.87351	-33.03356
-441.40625	-30.32233	-14.31432	-8.48393	-28.19454
-437.50000	-18.23213	-19.95521	-4.45328	-20.93784
-433.59375	-19.03568	-28.81967	-2.43728	-14.89002
-429.68750	-31.12145	-25.99920	-2.43594	-20.52715
-425.78125	-37.96916	-23.58165	0.38594	-24.95545
-421.87500	-34.74336	-24.38761	4.41659	-24.95147
-417.96875	-27.48835	-17.94080	4.82084	-24.14165
-414.06250	-25.47145	-20.76141	2.00163	-20.51133
-410.15625	-29.90155	-18.74676	1.59997	-21.31340
-406.25000	-33.12286	-18.34396	3.21289	-28.56222
-402.34375	-34.73228	-36.87881	-2.82983	-30.57303
-398.43750	-31.10355	-33.25251	-12.49895	-34.19539
-394.53125	-35.13067	-14.71780	-15.72113	-38.62371
-390.62500	-44.39592	-7.06229	-12.89930	-37.81400
-386.71875	-44.39366	-13.91223	-4.43648	-38.61594
-382.81250	-32.30337	-11.49482	4.83223	-32.97085
-378.90625	-27.46585	-19.95649	-1.61335	-33.36975
-375.00000	-29.88105	-41.31200	-13.29710	-39.81267
-371.09375	-25.44671	-39.29742	-8.46074	-38.59992
-367.18750	-29.07089	-22.77748	-2.41555	-42.22238
-363.28125	-41.15649	-9.07796	-4.83191	-45.84471
-359.37500	-39.94536	-3.03414	-9.66591	-40.60257
-355.46875	-33.49616	0.18913	-8.05292	-31.33111
-351.56250	-35.10565	-7.06387	-1.60481	-30.52135
-347.65625	-36.31225	-15.52566	0.81398	-32.93491
-343.75000	-34.69821	-16.73466	-1.60228	-37.36318
-339.84375	-24.21958	-22.37588	-2.80982	-27.68888
-335.93750	-12.93522	-23.58496	1.22074	-19.62615
-332.03125	-18.97694	-18.75004	2.02781	-20.83098
-328.12500	-35.09201	-21.57085	-1.59726	-23.64755
-324.21875	-37.91037	-24.79452	-2.40187	-28.88174
-320.31250	-24.61122	-17.94493	-4.81815	-19.61032
-316.40625	-16.55025	-17.54222	-4.41397	-16.78573
-312.50000	-14.13050	-30.83914	-1.99510	-20.81101
-308.59375	-18.15762	-27.61596	-1.99391	-21.21007
-304.68750	-29.84023	-15.12549	2.43950	-26.84711
-300.78125	-28.62916	-13.51405	3.64948	-34.49879
-296.87500	-25.00041	-11.49963	2.84479	-46.98563
-292.96875	-31.04210	-10.69409	3.24891	-57.05502
-289.06250	-39.90451	-17.54433	2.44420	-55.84244
-285.15625	-45.54333	-19.55936	3.65413	-55.83859
-281.25000	-37.48237	-13.91869	2.84940	-55.83463
-277.34375	-21.36278	-10.69556	2.04471	-46.16030
-273.43750	-36.26892	-17.54574	1.23996	-39.70940
-269.53125	-51.57808	-23.99281	0.83812	-35.67616
-265.62500	-46.74060	-27.61950	3.65981	-33.25456
-261.71875	-45.52935	-30.03745	0.84036	-42.11502
-257.81250	-37.87126	-26.81442	3.66200	-38.08163
-253.90625	-34.24251	-22.78547	4.06600	-32.83953
-250.00000	-41.49318	-21.57704	-0.36503	-34.44750
-246.09375	-49.54978	-14.32467	2.85954	-29.60862
-242.18750	-38.26564	-15.53386	1.65197	-32.82827
-238.28125	-20.13170	-18.35475	-3.58496	-27.18358
-234.37500	-13.68289	-9.49065	1.25135	-11.86870
-230.46875	-26.57484	-11.50580	6.49058	-18.71495
-226.56250	-37.45216	-13.52098	8.10342	-30.39641
-222.65625	-26.16831	-11.50679	7.70166	-24.34889
-218.75000	-18.91361	-17.14832	2.86761	-21.52483
-214.84375	-20.52348	-26.01321	1.66002	-30.78865
-210.93750	-32.60968	-28.02834	5.28753	-37.23190
-207.03125	-32.60780	-16.74678	4.48280	-45.68974
-203.12500	-21.72665	-5.86826	4.08092	-48.50653
-199.21875	-12.45719	-4.66001	6.09664	-36.81792
-195.31250	-12.05219	-11.91327	4.88896	-36.41124
-191.40625	-19.70582	-11.10788	5.29304	-31.57242
-187.50000	-29.77684	-11.10831	6.90587	-29.15100
-183.59375	-32.19213	-15.94389	5.69813	-29.95303
-179.68750	-26.14588	-21.98836	2.87864	-25.11405
-175.78125	-19.29367	-28.43573	2.07385	-19.46906
-171.87500	-18.88860	-25.61568	4.49255	-18.65938
-167.96875	-30.16850	-21.58693	4.49364	-28.32577
-164.06250	-26.94273	-15.94643	3.28593	-27.91885
-160.15625	-15.25540	-18.76753	7.31633	-21.06504
-156.25000	-18.07368	-31.66185	13.36139	-14.21105
-152.34375	-27.33883	-21.18611	8.93031	-19.84805
-148.43750	-41.03622	-12.32222	-1.14189	-37.97578
-144.53125	-42.24266	-15.14325	0.06796	-41.59806
-140.62500	-34.18164	-14.74080	3.29247	-29.90886
-136.71875	-26.92644	-14.74134	1.27895	-22.65193
-132.81250	-24.90951	-16.35369	3.29466	-26.27409
-128.90625	-34.17461	-19.98059	5.71328	-26.26991
-125.00000	-39.81324	-15.95185	7.72902	-27.87738
-121.09375	-25.30525	-15.14657	9.74473	-23.44084
-117.18750	-21.67641	-21.59401	2.89592	-22.63079
-113.28125	-34.16491	-17.96820	-2.34120	-30.68511
-109.37500	-43.43000	-16.35714	-2.74318	-34.30732
-105.46875	-45.03931	-24.01333	2.49594	-34.70607
-101.56250	-39.79865	-22.80523	2.09401	-31.07540
-97.65625	-20.45537	-12.32964	2.49792	-23.01254
-93.75000	-16.42360	-10.31560	2.90181	-17.77026
-89.84375	-29.31503	-15.95719	-4.34992	-19.78085
-85.93750	-36.16239	-17.16667	-4.34894	-26.22364
-82.03125	-29.31003	-13.13797	2.50193	-20.57829
-78.12500	-16.01075	-20.79420	6.93526	-12.11245
-74.21875	-17.21704	-26.83876	4.51870	-12.10814
-70.31250	-25.27329	-16.76615	-0.71842	-18.95367
-66.40625	-38.56758	-5.08188	-3.94086	-37.88713
-62.50000	-36.14747	-4.27667	-1.52228	-43.52392
-58.59375	-21.23658	-10.72429	0.09041	-32.23755
-54.68750	-26.47210	-17.17184	-3.13201	-31.83019
-50.78125	-38.96040	-22.41055	-4.33980	-33.03458
-46.87500	-43.79308	-24.42593	-2.72709	-29.40385
-42.96875	-46.20789	-18.38271	-4.33788	-31.81694
-39.06250	-38.54939	-13.54835	-3.53099	-28.58891
-35.15625	-30.89096	-8.71395	-2.32125	-23.34629
-31.25000	-32.09723	-12.34116	-3.52906	-21.32725
-27.34375	-34.10944	-18.78869	-1.91644	-26.15812
-23.43750	-27.25709	-11.93960	3.32255	-29.37715
-19.53125	-17.18118	-11.13443	6.54696	-21.71707
-15.62500	-11.53766	-19.59663	2.92150	-17.28052
-11.71875	-24.83195	-22.01486	2.11661	-15.26158
-7.81250	-40.14088	-20.80675	-1.10588	-15.66040
-3.90625	-32.48271	-24.43379	-5.13427	-21.69999
0.00000	-21.60087	-24.83744	-4.32753	-20.08392
3.90625	-14.34566	-21.61477	-4.72954	-21.28835
7.81250	-13.53740	-18.79495	-3.11692	-24.91051
11.71875	-28.04058	-10.73716	0.51043	-28.53262
15.62500	-38.11146	-9.12623	1.72015	-31.75185
19.53125	-25.61819	-13.96217	-1.09951	-28.92714
23.43750	-23.60123	-20.00690	-1.50153	-26.10243
27.34375	-32.06054	-25.24585	1.31989	-24.08355
31.25000	-38.50531	-15.57644	-1.90264	-31.33231
35.15625	-40.11481	-9.13034	-4.72221	-30.52234
39.06250	-27.62169	-11.14578	-3.91544	-23.66850
42.96875	-26.81353	-18.80216	-3.51162	-26.48491
46.87500	-39.70525	-28.87628	-3.51072	-31.71906
50.78125	-46.55305	-28.87715	-0.68927	-33.32690
54.68750	-48.56567	-23.23701	3.74392	-24.05559
58.59375	-38.08736	-17.19382	1.73015	-22.03708
62.50000	-24.38559	-14.77694	-5.52171	-26.06253
66.40625	-24.78658	-22.43338	-9.55018	-26.86453
70.31250	-32.84316	-25.65767	-9.95219	-33.71059
74.21875	-42.51150	-18.40577	-9.54843	-35.72156
78.12500	-41.70363	-18.80950	-10.35342	-29.67387
82.03125	-34.04581	-16.39287	-9.94965	-31.28189
85.93750	-30.41734	-7.93215	-6.72532	-30.06939
89.84375	-31.22127	-11.96225	-5.91864	-26.84229
93.75000	-37.66613	-22.43922	-4.70902	-32.88265
97.65625	-33.63456	-20.42545	-3.09651	-32.87891
101.56250	-20.33563	-13.57651	-0.67808	-25.62231
105.46875	-20.33345	-14.78605	1.74039	-21.99216
109.37500	-30.40470	-21.23383	0.93530	-26.01769
113.28125	-39.66993	-24.05517	-1.07857	-32.86368
117.18750	-39.26460	-15.99738	-5.10708	-37.69488
121.09375	-29.99475	-8.74546	-3.89748	-31.64694
125.00000	-28.78355	-12.77554	-2.28499	-31.64301
128.90625	-34.42228	-16.40278	-2.68715	-36.87721
132.81250	-37.64336	-15.19488	-3.08934	-33.64981
136.71875	-32.80547	-18.41920	-4.70020	-25.99015
140.62500	-26.75875	-19.62889	-5.90816	-23.97130
144.53125	-32.80001	-15.19765	-5.50438	-30.81692
148.43750	-38.43843	-16.00447	-8.32416	-34.84207
152.34375	-39.24165	-14.79657	-5.50277	-38.46428
156.25000	-41.25356	-14.39459	0.54198	-44.90689
160.15625	-31.17749	-15.20130	-2.68060	-42.88786
164.06250	-26.33941	-14.39635	-4.29149	-36.83950
167.96875	-28.35157	-13.99444	-3.88773	-34.82052
171.87500	-29.96074	-13.59259	-1.46937	-37.23384
175.78125	-28.34634	-17.21991	-1.46857	-38.03540
179.68750	-18.67311	-16.81801	-1.87068	-31.98708
183.59375	-15.84980	-13.59561	-5.89910	-31.98265
187.50000	-24.71155	-9.16431	-10.33052	-40.03683
191.40625	-35.18504	-14.00049	-8.31508	-43.65891
195.31250	-36.39101	-24.47774	-4.28495	-42.04284
199.21875	-24.70304	-20.44944	-1.06069	-36.39742
203.12500	-23.89418	-14.80933	-3.47747	-35.58700
207.03125	-31.14413	-20.45150	-7.10304	-38.00019
210.93750	-42.02044	-16.82619	-11.53441	-42.02508
214.84375	-49.27042	-9.17158	-11.93647	-50.07922
218.75000	-38.38846	-16.82826	-4.68292	-41.61329
222.65625	-29.52109	-23.27622	-7.09971	-41.60879
226.56250	-33.54770	-18.44214	-7.09891	-50.87174
230.46875	-33.14215	-14.41387	-5.08343	-51.27030
234.37500	-14.69905	-5.95332	-4.27677	-47.46076
238.28125	-10.12891	-5.14852	-4.67888	-45.95928
242.18750	-14.20577	-14.01405	-8.30451	-44.93723
246.09375	-19.00466	-18.44731	-12.73591	-45.11273
250.00000	-22.13525	-15.62784	-13.13804	-39.80021
253.90625	-25.65446	-21.26984	-7.89913	-27.71776
257.81250	-22.81648	-27.71778	2.17491	-19.17094
261.71875	-29.67823	-22.48075	0.16103	-22.74550
265.62500	-40.51667	-17.64677	-11.92615	-31.28563
269.53125	-42.75119	-7.97756	-15.14890	-34.34478
273.43750	-43.26201	1.28866	-17.56575	-34.25503
277.34375	-33.12642	2.49630	-14.74450	-30.70045
281.25000	-32.48150	-8.78688	-7.49091	-28.29202
285.15625	-34.46924	-18.45827	-5.47547	-31.07508
289.06250	-26.36806	-15.63884	-4.26598	-29.70279
292.96875	-23.60473	-12.01357	-4.66811	-26.37469
296.87500	-26.58288	-12.01473	-8.29374	-28.17884
300.78125	-29.48326	-9.19538	-11.11347	-31.36740
304.68750	-25.82699	-8.39067	-9.50100	-28.35928
308.59375	-30.57598	-11.21231	-6.67965	-29.48750
312.50000	-33.16456	-10.81054	-9.09645	-35.90426
316.40625	-26.98694	-5.57365	-11.11029	-30.95736
320.31250	-29.56876	-4.36607	-8.28902	-29.56572
324.21875	-30.29003	-5.17319	-8.69122	-26.76198
328.12500	-27.13914	-12.02413	-9.09344	-23.20929
332.03125	-21.56806	-15.24873	-3.04873	-23.35013
335.93750	-24.69386	-7.99715	-0.22744	-20.51033
339.84375	-28.32974	-7.59537	-1.43558	-20.48172
343.75000	-28.91075	-3.97017	-0.62902	-25.47646
347.65625	-32.95007	-11.22414	-8.68688	-28.98722
351.56250	-32.72394	-18.47809	-9.49207	-27.38602
355.46875	-33.82960	-18.88216	-4.25329	-29.07999
359.37500	-38.28368	-15.65999	-7.87892	-32.33343
363.28125	-40.21867	-10.02013	-8.68408	-29.74213
367.18750	-33.07000	-5.58903	-4.25113	-20.61869
371.09375	-25.92056	-8.41081	-1.02694	-17.37978
375.00000	-35.07264	-10.42669	-1.42916	-23.22879
378.90625	-39.31181	-12.84548	-9.48715	-30.48239
382.81250	-34.79875	-15.66724	-11.50111	-31.50336
386.71875	-35.52856	-19.29483	-4.24768	-27.10355
390.62500	-32.97134	-22.51947	-0.21757	-22.73484
394.53125	-21.59052	-11.64165	-0.21681	-13.03432
398.43750	-21.77456	-7.21072	-3.43962	-16.55374
402.34375	-28.77235	-7.61485	-4.24488	-27.54215
406.25000	-30.22513	-7.21318	-5.45294	-27.47964
410.15625	-32.90139	-9.22910	-6.25820	-24.50190
414.06250	-34.09112	-9.63324	-4.24295	-26.30123
417.96875	-32.84448	-11.64921	-2.63055	-24.00430
421.87500	-34.23513	-11.24759	-3.43577	-19.87980
425.78125	-36.47540	-15.27817	-8.67322	-24.55880
429.68750	-32.93868	-17.29406	-13.10482	-29.11520
433.59375	-25.84278	-9.63953	-8.26910	-26.76566
437.50000	-29.03575	-7.62613	-2.62746	-27.46160
441.40625	-33.47030	-7.22454	-3.02978	-31.89434
445.31250	-28.87251	-6.42005	-2.22324	-26.39206
449.21875	-22.98277	-5.61559	-3.43134	-19.23480
453.12500	-23.44290	-7.22873	-7.86290	-22.48333
457.03125	-25.28679	-8.84171	-11.89156	-23.71327
460.93750	-20.85339	-6.42538	-9.07048	-22.49620
464.84375	-18.67970	-13.27656	-2.62295	-22.90064
468.75000	-15.89843	-6.42811	-3.02526	-21.03817
472.65625	-16.01167	-2.80311	-6.24806	-25.13654
476.56250	-25.25254	-16.90704	-9.06795	-30.50023
480.46875	-30.25045	-16.10250	-7.85858	-27.55783
484.37500	-24.81947	-7.64236	-2.21701	-30.60196
488.28125	-23.74338	2.42959	-1.00759	-30.07987
492.18750	-28.92859	0.01064	-1.81285	-25.45195
496.09375	-35.80944	-10.46701	2.21701	-25.67023
500.00000	-31.86768	-10.87134	4.23225	-18.88568
503.90625	-22.29939	-7.24645	3.42701	-14.43877
507.81250	-27.14676	-7.24796	-2.21342	-25.79673
511.71875	-31.56178	-13.69635	-11.88312	-32.68907
515.62500	-30.38847	-10.07140	-11.88251	-25.34841
519.53125	-28.95463	-4.02892	-8.65847	-27.51798
523.43750	-22.39456	-7.25385	-9.46377	-30.82187
527.34375	-16.81051	-6.44938	-11.88070	-31.14347
531.25000	-16.24109	-2.82447	-6.23916	-34.34833
535.15625	-15.45670	-0.81130	1.41704	-28.33243
539.06250	-20.73195	-6.85668	1.41755	-31.30688
542.96875	-26.31028	-10.88746	-5.43174	-39.86365
546.87500	-23.32666	-12.50069	-9.46057	-36.84122
550.78125	-19.21213	-10.08450	-5.43066	-33.64311
554.68750	-17.22183	-8.87715	-4.62431	-34.62715
558.59375	-15.28779	-4.04346	-2.20621	-28.25117
562.50000	-18.73733	5.62541	-0.19096	-27.86862
566.40625	-22.89443	3.60932	1.82425	-30.79099
570.31250	-25.14196	-3.64498	-3.01040	-30.96398
574.21875	-37.30877	-12.91396	-9.05383	-35.36968
578.12500	-40.85667	-13.72139	-5.42688	-32.86871
582.03125	-33.12530	-6.47015	-6.63511	-27.07708
585.93750	-38.85825	-11.30695	-10.26090	-29.10149
589.84375	-42.06643	-12.51733	-4.61925	-28.71766
593.75000	-42.28569	-12.92180	1.82821	-28.95135
597.65625	-39.85237	-14.53512	3.03749	-23.01355
601.56250	-34.02903	-8.89565	1.82929	-22.59068
605.46875	-29.69454	-4.46490	-2.60236	-21.29047
609.37500	-29.26452	-1.24303	-6.63103	-22.86322
613.28125	-36.59161	-2.05044	-5.82464	-33.50425
617.18750	-34.46769	-5.27541	-5.42117	-31.73966
621.09375	-29.92707	-5.27689	-9.85295	-32.14919
625.00000	-29.63428	-8.90483	-11.06122	-36.76747
628.90625	-27.40462	-10.51819	-5.82254	-32.72835
632.81250	-19.82465	-8.10223	-3.80733	-26.46022
636.71875	-16.67242	-8.90977	-4.61270	-28.03055
640.62500	-16.00120	-6.49381	-0.58291	-33.19616
644.53125	-12.87150	-4.88372	-3.00003	-37.64949
648.43750	-19.53233	-5.28828	-7.02886	-33.71809
652.34375	-28.64657	-11.33386	-7.43130	-30.77924
656.25000	-29.20327	-13.75309	-7.43080	-34.05612
660.15625	-24.50732	-9.72534	-7.43027	-32.99551
664.06250	-18.07449	-7.30950	-8.63851	-29.57535
667.96875	-16.49559	-4.89364	-8.23505	-24.20746
671.87500	-20.74090	-5.70120	-8.23456	-23.89054
675.78125	-24.13647	-4.49410	-5.41352	-26.05210
679.68750	-23.63881	-2.07832	-5.81601	-16.65158
683.59375	-19.85071	-8.12401	-8.63607	-20.20085
687.50000	-16.65275	-12.55804	-9.03856	-22.71908
691.40625	-19.06308	-8.93338	-4.60581	-15.05352
695.31250	-28.08801	-10.54686	-3.39650	-22.56107
699.21875	-32.36084	-12.56329	-11.85756	-28.50006
703.12500	-29.07503	-4.50638	-12.26008	-29.27134
707.03125	-27.62898	-1.68765	-4.20105	-24.40557
710.93750	-27.22231	-6.52461	-2.99183	-21.98696
714.84375	-30.59978	-12.16746	-6.21486	-26.40819
718.75000	-25.72025	-10.15462	-5.81151	-20.60562
722.65625	-20.76666	-3.70946	-3.39348	-15.28888
726.56250	-19.98218	-8.14342	-2.58719	-17.97439
730.46875	-21.82911	-15.39797	-2.18385	-20.90728
734.37500	-28.46380	-18.62321	-4.19807	-27.52395
738.28125	-27.52023	-13.38697	-8.62988	-30.85700
742.18750	-24.74734	-10.56831	-9.43540	-28.22255
746.09375	-20.27905	-7.74963	-8.22618	-25.17411
750.00000	-16.96294	-2.51335	-8.22572	-25.90509
753.90625	-21.28808	-3.32103	-8.62818	-27.11893
757.81250	-25.30012	-5.33753	-9.03074	-28.24210
761.71875	-25.71531	-9.77155	-12.65677	-31.01047
765.62500	-24.06305	-10.17632	-19.10335	-29.87992
769.53125	-21.46264	-7.76055	-13.46200	-27.70071
773.43750	-21.57070	-12.59761	-5.00012	-28.41648
777.34375	-20.70276	-14.21112	-6.61153	-27.27920
781.25000	-20.05817	-7.36310	-5.80543	-22.45300
785.15625	-19.62844	-10.99122	-4.59639	-27.65326
789.06250	-20.39173	-20.66341	-7.41668	-25.87784
792.96875	-24.88131	-13.00954	-9.83402	-19.72893
796.87500	-23.42734	-8.98205	-6.61023	-21.53270
800.78125	-21.89543	-15.83370	-2.58060	-25.12393
804.68750	-18.23909	-9.79147	-2.17734	-26.54762
808.59375	-10.49726	-2.54061	-3.78864	-24.04909
812.50000	-10.66828	-2.94542	-7.01172	-21.60102
816.40625	-20.60792	-6.57368	-9.02605	-23.50347
820.31250	-25.20437	-14.63419	-9.02578	-24.93199
824.21875	-27.94023	-17.45654	-8.62253	-26.96305
828.12500	-25.59531	-12.22036	-10.63678	-30.25967
832.03125	-21.63601	-9.80466	-7.81592	-25.96801
835.93750	-19.12081	-4.56848	-4.59213	-23.12767
839.84375	-16.30984	-0.94397	-6.60643	-27.12789
843.75000	-17.69669	-4.16921	-9.82958	-32.52512
847.65625	-13.27449	-4.57396	-10.63503	-25.15625
851.56250	-7.81003	-9.81394	-9.02303	-21.13705
855.46875	-11.73608	-15.45695	-7.00805	-22.83050
859.37500	-12.16076	-10.62368	-3.78427	-17.62208
863.28125	-10.46951	-4.58171	-8.21619	-18.65673
867.18750	-9.36485	-7.40431	-9.82748	-22.42675
871.09375	-11.07983	-14.65900	-2.97732	-22.81390
875.00000	-14.59084	-6.60231	-2.97695	-22.61849
878.90625	-15.20360	1.05137	-8.21465	-23.82760
882.81250	-16.73442	-2.57696	-10.22892	-24.04231
886.71875	-21.09055	-1.77306	-9.82567	-23.26837
890.62500	-23.36844	-4.59552	-7.00491	-23.73432
894.53125	-19.64324	-9.02973	-5.39285	-24.50953
898.43750	-20.63300	-11.04630	-5.39247	-26.01361
902.34375	-20.78090	-13.46589	-3.78040	-22.49580
906.25000	-16.18974	-9.03567	-0.55659	-15.17998
910.15625	-23.29817	-13.46990	-2.57086	-17.03666
914.06250	-29.32295	-16.69535	-5.39097	-21.65596
917.96875	-27.67320	-7.83287	-9.82289	-22.58179
921.87500	-24.22857	-4.20849	-13.85187	-23.69489
925.78125	-28.08068	-3.00165	-10.62809	-24.34405
929.68750	-29.37917	-3.40660	-5.79271	-22.05006
933.59375	-27.52135	-9.04961	1.05746	-19.29695
937.50000	-24.26720	-5.02241	6.69893	-14.75424
941.40625	-25.88107	1.42237	4.28172	-15.56022
945.31250	-27.32720	-0.99728	-6.59704	-23.35418
949.21875	-25.46685	-4.62561	-10.22316	-26.26981
953.12500	-24.71808	-8.65693	-8.20824	-28.30920
957.03125	-24.14436	-6.64424	-11.83429	-32.76213
960.93750	-19.30787	-11.48152	-13.04276	-34.36479
964.84375	-13.91050	-12.28948	-11.43075	-35.97746
968.75000	-7.50276	-9.47111	-12.63922	-38.94944
972.65625	-6.40705	-8.26436	-10.22135	-41.03250
976.56250	-3.55988	1.00101	-9.41515	-39.54559
980.46875	3.53033	8.25173	-13.44412	-35.79656
984.37500	2.11160	0.59407	-13.04084	-30.78131
988.28125	-5.67652	-11.09295	-11.02591	-29.04969
992.18750	-13.68220	-15.93020	-9.41393	-28.04738
996.09375	-18.95113	-12.70882	-7.39895	-24.23577
1000.00000	-23.87361	-6.66691	-10.21917	-20.67401
1003.90625	-19.94607	-3.84856	-11.02468	-17.03229
1007.81250	-21.97284	-5.86529	-9.81559	-13.48144
1011.71875	-24.37296	-9.89662	-6.18894	-12.31453
1015.62500	-17.55838	-9.09289	-3.77103	-12.22608
1019.53125	-20.55657	-12.72135	-8.60586	-11.17162
1023.43750	-26.89011	-13.52929	-9.81438	-13.66908
1027.34375	-23.72355	-4.66690	-9.00827	-18.42258
1031.25000	-18.31901	0.16616	-4.17287	-14.37426
1035.15625	-19.54935	-7.89454	-6.18723	-19.23705
1039.06250	-29.65993	-16.35823	-17.87190	-27.44928
1042.96875	-33.22362	-16.36042	-20.69213	-25.52945
1046.87500	-30.24023	-19.18312	-16.25961	-24.52143
1050.78125	-29.34930	-15.96193	-14.64762	-25.75529
1054.68750	-22.92704	-6.29372	-10.61790	-23.51553
1058.59375	-20.18738	-9.92218	-9.40891	-21.16864
1062.50000	-25.65220	-14.35668	-12.63205	-19.98018
1066.40625	-22.15426	-6.70315	-10.21423	-13.23233
1070.31250	-15.53785	-8.71993	-8.19932	-11.39067
1074.21875	-19.64653	-9.12496	-13.84006	-17.00509
1078.12500	-18.35990	-3.08321	-16.25743	-18.13026
1082.03125	-17.88173	-3.08542	-6.18398	-11.93536
1085.93750	-17.97428	-14.77262	-3.36325	-13.15361
1089.84375	-16.75082	-21.22174	-9.40703	-16.39591
1093.75000	-14.14997	-13.97119	-8.19800	-13.00297
1097.65625	-13.73185	-16.79379	-6.18308	-16.33218
1101.56250	-15.96749	-12.76666	-8.19747	-20.34103
1105.46875	-12.84184	-7.53081	-6.58546	-17.02558
1109.37500	-13.21767	-9.14480	-6.18237	-17.38859
1113.28125	-14.90371	-5.52070	-9.00270	-17.55260
1117.18750	-13.58558	-8.34342	-9.80837	-15.38421
1121.09375	-16.29732	-14.38965	-12.22576	-18.61348
1125.00000	-15.19864	-10.76552	-10.61380	-17.99292
1128.90625	-13.77469	-7.14130	-4.97269	-17.17652
1132.81250	-15.46202	-11.97872	-5.37538	-16.54872
1136.71875	-13.51829	-11.98100	-6.98692	-12.07436
1140.62500	-8.81768	-8.35688	-1.74859	-12.40408
1144.53125	-9.31423	-8.76210	1.87800	-11.61844
1148.43750	-15.97498	-8.36140	-3.76287	-12.11859
1152.34375	-16.22459	-7.96065	-4.56854	-14.82014
1156.25000	-13.96056	-10.38049	-2.55371	-14.46984
1160.15625	-14.09957	-9.57693	-5.77697	-15.02030
1164.06250	-23.38101	-11.19089	-9.00018	-24.09037
1167.96875	-26.63726	-11.59614	-11.41757	-26.78063
1171.87500	-22.01812	-7.56912	-12.62612	-22.03091
1175.78125	-18.96664	-11.60069	-10.20837	-17.34231
1179.68750	-12.82785	-16.43809	-4.97007	-6.32946
1183.59375	-9.44245	-14.82871	-6.17865	-4.64003
1187.50000	-13.09416	-16.44266	-13.02826	-6.75484
1191.40625	-17.11609	-9.99806	-18.66919	-7.14746
1195.31250	-15.66478	-5.56821	-17.46026	-9.41654
1199.21875	-14.69960	-7.58516	-13.83370	-6.89371
1203.12500	-15.04022	-6.78164	-8.19249	-10.48511
1207.03125	-16.81751	-12.42516	-2.14829	-13.67754
1210.93750	-19.63417	-14.44231	-1.74511	-12.06446
1214.84375	-16.56464	-11.22125	-6.58005	-15.67938
1218.75000	-17.32594	-10.82074	-10.60920	-13.50284
1222.65625	-17.61017	-16.86711	-6.98281	-7.78287
1226.56250	-12.39317	-21.30177	-10.20613	-6.43855
1230.46875	-10.21057	-12.84262	-15.04112	-4.53599
1234.37500	-9.99516	-6.39805	-9.80285	-3.49663
1238.28125	-7.43964	-5.99747	-7.78804	-5.62054
1242.18750	-8.29310	-7.61163	-10.60835	-11.44743
1246.09375	-11.48022	-8.01694	-9.80237	-11.21921
1250.00000	-7.76105	-7.21356	-8.19048	-3.48835
1253.90625	-8.05678	-8.82778	-10.20499	-5.91074
1257.81250	-10.45699	-7.62143	-11.41367	-8.64522
1261.71875	-6.03692	-5.60927	-8.59297	-8.18979
1265.62500	-11.23441	-4.40296	-9.39868	-11.49121
1269.53125	-14.27491	-0.77899	-7.78670	-12.93798
1273.43750	-11.15936	-1.18439	-2.95135	-10.02701
1277.34375	-14.32062	-5.61910	-6.98045	-6.87460
1281.25000	-19.31695	-7.63621	-7.78613	-10.91238
1285.15625	-17.27548	-8.44441	-7.38309	-15.30665
1289.06250	-19.24767	-7.64087	-8.99475	-17.56019
1292.96875	-28.16943	-6.83731	-2.95082	-21.48425
1296.87500	-25.50651	-4.82500	-2.95077	-22.48181
1300.78125	-24.37755	0.41076	-10.20340	-26.47571
1304.68750	-36.03266	2.82595	-10.60616	-40.38993
1308.59375	-54.07837	0.40605	-6.17391	-52.79958
1312.50000	-72.38135	-0.80515	-0.12983	-67.27438
1316.40625	-83.12682	-2.01636	0.67610	-83.68221
1320.31250	-90.54363	-7.25688	-3.35309	-92.36321
1324.21875	-97.30870	-8.87102	-0.93545	-97.61733
1328.12500	-100.60468	-7.66450	-2.54711	-100.10783
1332.03125	-105.10677	-1.21988	-9.39692	-103.06857
1335.93750	-107.42683	5.62758	-10.60555	-111.91299
1339.84375	-112.27146	9.25161	-6.57616	-115.10702
1343.75000	-112.85238	2.80231	-5.77019	-117.28061
1347.65625	-108.02712	1.59117	-10.20226	-117.56717
1351.56250	-105.78615	6.82691	-13.82842	-109.51827
1355.46875	-97.22147	6.42154	-13.82832	-98.72043
1359.37500	-89.99055	4.80739	-10.60480	-90.69111
1363.28125	-87.89629	-3.65651	-10.60475	-90.51646
1367.18750	-79.53882	-9.29988	-14.23108	-87.83899
1371.09375	-71.18057	1.17390	-8.99288	-82.18159
1375.00000	-62.60366	4.39491	-1.74003	-73.12120
1378.90625	-55.96367	-0.84565	-6.57509	-60.63022
1382.81250	-53.86806	2.77823	-10.20144	-49.56246
1386.71875	-42.50976	1.96996	-4.96323	-48.78804
1390.62500	-36.72893	-2.86766	-1.73963	-39.18018
1394.53125	-30.58604	-8.51120	-5.36580	-29.47878
1398.43750	-15.86144	-12.54296	-4.55986	-21.31220
1402.34375	-7.14492	-8.91905	-2.94808	-6.10917
1406.25000	-0.53900	-7.30977	-2.94795	1.20703
1410.15625	8.87276	-1.26838	-5.76828	9.82685
1414.06250	14.13008	-4.49436	-11.00623	14.87832
1417.96875	15.37683	-10.94381	-8.18557	19.59391
1421.87500	16.40393	-10.14039	-6.57362	23.71923
1425.78125	20.20751	-18.20157	-7.78227	28.71155
1429.68750	24.95293	-19.41276	-6.97631	33.02070
1433.59375	28.01970	-8.13324	-10.19962	34.56530
1437.50000	29.25908	-4.10637	-14.63176	32.25859
1441.40625	31.67451	-8.13807	-13.01990	32.66182
1445.31250	34.25764	-10.96102	-12.61689	34.94152
1449.21875	37.32687	-11.76931	-10.19924	32.83226
1453.12500	35.65806	-12.98059	-8.58739	36.03138
1457.03125	28.57610	-14.99775	-10.60187	36.81701
1460.93750	32.20380	-15.00027	-12.21351	35.21468
1464.84375	32.76600	-12.58516	-13.82504	32.79655
1468.75000	25.07112	-10.57310	-11.00444	30.63082
1472.65625	29.38997	-12.18747	-10.19853	34.99485
1476.56250	35.86340	-9.36961	-13.01891	35.67608
1480.46875	30.46268	-2.52245	-13.01880	30.56085
1484.37500	25.41756	-3.73393	-13.42168	25.10008
1488.28125	20.44971	-7.36296	-11.40690	27.23476
1492.18750	16.07036	-6.15688	-9.39213	29.04314
1496.09375	18.05415	-10.59190	-8.58609	26.81113
1500.00000	22.80194	-9.78879	-11.40648	26.34406
1503.90625	22.29707	-6.97103	-12.21220	23.94218
1507.81250	21.88195	-10.19722	-5.36222	26.68764
1511.71875	23.10806	-8.99129	-6.16797	27.04901
1515.62500	17.83455	-6.57647	-10.19711	24.31727
1519.53125	16.85105	-10.60862	-7.77937	22.55150
1523.43750	17.77021	-12.22313	-3.74995	20.86020
1527.34375	17.31031	-3.36142	-4.55569	23.76264
1531.25000	21.90897	-6.18466	-8.98786	27.00526
1535.15625	13.42604	-15.05186	-3.74971	22.14285
1539.06250	8.15073	-8.20469	-1.73501	21.18369
1542.96875	13.85442	-1.76050	-6.97302	25.92428
1546.87500	16.03193	-6.19540	-6.16708	27.33561
1550.78125	17.32587	-16.67426	-7.77869	24.89335
1554.68750	14.48091	-15.46810	-13.41968	19.07491
1558.59375	17.22058	-6.20340	-11.80784	19.40742
1562.50000	24.64968	-5.40027	-4.15214	24.22262
1566.40625	24.92426	-6.20883	-2.54025	25.73276
1570.31250	25.09359	-4.19690	-2.94314	22.73953
1574.21875	18.56717	-10.24342	-4.95779	13.49900
1578.12500	14.21275	-9.03738	-7.77822	10.76229
1582.03125	19.52626	-7.42827	-6.97225	14.53982
1585.93750	21.04567	-8.23674	-8.58389	12.91895
1589.84375	13.80773	-5.41881	-11.00149	7.25939
1593.75000	15.19985	-12.67416	-9.79266	8.23500
1597.65625	17.63263	-17.51196	-7.37500	11.35293
1601.56250	12.57655	-17.91747	-9.79253	10.97073
1605.46875	7.64354	-23.56114	-11.40419	6.22793
1609.37500	12.50590	-19.53435	-8.58358	4.25353
1613.28125	9.61105	-9.86665	-8.18065	5.70159
1617.18750	0.05028	-8.66041	-5.76306	5.04992
1621.09375	5.79999	-9.46883	-6.56889	8.67090
1625.00000	8.91348	-4.23332	-4.95714	7.68022
1628.90625	7.11403	-4.63889	-5.35997	3.25883
1632.81250	3.00895	-12.70013	-12.61267	1.06656
1636.71875	2.13221	-14.71745	-13.01558	-0.09983
1640.62500	4.81831	-17.94353	-13.41861	-1.63800
1644.53125	3.91894	-21.57258	-15.43328	-2.86677
1648.43750	1.69061	-18.75465	-10.59796	-2.96373
1652.34375	-0.97642	-19.96607	-8.18038	-3.24731
1656.25000	5.71978	-15.53641	-6.97152	0.72955
1660.15625	2.76037	-8.68928	-3.74805	2.59685
1664.06250	-0.47677	-11.91537	-6.16566	-1.23475
1667.96875	3.52004	-13.12683	-10.19494	1.31351
1671.87500	3.70729	-11.51773	-11.80656	4.04892
1675.78125	4.34127	-11.11753	-11.40364	4.70856
1679.68750	6.45099	-10.31423	-10.19487	10.88652
1683.59375	5.80732	-6.69049	-11.40372	12.17329
1687.50000	1.75286	-5.48421	-10.59783	6.83522
1691.40625	4.17804	-7.50138	-8.58325	6.84586
1695.31250	8.04714	-10.72746	-9.79203	9.00928
1699.21875	1.75979	-13.95355	-10.59778	1.45916
1703.12500	0.61345	-11.53860	-10.19485	-3.74380
1707.03125	5.28323	-9.92957	-14.22406	-4.51852
1710.93750	10.12253	-13.96161	-13.01517	-7.74034
1714.84375	17.22156	-8.32330	-11.00046	-7.72869
1718.75000	18.07210	-10.34060	-13.41801	-11.19291
1722.65625	17.78788	-13.16395	-11.80622	-12.72552
1726.56250	11.31979	-5.91395	-7.77688	-7.35192
1730.46875	0.20568	-4.30488	-4.95632	-5.85215
1734.37500	0.42107	-5.91926	-4.95629	-3.60387
1738.28125	-1.45566	-4.71311	-4.15047	1.12205
1742.18750	-9.15877	-3.50699	-5.35920	2.14527
1746.09375	-8.31653	-3.10679	-5.35915	1.16494
1750.00000	-7.41787	-7.94475	-4.15039	0.43446
1753.90625	-12.95154	-12.37971	-6.97085	-3.19642
1757.81250	-14.54565	-8.75609	-8.98547	-3.91610
1761.71875	-6.09602	-6.34122	-11.40307	0.56886
1765.62500	-1.21996	-9.16456	-12.20891	-3.13518
1769.53125	-2.24548	-11.98779	-9.38836	-7.80525
1773.43750	-3.96488	-3.93197	-7.77651	-2.07358
1777.34375	-5.11121	0.49753	-8.98528	1.48182
1781.25000	-2.85460	-2.72862	-8.17941	0.26483
1785.15625	6.43962	-3.13422	-6.16471	3.52652
1789.06250	3.25884	-2.73404	-4.55292	-3.15904
1792.96875	-0.42463	-7.16902	-6.16463	-9.90329
1796.87500	3.85013	-4.75427	-10.99984	-5.25963
1800.78125	2.96445	4.10744	-12.20868	-0.38870
1804.68750	4.20316	8.13393	-9.38815	1.41151
1808.59375	7.91574	6.11639	-10.59681	-3.34218
1812.50000	10.56525	2.89009	-13.41740	-6.13181
1816.40625	6.66967	0.87266	-12.61147	-5.61624
1820.31250	4.49098	-0.74185	-11.80552	-5.83546
1824.21875	4.57581	0.06124	-9.79078	-1.01608
1828.12500	6.51804	0.05841	-7.37305	4.95525
1832.03125	8.46279	-0.34745	-8.17888	9.65050
1835.93750	8.96350	0.45553	-8.17890	11.68552
1839.84375	6.93962	-4.78542	-7.37303	9.70045
1843.75000	0.71786	-5.99706	-7.37303	4.30376
1847.65625	5.14023	-3.58232	-7.77595	6.83799
1851.56250	13.02226	-1.57057	-8.17894	10.45476
1855.46875	8.69342	9.30563	-11.40238	5.13545
1859.37500	1.82195	12.92902	-13.01403	4.70351
1863.28125	-1.32182	0.03242	-9.79059	3.66949
1867.18750	-0.61993	-6.01450	-9.79058	-1.30869
1871.09375	2.09745	-10.44955	-12.61108	-2.90408
1875.00000	4.22756	-6.82610	-6.97012	-0.69358
1878.90625	4.82373	3.24430	-2.13498	-1.09644
1882.81250	2.08428	-2.80253	-8.98478	-3.72824
1886.71875	1.75759	-4.41713	-9.38774	-0.53625
1890.62500	-0.92310	0.41508	-9.79065	-3.41932
1894.53125	-2.83882	1.62105	-12.61121	-5.40289
1898.43750	-1.41085	2.42410	-7.77614	0.74905
1902.34375	4.08228	5.24165	-7.37330	-2.17968
1906.25000	6.65881	7.65629	-11.40270	-0.90727
1910.15625	1.56513	-2.01695	-11.40274	7.71272
1914.06250	4.40485	-3.63156	-9.38813	5.51162
1917.96875	9.27803	-0.00806	-5.76175	6.60108
1921.87500	6.27572	-6.05499	-6.16470	5.48856
1925.78125	3.22955	-7.26672	-7.77643	4.03426
1929.68750	1.93118	-2.03167	-6.56766	1.09097
1933.59375	-0.64323	1.59168	-7.77646	-5.01987
1937.50000	0.99902	-5.66416	-13.01455	-8.53514
1941.40625	7.04077	-7.27886	-14.22342	-5.31114
1945.31250	5.19169	0.77677	-11.00007	-1.41944
1949.21875	0.20219	7.62355	-4.55321	-1.11083
1953.12500	4.57722	5.20296	0.28193	-1.13510
1957.03125	1.52452	2.37953	-3.34446	-5.58742
1960.93750	-0.08601	2.77948	-6.56791	-4.36917
1964.84375	4.10236	-2.46167	-6.97090	-4.77268
1968.75000	0.03381	-7.70279	-6.97097	-7.74423
1972.65625	-3.30296	-2.87074	-4.15058	-6.20049
1976.56250	-3.67923	-5.69434	-3.74774	-3.50448
1980.46875	-7.06514	-12.54721	-6.56832	-0.15797
1984.37500	-7.67805	-15.77364	-7.77718	0.02252
1988.28125	-4.58720	-8.52393	-5.35965	0.54585
1992.18750	-0.10194	-2.08012	-7.37442	-0.86907
1996.09375	-2.14738	-9.33602	-9.79214	-5.11558
2000.00000	-7.06994	-5.30974	-11.40402	-4.77687
2003.90625	-6.76870	-9.34215	-15.43342	-2.74645
2007.81250	-1.54262	-10.95690	-11.40423	-2.01552
2011.71875	-1.92821	2.33675	-9.38975	-0.04242
2015.62500	-8.41044	5.15423	-14.22508	-3.57978
2019.53125	-4.15593	-2.50439	-17.04571	-7.36017
2023.43750	6.43359	-7.74547	-16.23998	-2.60447
2027.34375	8.79436	-4.52505	-16.64297	-2.52231
2031.25000	4.93164	-0.49879	-15.03131	-7.74091
2035.15625	3.29849	-0.90483	-14.62851	-11.79720
2039.06250	0.44070	-0.10208	-18.65798	-15.97950
2042.96875	4.12967	-1.71698	-15.43471	-15.67086
2046.87500	-0.13953	0.29471	-7.77915	-14.66218
2050.78125	-4.08350	-0.91706	-8.98813	-11.06013
2054.68750	6.36826	-4.14357	-11.80882	-4.79041
2058.59375	9.10798	-1.72901	-7.77965	-0.02525
2062.50000	2.03173	-5.35836	-6.97398	-2.46253
2066.40625	1.09751	0.27959	-13.82398	-11.42835
2070.31250	3.68463	7.12636	-15.43589	-8.78030
2074.21875	0.78488	3.09388	-11.40675	-3.11203
2078.12500	-2.36057	-2.14733	-12.61569	-3.83385
2082.03125	-3.89701	-4.56795	-13.82466	-1.26482
2085.93750	-1.97462	-7.79440	-8.58671	2.35269
2089.84375	5.29292	-12.63258	-8.58690	10.79601
2093.75000	9.10269	-9.81514	-11.00476	12.17486
2097.65625	11.13260	-0.14788	-9.79626	12.06961
2101.56250	8.49409	7.90759	-11.81115	13.29936
2105.46875	9.60493	11.93380	-11.81140	14.19791
2109.37500	14.87007	8.70721	-8.58819	17.46187
2113.28125	17.61629	1.04838	-8.99130	16.08980
2117.18750	17.32280	1.04532	-11.81194	7.78282
2121.09375	17.02861	4.26572	-13.82673	5.76324
2125.00000	16.51574	3.85970	-11.40935	7.99643
2128.90625	19.55138	2.64773	-8.99198	5.59027
2132.81250	19.07286	3.85338	-9.79806	7.83060
2136.71875	13.76401	2.23851	-8.99241	10.69398
2140.62500	15.64422	0.62369	-8.58972	9.55919
2144.53125	14.74497	-7.43804	-7.78413	9.94248
2148.43750	8.89034	-15.49984	-4.96389	7.02538
2152.34375	4.61153	-6.23571	-5.77002	1.90689
2156.25000	6.47257	-5.43305	-5.77033	1.85476
2160.15625	5.93072	-17.52419	-7.78529	-0.30689
2164.06250	4.70815	-11.88628	-8.99442	-6.15284
2167.96875	4.27269	6.64543	-7.38299	-4.41023
2171.87500	2.44532	5.83645	-6.57740	-1.27147
2175.78125	-3.36737	-1.82245	-8.99526	-3.43191
2179.68750	-8.51042	1.39778	-14.63663	-4.50637
2183.59375	-4.72187	-2.63478	-14.63694	-2.01040
2187.50000	0.49103	-6.66729	-8.99617	1.91930
2191.40625	-0.71017	-3.85004	-10.60812	-0.89022
2195.31250	-0.46754	0.17600	-16.65246	-7.59080
2199.21875	1.30370	0.97859	-13.83226	-11.51411
2203.12500	2.97787	-11.91837	-8.99745	-12.68721
2207.03125	6.03590	-13.93629	-10.20657	-11.04380
2210.93750	-0.40691	-2.25455	-11.01271	-18.69746
2214.84375	-3.38096	-1.85481	-8.59539	-27.14692
2218.75000	2.70771	-0.24628	-8.59569	-25.77554
2222.65625	10.48204	3.37681	-6.98432	-20.45793
2226.56250	17.71360	-2.26741	-4.97001	-20.72484
2230.46875	12.24058	-17.98489	-9.40267	-24.86571
2234.37500	9.23260	-21.61455	-10.61178	-25.03455
2238.28125	8.56480	-7.11235	-10.20932	-25.94915
2242.18750	0.86157	-1.47457	-11.82140	-30.16363
2246.09375	2.10668	-1.07494	-8.59836	-23.48793
2250.00000	2.60244	0.53356	-9.80751	-21.80046
2253.90625	-0.91659	-7.52825	-11.41960	-29.86319
2257.81250	-6.13714	-9.94909	-6.98778	-32.59715
2261.71875	-6.14914	-6.72890	-4.16774	-24.48546
2265.62500	-0.87032	-13.98493	-4.97401	-19.32482
2269.53125	-3.50779	-12.37648	-6.98909	-23.99463
2273.43750	-4.01861	-11.57392	-6.98948	-24.70953
2277.34375	-3.95640	-13.18890	-8.19865	-25.18310
2281.25000	-6.13202	-10.37163	-10.61657	-31.23500
2285.15625	-4.89635	-10.37485	-8.19950	-32.00220
2289.06250	-3.24193	-8.36346	-6.58818	-25.79364
2292.96875	1.93910	-6.35206	-7.79740	-23.67315
2296.87500	6.21395	-4.74366	-7.79780	-22.25256
2300.78125	1.70206	-2.32943	-5.78353	-20.60471
2304.68750	5.76138	-1.92976	-5.38092	-23.63929
2308.59375	7.45952	-9.18574	-8.60480	-25.97498
2312.50000	4.06521	-14.42713	-9.81404	-22.31721
2316.40625	5.00488	-9.99825	-11.82908	-21.39830
2320.31250	1.61744	-0.73422	-13.03826	-25.24348
2324.21875	2.10534	4.50051	-10.62099	-20.42373
2328.12500	0.01833	-2.35268	-9.81561	-24.12250
2332.03125	1.56019	-2.75896	-9.41316	-28.29148
2335.93750	8.91080	3.68459	-9.81647	-31.49427
2339.84375	1.64886	6.50179	-9.81683	-41.53755
2343.75000	-1.34932	2.06618	-11.02599	-45.72510
2347.65625	7.10245	-1.96652	-11.42940	-45.60812
2351.56250	10.14923	-0.35808	-6.99769	-38.76767
2355.46875	4.20860	-3.18195	-6.19232	-41.26621
2359.37500	-2.66289	-7.21460	-10.22209	-45.72725
2363.28125	-4.19479	-6.81502	-9.81958	-37.89651
2367.18750	0.53652	-6.01257	-11.43174	-30.38356
2371.09375	4.05987	-5.21006	-11.02927	-25.53163
2375.00000	6.99594	-7.22803	-8.20927	-20.09734
2378.90625	8.39807	-8.84306	-9.01570	-26.54369
2382.81250	11.29975	-4.81708	-9.01648	-32.39849
2386.71875	14.59956	-0.38812	-9.42041	-30.41487
2390.62500	13.12777	-2.40618	-8.61568	-29.67111
2394.53125	10.80929	-6.03594	-6.19946	-37.29525
2398.43750	14.65493	-10.47164	-5.79804	-38.79851
2402.34375	17.32771	-11.68392	-7.00853	-42.53267
2406.25000	22.32207	-6.04634	-9.83087	-52.13897
2410.15625	28.91362	-3.22928	-14.26512	-44.32449
2414.06250	24.09789	-1.62091	-17.49077	-37.25792
2417.96875	8.82471	-2.83306	-17.09004	-41.00337
2421.87500	-1.02713	-4.85113	-8.63093	-40.50386
2425.78125	-1.65548	-3.64571	-2.99243	-41.95795
2429.68750	1.07571	-2.84324	-2.18899	-43.28937
2433.59375	0.11338	0.37677	-2.19128	-43.35587
2437.50000	-2.27359	1.58215	-4.61099	-50.90014
2441.40625	-1.87269	-4.06227	-7.03056	-58.55494
2445.31250	2.32237	-7.28913	-7.83816	-60.30398
2449.21875	0.55648	-6.88962	-7.43684	-55.96590
2453.12500	4.93167	-10.92233	-5.02076	-50.34867
2457.03125	10.74362	-11.32874	-2.20163	-48.75672
2460.93750	10.74503	-10.12340	-4.21754	-47.13523
2464.84375	16.14249	-9.32098	-7.44212	-43.10617
2468.75000	14.49185	-6.50397	-8.65200	-40.83928
2472.65625	9.14079	-4.89583	-8.65294	-37.68356
2476.56250	7.55577	-3.28775	-7.44500	-30.55501
2480.46875	7.79636	-4.09717	-6.23705	-26.40241
2484.37500	5.97482	-8.53296	-5.83490	-19.37190
2488.28125	5.03647	-11.35703	-5.02976	-10.38685
2492.18750	6.29835	-2.89909	-5.83634	-8.57813
2496.09375	1.43250	1.12661	-6.23993	-8.39216
2500.00000	1.34536	-4.51804	-3.82289	-3.62083
2503.90625	5.67597	-8.14803	-7.44979	-0.78442
2507.81250	7.27586	-1.70485	-11.88254	-2.06783
2511.71875	8.50215	-1.30559	-10.67420	-0.49736
2515.62500	6.45240	-4.53272	-9.46595	-0.81106
2519.53125	-1.38071	3.52221	-5.03411	-1.77049
2523.43750	0.34449	0.69795	-5.43739	-1.44670
2527.34375	6.33175	-3.33503	-7.45242	1.45636
2531.25000	8.11004	-3.33872	-5.84111	-0.13550
2535.15625	6.07412	-0.92475	-4.63273	-3.38569
2539.06250	3.61940	-2.13717	-3.02147	-1.12076
2542.96875	3.27911	-9.79642	-4.23068	-2.42361
2546.87500	7.87432	-3.75586	-5.03687	-1.01185
2550.78125	8.76538	-2.14761	-6.24598	0.97860
2554.68750	10.35268	-7.79207	-5.44038	5.23387
2558.59375	15.10706	-2.15454	-8.66417	6.37274
2562.50000	8.83648	-0.94920	-11.08213	0.71207
2566.40625	11.93150	-1.75853	-9.06787	2.62542
2570.31250	18.54778	-3.37382	-7.45652	10.10867
2574.21875	11.21556	-3.37734	-6.24811	12.55345
2578.12500	7.66692	-2.57497	-6.24850	15.45807
2582.03125	7.33906	-9.02536	-5.44302	14.40053
2585.93750	8.05235	-2.98498	-4.23472	11.97398
2589.84375	4.84349	3.86129	-7.45849	11.55276
2593.75000	3.81784	-2.18613	-10.27939	8.09648
2597.65625	3.02714	-10.65114	-13.10028	6.78237
2601.56250	4.82066	-12.66929	-11.48900	14.86190
2605.46875	9.55774	-9.85227	-9.47480	20.19257
2609.37500	7.97300	-9.85581	-13.50458	19.83007
2613.28125	10.31613	-8.65057	-11.49037	22.08423
2617.18750	16.46948	-8.25110	-7.86440	25.86504
2621.09375	10.13131	-5.83693	-11.08833	27.06888
2625.00000	5.99211	-2.61698	-12.70049	22.85521
2628.90625	13.05724	-1.41166	-7.46287	23.26950
2632.81250	7.34078	-0.20636	-7.86628	22.68933
2636.71875	4.44963	-1.01577	-11.09019	21.92649
2640.62500	2.70384	-9.88383	-7.06132	28.44757
2644.53125	5.02827	-23.58697	-6.65878	32.86052
2648.43750	4.41207	-26.41106	-13.10615	31.15254
2652.34375	2.55126	-15.13261	-12.70371	27.64622
2656.25000	11.26254	-6.67463	-6.66028	30.41508
2660.15625	9.51219	-3.85771	-9.07846	27.44806
2664.06250	2.24602	-3.86130	-11.09362	20.39381
2667.96875	-1.00965	-9.50590	-8.27357	19.71944
2671.87500	-0.41919	-5.88302	-9.07989	20.84401
2675.78125	0.21524	0.15739	-4.24535	23.51926
2679.68750	-2.50965	-5.08427	-4.64893	22.44530
2683.59375	-1.94416	-11.13170	-7.47007	19.70382
2687.50000	0.85169	-12.74698	-5.45603	23.23117
2691.40625	-1.15491	-11.94457	-7.87428	27.67486
2695.31250	0.29710	-11.94807	-10.69537	26.61578
2699.21875	8.91867	-9.93703	-11.09894	24.30458
2703.12500	10.59347	-10.74648	-9.48781	26.75828
2707.03125	6.80225	-12.76474	-3.84735	27.99907
2710.93750	13.65655	-13.97722	-3.04219	33.23959
2714.84375	16.72664	-13.98096	-7.07221	31.64019
2718.75000	7.50423	-5.12014	-15.13156	18.50628
2722.65625	4.39971	-3.51221	-19.16164	7.70689
2726.56250	1.55824	-8.75412	-17.95365	2.60500
2730.46875	0.51786	-9.56373	-17.95449	0.07614
2734.37500	3.95702	-13.19386	-17.14946	3.93684
2738.28125	5.70699	-22.46505	-11.10637	6.64895
2742.18750	4.04801	-20.45403	-9.89837	6.06120
2746.09375	0.45826	-9.57865	-13.52558	4.67854
2750.00000	-2.67204	-1.52377	-13.12341	1.53118
2753.90625	3.07664	-3.13917	-8.28911	-0.89011
2757.81250	9.54126	-3.94876	-5.06647	-3.62382
2761.71875	9.52962	-5.16139	-8.69367	-1.95864
2765.62500	10.37656	-12.41795	-9.90337	8.03757
2769.53125	10.96286	-9.19839	-10.71012	10.21801
2773.43750	9.24347	-7.59065	-16.75513	5.07123
2777.34375	10.51477	-17.26495	-17.96486	9.43314
2781.25000	12.77157	-14.04539	-13.13063	15.06648
2785.15625	11.99288	-5.18471	-9.90811	17.52296
2789.06250	10.42419	-1.15934	-11.11780	18.49374
2792.96875	12.78491	-1.16323	-10.71572	14.16766
2796.87500	15.44819	-4.79350	-10.71672	18.40902
2800.78125	14.15980	-6.81214	-11.92661	26.10092
2804.68750	11.36928	-3.99564	-11.92772	21.05169
2808.59375	10.24690	-5.20862	-10.31723	21.13358
2812.50000	10.07590	-11.25682	-12.33316	23.17951
2816.40625	14.64171	-8.03776	-10.31983	24.09824
2820.31250	15.28324	-7.23630	-7.09781	23.87912
2824.21875	10.93541	-7.64367	-9.51692	27.89260
2828.12500	11.66833	-8.05102	-11.13024	22.98453
2832.03125	12.80677	-9.26435	-9.52017	16.80046
2835.93750	14.91877	-5.64256	-8.71587	18.43228
2839.84375	10.07392	-6.45292	-9.92623	16.04424
2843.75000	7.07528	-6.45731	-11.94228	13.87097
2847.65625	12.70618	-2.02940	-14.36120	16.40534
2851.56250	14.94702	-0.42190	-13.15363	18.81351
2855.46875	19.88546	-5.26109	-12.34893	18.73264
2859.37500	18.25211	-8.08554	-11.94701	16.28634
2863.28125	11.48216	-18.16279	-13.15683	14.04391
2867.18750	8.55785	-21.39010	-12.35199	11.88671
2871.09375	9.66366	-10.91764	-9.12945	9.48612
2875.00000	7.76477	-2.86278	-13.15963	4.04157
2878.90625	4.73484	-1.25478	-15.57816	-2.80742
2882.81250	6.83081	-2.87020	-11.95263	-9.06494
2886.71875	7.31037	-2.47093	-11.95346	-11.91614
2890.62500	10.27100	-4.48921	-11.55137	-11.97772
2894.53125	14.39951	-4.08995	-12.76089	-12.75174
2898.43750	6.56040	-5.30250	-14.77634	-12.23993
2902.34375	5.20392	-6.91800	-12.76241	-9.92963
2906.25000	13.01900	-9.33932	-12.76318	-7.04466
2910.15625	15.58142	-4.50794	-15.58445	-6.48246
2914.06250	15.19818	-2.89998	-15.98801	-10.29452
2917.96875	10.80452	-14.58864	-13.16825	-8.80138
2921.87500	-0.25574	-22.24808	-15.98945	-9.10705
2925.78125	-5.71887	-18.22253	-18.81076	-13.38108
2929.68750	-4.59917	-9.76464	-17.19966	-9.87674
2933.59375	-4.35234	-8.55950	-15.99157	-6.71921
2937.50000	-5.53000	-13.80134	-17.20114	-7.01023
2941.40625	0.91532	-8.97002	-18.41076	-3.78548
2945.31250	6.72258	-0.91525	-13.97927	5.74811
2949.21875	9.38946	1.09544	-11.56244	12.90723
2953.12500	14.97399	-4.54946	-13.57783	15.70443
2957.03125	16.75718	-11.80596	-12.77263	20.92334
2960.93750	13.53561	-12.61550	-10.35576	22.14264
2964.84375	7.65143	-11.81339	-10.35647	22.54607
2968.75000	4.79237	-10.60838	-9.55129	22.39607
2972.65625	4.27684	-10.61218	-9.95484	20.31429
2976.56250	2.28932	-10.21301	-11.97011	18.57899
2980.46875	10.58886	-8.20211	-9.15029	25.14979
2984.37500	18.43799	-13.04113	-7.13635	28.95746
2988.28125	15.08250	-21.90927	-8.74872	23.03465
2992.18750	17.55365	-15.86912	-10.76400	22.02349
2996.09375	18.32920	-10.23190	-12.37654	23.01583
