 	TP9	AF7	AF8	TP10	
-1000.00000	11.57728	0.40579	-3.52499	7.84110
-996.09375	16.42757	-0.40022	-2.71872	-3.69972
-992.18750	18.83631	-6.84729	-1.91243	-8.55956
-988.28125	12.51262	-12.48853	-0.70317	-13.69569
-984.37500	15.30635	-4.83302	2.52077	-14.11986
-980.46875	27.93162	4.03135	-0.70221	-14.35072
-976.56250	16.49108	-1.20687	-8.35747	-27.51927
-972.65625	4.56045	-4.02756	-8.75988	-37.30146
-968.75000	-4.16679	-5.23646	-7.95363	-44.76680
-964.84375	-10.79718	-0.40151	-6.74440	-44.50996
-960.93750	-5.67570	-1.20756	-5.13228	-40.20964
-957.03125	-3.96348	-5.63994	-0.69958	-38.00687
-953.12500	-8.48732	-8.46052	-1.90794	-38.58025
-949.21875	-14.82078	-10.47532	-2.31045	-41.98427
-945.31250	-12.75678	-6.04326	0.10765	-41.11293
-941.40625	-10.67817	-4.83463	-1.10068	-37.10505
-937.50000	-10.68885	-8.86408	1.31737	-37.99125
-933.59375	-2.57436	-8.46125	2.92949	-36.97289
-929.68750	1.10448	-7.25275	-0.29353	-37.57286
-925.78125	2.98000	-6.04416	-1.90479	-41.39626
-921.87500	4.05533	-0.80627	-1.09850	-41.70957
-917.96875	3.56582	2.01407	-3.51554	-41.58397
-914.06250	2.55918	0.40214	-7.54438	-40.53785
-910.15625	6.54387	0.80495	-4.32043	-39.98473
-906.25000	6.59594	0.80475	-1.90236	-38.90691
-902.34375	5.47955	-2.01604	-5.12534	-37.10532
-898.43750	1.72739	-1.21031	-1.49848	-32.27459
-894.53125	-5.57556	-8.06033	2.12832	-31.95076
-890.62500	-8.57143	-9.26935	0.51711	-31.48286
-886.71875	-15.20506	-3.22552	3.74107	-27.59378
-882.81250	-26.15328	-7.25506	4.95034	-27.32494
-878.90625	-22.65421	0.40044	1.32451	-25.78635
-875.00000	-20.52924	-2.42025	-1.49548	-23.70433
-871.09375	-29.73102	-9.67313	-1.09204	-20.11699
-867.18750	-40.26058	1.20583	1.32610	-13.49244
-863.28125	-42.89850	2.01159	2.53543	-5.11818
-859.37500	-38.15424	-2.82379	3.74473	6.47871
-855.46875	-33.83892	-0.40639	2.93933	15.62517
-851.56250	-33.96265	0.39926	2.13399	22.72698
-847.65625	-39.96047	-1.61555	0.92571	18.71675
-843.75000	-35.08920	-0.00404	-1.49136	6.94965
-839.84375	-23.82491	2.41339	-1.08796	0.84835
-835.93750	-28.17837	-0.81023	-0.28158	-11.87921
-832.03125	-28.51491	-8.46598	1.73362	-18.58561
-828.12500	-25.98725	-10.48081	6.16628	-18.39250
-824.21875	-24.48655	-0.40768	7.37556	-20.13202
-820.31250	-21.17226	0.39803	3.74969	-24.15202
-816.40625	-22.08200	-6.45186	6.16774	-28.86212
-812.50000	-20.23257	-4.03443	8.58581	-31.63374
-808.59375	-16.46955	-3.63164	5.76580	-32.94369
-804.68750	-17.13687	-1.61715	2.54285	-30.35480
-800.78125	-20.93380	3.21775	-0.68006	-33.07346
-796.87500	-20.38600	3.21753	-2.29125	-37.34586
-792.96875	-27.24347	2.81448	0.12690	-34.54580
-789.06250	-32.35614	-0.81203	4.15668	-30.56766
-785.15625	-26.33871	-4.03561	2.94837	-30.56500
-781.25000	-21.09984	-7.66213	1.74018	-31.56400
-777.34375	-19.46553	-3.63299	5.76999	-28.47377
-773.43750	-22.14471	-2.82731	6.97920	-27.72208
-769.53125	-32.14122	-5.64794	4.96505	-35.83300
-765.62500	-39.60235	3.61935	2.14510	-42.11245
-761.71875	-34.97163	3.61925	2.14566	-40.17881
-757.81250	-28.59016	-0.81314	0.93743	-36.10025
-753.90625	-23.87065	-0.41037	0.13217	-34.53196
-750.00000	-21.86435	4.02165	1.74452	-35.03102
-746.09375	-23.88794	3.61855	-0.26965	-36.78734
-742.18750	-21.85819	2.40964	-1.07499	-34.74863
-738.28125	-18.75168	-4.44029	0.13434	-32.83656
-734.37500	-15.09237	-9.67854	2.14955	-29.99545
-730.46875	-12.40018	-4.03774	3.35891	-26.13893
-726.56250	-15.45900	-0.81455	0.94189	-29.89422
-722.65625	-8.76041	2.40863	-1.47510	-28.97725
-718.75000	-2.04166	5.63187	0.54012	-21.51273
-714.84375	-4.26968	6.43755	0.94362	-15.72635
-710.93750	-8.98208	2.81103	0.54133	-3.50723
-707.03125	-10.28522	-2.02428	2.55657	12.42106
-703.12500	-4.94944	-1.62145	0.94542	23.06696
-699.21875	-1.83327	0.39302	-2.27748	30.09659
-695.31250	1.34693	-1.21887	-3.48567	38.49177
-691.40625	1.69194	-1.21909	1.35001	37.30360
-687.50000	0.90282	-2.83106	2.15642	27.71280
-683.59375	2.06193	-7.26352	1.75409	18.63503
-679.68750	3.62733	-4.84617	5.38098	13.59312
-675.78125	-2.27137	0.79457	6.59035	7.34249
-671.87500	-5.35520	-8.87605	5.38213	4.83455
-667.96875	4.40788	-12.90554	8.20318	6.31985
-664.06250	3.40615	-2.42951	5.38324	2.85539
-660.15625	2.65102	6.43481	-1.06306	-3.74239
-656.25000	1.39624	10.86693	0.54933	-8.44741
-652.34375	-4.33111	4.41989	3.77336	-13.07040
-648.43750	-0.16989	1.19624	5.78861	-14.27552
-644.53125	5.93035	4.82239	7.40089	-8.55613
-640.62500	4.09721	4.01632	4.17802	-11.44227
-636.71875	-2.15689	2.80735	-1.46238	-17.74941
-632.81250	-0.87280	2.00130	-1.46182	-17.61591
-628.90625	8.52788	-5.65462	0.55340	-12.70818
-625.00000	7.61778	-5.65481	-0.65482	-13.17903
-621.09375	11.99041	-0.81986	-1.86300	-17.16986
-617.18750	16.48213	-0.01417	-1.05653	-15.73627
-613.28125	3.41194	5.22375	-1.45880	-18.47009
-609.37500	-7.77300	-1.62617	0.95944	-22.81489
-605.46875	-0.39723	-4.04392	2.16895	-20.67986
-601.56250	3.76200	0.79112	-0.65090	-20.12643
-597.65625	2.91620	-0.41789	-1.45617	-23.77238
-593.75000	6.51263	-0.41818	-0.64975	-22.48181
-589.84375	7.34246	2.40204	-3.87267	-22.02201
-585.93750	5.65803	2.80475	-3.46914	-23.39753
-582.03125	1.97127	-1.62768	0.56073	-17.90043
-578.12500	2.27023	-5.25424	0.15837	-14.06486
-574.21875	3.59611	-10.08962	-1.04981	-9.90840
-570.31250	9.55538	-8.07516	0.96547	-1.05397
-566.40625	15.70919	0.38616	-0.64561	0.43199
-562.50000	13.46283	6.02702	-2.25676	-2.43806
-558.59375	10.91465	5.22089	2.57907	-3.14354
-554.68750	7.55869	-0.01746	3.78851	-4.12129
-550.78125	4.51193	-4.04696	4.59502	-3.01492
-546.87500	7.99941	-2.43546	8.22203	-1.96648
-542.96875	13.25130	5.21999	7.81980	-3.55827
-539.06250	13.13192	6.02572	3.38820	-0.28423
-535.15625	11.55288	0.78739	-0.23756	2.13008
-531.25000	5.91722	-3.64505	-0.23694	4.33737
-527.34375	2.27441	-2.83931	1.37541	14.14044
-523.43750	3.34796	-0.42184	1.77898	21.44690
-519.53125	4.88896	-3.24249	4.60009	28.34850
-515.62500	-2.55220	-4.45148	6.61536	36.23917
-511.71875	-9.59436	-7.27226	5.81017	40.34880
-507.81250	-1.86712	-7.67536	4.60200	35.86670
-503.90625	3.89562	-6.06387	6.21431	25.03039
-500.00000	3.91024	-4.85530	5.81204	12.63502
-496.09375	5.93988	1.18849	3.39507	-0.51768
-492.18750	5.52797	5.62057	-1.03655	-11.01842
-488.28125	4.03930	5.21747	-1.43880	-19.78092
-484.37500	6.02697	4.81440	0.97939	-21.01091
-480.46875	3.74365	6.82887	-0.22880	-18.82421
-476.56250	3.98787	6.42580	1.38358	-16.27838
-472.65625	2.93617	0.38175	0.17548	-18.40495
-468.75000	-7.40299	-4.05061	-1.83845	-23.45276
-464.84375	-9.19841	-7.27426	-0.62895	-20.37548
-460.93750	-6.49476	-1.23048	2.59519	-16.47823
-457.03125	-7.60324	-0.42482	4.61055	-19.51378
-453.12500	-11.72433	-5.26013	0.98483	-25.32553
-449.21875	-13.62575	-4.45439	0.17964	-28.32696
-445.31250	-13.97941	0.38064	0.58328	-27.85882
-441.40625	-13.10974	1.58930	-0.62480	-23.04552
-437.50000	-9.89710	-2.03732	0.98760	-19.90297
-433.59375	-11.45309	-1.63455	3.40591	-18.48222
-429.68750	-11.80384	-1.63472	4.21245	-13.03875
-425.78125	-9.92853	-4.85836	5.82492	-11.22169
-421.87500	-10.86794	-7.27617	4.61683	-9.92390
-417.96875	-1.28435	-1.23238	3.81164	-3.75495
-414.06250	-1.48526	2.39384	2.60352	-9.55915
-410.15625	-12.81197	3.60243	0.99248	-27.54139
-406.25000	-20.41555	6.82559	0.59029	-38.95484
-402.34375	-26.77020	3.60192	-1.42365	-44.00348
-398.43750	-24.47851	0.37828	0.59174	-39.57610
-394.53125	-20.49949	-2.44239	1.80127	-27.97068
-390.62500	-14.22819	-4.45721	0.19019	-13.80364
-386.71875	-6.75927	-4.45740	0.19091	-0.24488
-382.81250	-3.20222	-6.06942	-0.61421	12.91701
-378.90625	-10.98530	-7.27853	-0.21058	22.91651
-375.00000	-10.87510	-0.42892	0.19308	21.77451
-371.09375	-7.98903	8.03241	-0.20911	15.69112
-367.18750	-8.44550	7.62928	-1.01422	3.78023
-363.28125	-7.86014	4.00272	-2.22225	-6.78379
-359.37500	-6.33944	5.61420	-3.83315	-8.08109
-355.46875	-0.00954	5.21106	-0.20600	-9.00836
-351.56250	-1.34207	-0.83312	3.42118	-9.96566
-347.65625	-2.90761	-2.84803	5.03364	-13.17060
-343.75000	-2.06573	-8.89232	6.64613	-17.28266
-339.84375	-2.48653	-9.69846	1.00583	-19.35527
-335.93750	-4.01951	1.98635	-4.23152	-24.42779
-332.03125	-12.81762	8.43302	-9.06593	-31.94078
-328.12500	-11.90192	6.41820	-4.63294	-30.13672
-324.21875	-3.55152	0.37409	-1.40880	-25.83293
-320.31250	-6.68444	-0.02904	-4.22861	-30.25660
-316.40625	-7.59425	-0.02927	-3.01908	-33.35571
-312.50000	-4.13329	1.17935	-0.19783	-28.87529
-308.59375	-9.63790	-1.64133	-1.80878	-27.36535
-304.68750	-10.30542	-6.87969	-3.01682	-25.98589
-300.78125	-4.43225	-0.83601	2.22205	-12.18509
-296.87500	-5.49624	-4.46258	2.62575	-0.34095
-292.96875	-7.11576	-8.89506	-3.41743	8.09940
-289.06250	-2.96129	-4.06009	-5.83429	18.92665
-285.15625	-0.16759	-2.44855	-0.99843	32.62825
-281.25000	5.87689	2.38638	1.01697	42.50762
-277.34375	4.69039	6.41544	-4.22038	42.77658
-273.43750	0.80216	1.98302	-5.02548	36.67760
-269.53125	-3.55355	-0.83776	-4.62171	25.74540
-265.62500	-3.35919	2.78844	-1.39751	21.47976
-261.71875	0.06242	0.77357	1.42374	14.14537
-257.81250	0.80268	-8.09119	-3.00775	3.71774
-253.90625	0.68687	-12.92662	-7.84216	-3.17616
-250.00000	-0.53051	-6.88289	-9.85601	-8.51095
-246.09375	0.66927	-2.85381	-7.03474	-11.47664
-242.18750	2.29591	-0.03353	-5.01930	-13.06489
-238.28125	-1.85046	6.01024	-5.01846	-15.98849
-234.37500	-8.26453	2.38359	-5.82342	-18.38605
-230.46875	-1.14023	-3.66058	-1.79327	-14.93299
-226.56250	12.72394	-4.46662	1.43098	-10.63027
-222.65625	5.72285	-2.45225	-2.19462	-16.56374
-218.75000	-0.45222	-0.84080	-2.59671	-20.78473
-214.84375	4.97536	-2.85568	-2.99889	-18.22245
-210.93750	1.06862	-3.66180	-1.38639	-19.30057
-207.03125	0.57114	-2.45321	-0.98271	-21.10169
-203.12500	5.10089	-3.25926	-2.19074	-21.33540
-199.21875	3.78466	-3.25953	1.43640	-21.96172
-195.31250	0.11486	-6.48324	-0.57751	-19.20792
-191.40625	-1.15198	-8.90101	-3.80017	-11.53191
-187.50000	1.68511	-7.69234	-5.81398	-1.78231
-183.59375	4.45570	-5.67783	-6.21614	6.46561
-179.68750	3.60337	-1.24584	-0.97727	13.91436
-175.78125	3.34560	5.20074	1.44109	9.67804
-171.87500	9.93193	4.79758	-2.99035	-5.72393
-167.96875	12.84509	2.78269	-0.57188	-16.32678
-164.06250	11.03731	3.58834	4.66710	-21.00028
-160.15625	8.26729	-2.85881	0.63868	-23.56910
-156.25000	8.62398	-10.11186	-3.79270	-29.88618
-152.34375	6.11988	-9.70922	-4.59763	-32.09193
-148.43750	-1.80702	-3.26260	-3.79088	-30.07401
-144.53125	1.87549	5.19867	-3.38702	-34.02535
-140.62500	-2.77835	0.76624	-1.37153	-40.94124
-136.71875	-8.62963	-2.05457	1.44983	-38.38437
-132.81250	-0.89889	0.36281	-0.56395	-35.43086
-128.90625	-2.78040	-4.47246	-0.16018	-36.56763
-125.00000	-5.70533	-8.50186	4.67585	-36.23327
-121.09375	-2.94463	-6.89041	3.46785	-33.77781
-117.18750	-0.06483	-7.29362	-4.58991	-32.34490
-113.28125	1.37022	-10.11439	-4.99204	-29.43826
-109.37500	-1.35357	-5.68238	-0.15597	-29.35144
-105.46875	-2.03683	-5.68263	1.05373	-30.03751
-101.56250	-0.29548	-5.27997	1.05459	-22.63497
-97.65625	-6.37981	-1.25091	-0.15336	-20.23750
-93.75000	-12.85697	1.16643	0.65341	-18.54478
-89.84375	-18.47427	6.40429	-0.55448	-8.81824
-85.93750	-24.18819	5.59822	-1.76238	1.49060
-82.03125	-25.05453	0.35989	1.86491	13.83694
-78.12500	-29.18796	1.56851	3.47746	25.73061
-74.21875	-35.51799	-2.86391	1.86662	30.69218
-70.31250	-28.35011	-10.92273	5.09088	42.76946
-66.40625	-16.15238	-10.52007	7.50940	57.55133
-62.50000	-14.77246	-4.47639	6.30152	57.50098
-58.59375	-19.73829	7.20826	0.25848	44.30394
-54.68750	-19.46799	16.87840	1.87116	35.26670
-50.78125	-18.48558	10.02839	4.28959	30.32817
-46.87500	-24.26559	-0.04518	2.27582	17.67589
-42.96875	-25.05798	0.76043	0.26202	9.63605
-39.06250	-27.99817	-2.06041	3.08342	8.07388
-35.15625	-29.57744	-1.65773	3.48731	-2.40679
-31.25000	-24.73711	0.35661	1.47356	-9.46810
-27.34375	-25.55960	0.75926	0.26568	-11.75428
-23.43750	-30.93312	-4.07619	-3.35971	-15.32813
-19.53125	-27.37764	-8.91159	-0.94130	-14.06884
-15.62500	-22.32829	1.56437	0.26834	-13.83497
-11.71875	-24.93837	9.62275	0.26919	-16.17326
-7.81250	-32.52281	5.99615	0.67300	-14.20959
-3.90625	-33.20732	1.56363	-2.54962	-7.72100
0.00000	-32.38720	-1.25714	-1.74288	4.86411
3.90625	-39.62526	-7.30143	2.69024	21.52705
7.81250	-37.21697	-8.51042	6.31749	31.17139
11.71875	-29.03560	-6.09319	5.51256	24.01918
15.62500	-29.46567	-4.07877	2.69297	14.32594
19.53125	-31.34633	-0.04969	0.27628	9.25809
23.43750	-29.08766	0.75592	-0.93160	2.53465
27.34375	-34.57180	1.96438	1.88985	0.00347
31.25000	-32.82327	4.38161	5.51706	-1.82249
35.15625	-21.32226	2.76961	5.51795	-3.58188
39.06250	-23.05113	0.35166	3.90714	-8.14763
42.96875	-28.99496	-2.87203	4.31093	-14.40781
46.87500	-29.89279	-0.45462	4.31181	-16.59422
50.78125	-33.40609	0.35101	5.52148	-22.01421
54.68750	-36.58054	-4.08149	2.29892	-25.57634
58.59375	-37.32277	-2.46997	-2.53534	-23.18156
62.50000	-37.33374	0.35029	-2.13155	-23.26320
66.40625	-38.08421	2.76761	-0.92186	-31.51359
70.31250	-39.64388	0.34970	0.69078	-32.92063
74.21875	-37.76883	3.97578	2.70633	-27.47794
78.12500	-34.67920	6.79600	-0.91915	-32.62756
82.03125	-37.18364	1.96062	-2.12703	-28.47391
85.93750	-43.42878	-2.47184	1.50032	-15.34108
89.84375	-35.81804	-8.91894	3.11293	2.13380
93.75000	-28.11066	-4.48692	3.91966	20.93938
97.65625	-29.22752	1.95976	4.72637	33.21606
101.56250	-27.74186	-0.05515	5.53310	43.68673
105.46875	-29.40410	1.95923	3.11637	47.23277
109.37500	-32.40041	5.98818	-0.50913	50.11708
113.28125	-34.19917	3.57030	3.92396	57.22818
117.18750	-31.85104	-0.45923	9.96881	51.04885
121.09375	-29.15807	-1.26531	8.35797	33.64852
125.00000	-34.28608	-4.08614	5.13548	20.41788
128.90625	-26.96797	-4.08645	4.73354	9.90148
132.81250	-23.79836	-2.07204	6.34615	-1.20421
136.71875	-27.64548	1.55410	5.13822	-7.73959
140.62500	-31.76614	2.76269	-0.09905	-15.48450
144.53125	-37.12141	5.98596	-0.09827	-20.84473
148.43750	-33.61903	5.98578	-0.09745	-25.83200
152.34375	-30.34973	-0.46130	0.30633	-32.66389
156.25000	-28.29926	-5.29670	0.30721	-34.76189
160.15625	-29.92916	-10.93805	-1.70651	-37.23795
164.06250	-32.26826	-15.37068	1.11493	-39.49048
167.96875	-28.97878	-6.90943	7.15986	-37.33361
171.87500	-25.24266	-0.05988	5.95206	-37.14164
175.78125	-22.53352	2.76042	1.52066	-38.88226
179.68750	-22.44317	7.19240	0.71568	-37.26242
183.59375	-20.12978	7.59513	3.94001	-33.91496
187.50000	-19.08653	6.38608	3.94091	-27.82323
191.40625	-17.74144	1.95368	-2.90806	-19.46395
195.31250	-10.75347	1.14753	-4.11600	-6.80286
199.21875	-4.88059	1.14730	3.13762	7.80332
203.12500	-5.94482	-1.27053	8.37662	12.39423
207.03125	-5.54999	2.75846	7.16871	17.61085
210.93750	-7.84256	5.17571	4.34912	24.40843
214.84375	-9.48110	-2.48021	3.54421	26.82757
218.75000	-3.03384	-0.06291	3.94809	31.46849
222.65625	3.03228	4.77195	4.35190	34.55748
226.56250	2.77025	-0.06357	2.74109	27.65225
230.46875	-7.22660	-4.49600	1.13023	13.09329
234.37500	-12.27054	1.14474	1.13112	2.78322
238.28125	-15.29592	5.57670	-0.07676	-2.13416
242.18750	-18.98806	6.38228	-1.68750	-7.72706
246.09375	-19.10399	3.96446	-2.49239	-15.42738
250.00000	-16.69516	1.94956	3.14959	-18.74817
253.90625	-14.68970	0.33749	7.58280	-24.53493
257.81250	-9.43692	-2.88629	3.95739	-28.54130
261.71875	-9.95714	2.75436	4.36124	-24.61564
265.62500	-3.07466	7.99209	2.75046	-23.79011
269.53125	-0.78570	6.78297	-0.06914	-25.97838
273.43750	-3.84478	1.94759	-3.29160	-28.12296
277.34375	-0.77274	4.36486	-6.51411	-25.19221
281.25000	-0.09823	6.78214	-0.06626	-20.54914
285.15625	-1.92364	1.94667	6.78454	-17.18133
289.06250	-6.23353	-4.09767	5.97967	-9.39534
292.96875	-9.14875	-2.08335	5.17474	1.69681
296.87500	-3.81323	6.37786	3.96696	5.49195
300.78125	-9.15893	6.37751	-2.88192	1.64165
304.68750	-22.09617	-1.27843	-4.08973	-2.45483
308.59375	-20.54251	-2.89039	-1.26818	-4.04679
312.50000	-6.82637	3.55625	1.95631	-3.96808
316.40625	-5.66748	1.13836	5.18065	-6.19689
320.31250	-12.16091	-4.90589	3.56994	-8.41923
324.21875	-10.40423	-3.69736	3.97386	-10.23884
328.12500	-14.29435	1.13747	2.76604	-8.71878
332.03125	-19.43994	3.95770	0.34941	2.03278
335.93750	-15.60687	0.73402	-2.06724	13.87831
339.84375	-6.69215	0.33081	-0.05165	18.56112
343.75000	-4.32104	5.16569	2.36687	25.94259
347.65625	-4.81086	1.94202	1.15896	32.60019
351.56250	-7.50018	2.34456	-0.85481	35.42282
355.46875	-9.86204	6.37352	-2.86855	37.51424
359.37500	1.19806	7.17909	2.37047	39.86441
363.28125	7.43429	4.35834	3.58021	48.46387
367.18750	2.27081	-0.07417	-1.65695	53.83381
371.09375	-5.25215	-1.68619	-2.46187	40.20503
375.00000	-2.53655	2.34277	0.35957	24.42129
378.90625	5.46190	1.53656	3.58398	15.99666
382.81250	-1.73189	-0.47842	0.76444	0.90873
386.71875	-2.71477	5.56516	-2.45805	-7.46747
390.62500	0.60519	1.13257	-0.84538	-14.23122
394.53125	0.32468	1.53519	0.76738	-20.96212
398.43750	-5.99288	5.96719	-5.27558	-21.61901
402.34375	-6.43645	0.72883	-8.90100	-20.43126
406.25000	-0.02004	-0.07736	-6.07949	-23.97747
410.15625	1.61506	1.53411	-3.25791	-27.95133
414.06250	-2.08453	1.53382	-0.83937	-30.13403
417.96875	-8.59216	5.56278	0.37042	-30.68216
421.87500	-6.68182	4.35363	-0.43447	-27.25070
425.78125	1.09053	-1.28769	-2.04530	-19.87215
429.68750	3.82595	-4.51144	-2.04436	-4.97487
433.59375	-0.49685	0.32338	-2.04340	4.97124
437.50000	2.09162	7.57588	-4.45995	10.56141
441.40625	12.03393	-0.48299	-4.86194	25.97192
445.31250	19.15378	-7.73602	-6.06975	32.64853
449.21875	21.34480	-0.08064	-10.90386	16.83059
453.12500	11.53525	7.57476	-12.51459	0.55182
457.03125	-5.77739	10.79790	-8.48417	-5.87629
460.93750	3.37013	13.21518	-4.05102	-11.87064
464.84375	19.92246	5.96210	-3.24409	-13.48668
468.75000	11.86875	-6.12618	-1.63135	-17.32436
472.65625	4.59915	-17.40846	-4.04790	-26.05706
476.56250	4.46349	-18.21460	-6.46443	-26.81019
480.46875	7.61586	-5.72398	-6.46338	-25.14750
484.37500	7.02402	-1.69494	-6.05944	-26.52498
488.28125	10.45767	0.72240	-5.25252	-26.04251
492.18750	12.54337	2.33382	-4.84861	-27.30196
496.09375	6.21781	-5.32210	-5.65344	-24.84239
500.00000	5.02309	-10.15752	-6.05540	-18.30086
503.90625	11.08151	-5.72552	-4.44265	-13.72563
507.81250	20.74236	-4.92002	-4.44165	-2.46919
511.71875	20.86488	-3.71152	-1.21718	13.34612
515.62500	15.19644	1.52632	-0.00737	27.02347
519.53125	18.55368	-0.89151	-2.02102	34.44727
523.43750	19.60335	-6.53275	-0.40826	37.39501
527.34375	15.32781	-6.53300	1.20446	42.92315
531.25000	13.04687	-4.11570	2.01141	46.73889
535.15625	14.07155	-8.14529	1.60949	51.42696
539.06250	17.58077	-12.57789	-2.01584	58.54661
542.96875	19.29236	-10.96647	-1.61182	54.70445
546.87500	22.42366	-1.69945	-0.80494	43.65385
550.78125	20.52193	0.31485	-4.02733	27.35495
554.68750	16.13856	-2.50594	-6.84675	8.88463
558.59375	11.76975	-2.10337	-6.03982	-4.43454
562.50000	11.35559	-8.55051	0.00527	-8.94818
566.40625	21.08131	-10.96843	2.42401	-13.16871
570.31250	25.96854	-5.73061	1.61927	-21.82791
574.21875	14.54696	-1.70161	4.03798	-26.86064
578.12500	4.74286	0.31273	1.62150	-27.17458
582.03125	9.89418	1.92420	-3.21247	-27.85531
585.93750	9.69320	-2.10542	-4.42010	-31.64483
589.84375	9.64851	-10.56718	-3.61310	-31.89793
593.75000	4.05960	-6.94113	-2.00022	-29.20867
597.65625	-22.84435	-0.09163	-0.79025	-26.60157
601.56250	-38.28159	-1.30070	-1.99788	-29.02408
605.46875	-39.54058	-0.09233	-2.80257	-24.26866
609.37500	-41.32784	3.13073	0.82503	-10.10185
613.28125	-46.34969	-2.51061	4.04969	1.03907
617.18750	-42.79256	-3.31682	3.64797	6.14216
621.09375	-35.66724	-2.10848	3.64917	9.69452
625.00000	-31.52767	-1.30296	1.63571	21.44580
628.90625	-32.26812	-0.90039	0.42813	25.83796
632.81250	-31.11298	-6.94460	4.05572	16.74705
636.71875	-26.09552	-6.13901	6.87739	6.98828
640.62500	-26.99250	-3.31874	7.68443	2.46681
644.53125	-26.30369	-4.12501	5.67094	1.13592
648.43750	-19.57778	-6.94589	2.04579	0.17785
652.34375	-16.71124	-9.36386	2.04699	-2.22206
656.25000	-16.27241	-2.11148	3.25691	-3.91728
660.15625	-14.27573	4.33511	-0.77123	-9.61710
664.06250	-12.98831	1.51430	-3.59056	-17.91400
667.96875	-6.87822	-1.30649	0.03694	-15.35453
671.87500	-6.36555	-0.50092	3.26151	-11.93956
675.78125	-4.46226	1.11045	4.47146	-14.88937
679.68750	-3.96890	1.11012	2.05510	-15.28471
683.59375	-8.90817	1.10986	-1.16719	-16.37000
687.50000	-9.87961	1.91551	1.25151	-14.30813
691.40625	-7.32583	2.72099	4.47607	-10.38154
695.31250	-5.17306	1.10891	4.88016	-7.79424
699.21875	-8.56767	-2.11486	4.07543	-8.09695
703.12500	-3.58815	-8.15912	2.86774	-2.70069
707.03125	-0.77593	-9.36826	0.85423	0.09772
710.93750	-7.90380	-1.71289	2.06422	-3.98429
714.84375	-5.91630	-2.51904	2.87122	-2.37163
718.75000	-3.49858	-5.33979	5.69288	-4.17816
722.65625	-5.49130	1.91269	4.88820	-5.52184
726.56250	-7.76823	5.94166	0.05415	-6.38369
730.46875	-12.93019	3.52374	1.26409	-11.27299
734.37500	-12.73618	1.10580	3.27991	-16.74838
738.28125	-5.68856	3.92600	4.08699	-14.01061
742.18750	-6.56046	3.52269	3.28227	-10.73978
746.09375	-7.07962	1.10470	4.08930	-7.15863
750.00000	-7.49160	2.31314	3.68748	-4.83891
753.90625	-10.32163	3.52157	2.88277	-7.00006
757.81250	-7.08368	1.50655	1.27217	-6.57495
761.71875	-1.56015	-4.13479	1.67625	-6.67944
765.62500	-5.15405	-6.95558	1.27446	-6.25773
769.53125	-7.70041	-1.31483	2.08152	-2.00015
773.43750	-5.11858	-3.73270	2.48553	-5.75729
777.34375	-8.49353	-13.40333	-1.54269	-14.10970
781.25000	-3.79007	-7.35977	0.87601	-11.88510
785.15625	-0.37748	-1.31613	2.48884	-13.35341
789.06250	-0.25529	0.29524	0.07240	-16.04452
792.96875	1.26153	1.90662	-0.32929	-16.23527
796.87500	2.16457	5.12959	0.07484	-18.48496
800.78125	3.26546	4.72630	0.47899	-19.51570
804.68750	3.62460	-0.51224	2.09196	-11.52522
808.59375	3.16311	-2.93028	0.48139	-0.22432
812.50000	7.20861	-3.73652	0.48259	-0.14650
816.40625	11.99352	-2.12516	4.51307	-1.97322
820.31250	13.96132	-4.94603	4.11138	-2.18156
824.21875	10.07670	-6.96110	3.30669	-1.98710
828.12500	5.78348	-0.91760	5.32255	-0.87034
832.03125	6.27867	2.30547	6.93552	-2.61015
835.93750	10.11143	-0.51542	5.72792	-2.44992
839.84375	16.20551	-1.72461	2.90860	-3.40849
843.75000	14.54720	1.49848	2.10391	-2.87723
847.65625	17.28084	8.34798	3.31378	3.37713
851.56250	16.20342	11.97407	4.92673	3.78192
855.46875	8.60354	3.51217	4.92793	-5.00597
859.37500	-0.88588	-4.14396	-0.71193	-11.92320
863.28125	-4.32003	1.09370	-1.91960	-13.80005
867.18750	-4.64829	3.91387	2.11084	-14.47425
871.09375	-3.30673	-0.51875	5.33536	-16.82085
875.00000	-5.02335	-0.92215	6.54536	-19.30795
878.90625	-7.90410	2.30083	7.75533	-10.80971
882.81250	0.61633	-0.11723	10.97993	-5.75143
886.71875	4.87136	1.49406	2.92251	-12.11340
890.62500	0.93827	3.50824	-4.73203	-14.84815
894.53125	-1.76020	-0.11863	-2.31325	-17.55013
898.43750	3.60679	-4.14832	0.50839	-19.41616
902.34375	16.45952	1.08941	-0.29630	-19.03456
906.25000	18.44308	16.40043	-0.69808	-18.95465
910.15625	9.60135	19.62343	-1.50275	-15.27308
914.06250	6.30401	10.35560	-0.29277	-14.63557
917.96875	8.66012	2.29655	2.93181	-11.96077
921.87500	5.73448	-4.55368	1.32121	-10.14162
925.78125	2.22404	-2.94241	0.11361	-7.59883
929.68750	1.33244	3.90701	1.32361	-3.17850
933.59375	-2.58808	5.51829	2.93652	-4.11201
937.50000	-1.61206	6.72667	1.32596	-4.16349
941.40625	-0.53496	7.93505	2.13306	-4.06503
945.31250	-1.87733	7.93464	2.13425	-4.64181
949.21875	-2.91047	5.11373	-0.28221	-5.14914
953.12500	-1.43862	2.29288	3.74823	-3.29676
957.03125	-2.23174	-1.33394	3.34642	-5.69655
960.93750	-12.02246	-2.94619	1.33293	-6.85685
964.84375	-12.39367	2.29141	-0.68056	-3.63881
968.75000	-15.20970	5.11141	-5.91745	-3.85124
972.65625	-22.88259	3.09626	-5.91624	-9.36171
976.56250	-21.80968	3.90167	-2.69161	-9.71295
980.46875	-21.47795	1.08067	-3.09335	-6.43987
984.37500	-28.91974	-1.33732	-0.67466	-6.20698
988.28125	-33.14201	4.70618	0.53531	-6.53162
992.18750	-28.23601	7.52622	-3.08988	-6.98651
996.09375	-25.69732	6.31696	1.74641	-5.73705
1000.00000	-21.25108	1.07843	7.38856	-4.43483
1003.90625	-26.53433	-8.18939	7.38969	-6.37453
1007.81250	-30.14659	-3.75759	6.18207	-6.36666
1011.71875	-30.08427	-0.93756	2.55677	-7.39811
1015.62500	-32.19075	-3.75853	0.54318	-6.59789
1019.53125	-33.11743	-0.13262	-0.66458	-3.67282
1023.43750	-28.54869	5.10511	-1.06643	-0.38494
1027.34375	-28.34131	3.89602	-1.06534	-2.08659
1031.25000	-33.43283	1.07509	-3.48188	-8.26717
1035.15625	-32.85514	7.11857	-2.27199	-8.78950
1039.06250	-25.22511	6.31224	3.77310	-8.57904
1042.96875	-23.67931	2.28248	5.38587	-9.66977
1046.87500	-22.09174	2.28200	4.58112	-2.97962
1050.78125	-14.24309	1.87860	2.16469	4.16736
1054.68750	-13.40268	-1.34533	1.76283	2.25527
1058.59375	-14.10349	-3.76342	1.76391	-0.23611
1062.50000	-44.96673	-0.94344	0.95913	-5.62948
1066.40625	-90.36740	3.89126	4.18369	-8.64112
1070.31250	-121.19270	-0.54146	3.78184	-9.57206
1074.21875	-138.63365	-6.58588	-1.05226	-6.09615
1078.12500	-137.96233	-7.79509	-1.45409	-1.21444
1082.03125	-147.21060	-2.55740	-0.24415	-2.37575
1085.93750	-150.96631	5.90374	-2.66061	-7.38566
1089.84375	-144.75381	6.30622	-5.07703	-9.58565
1093.75000	-141.00417	2.67941	-5.88181	-10.87037
1097.65625	-133.69362	-0.54453	-5.47773	-11.51941
1101.56250	-128.14220	-3.36552	-2.65613	-8.38016
1105.46875	-121.28459	4.69258	-2.25209	-1.22982
1109.37500	-113.93370	11.13903	-1.84803	2.52287
1113.28125	-104.72760	3.88587	-4.66734	5.26501
1117.18750	-100.42298	-1.75562	-9.09848	9.13780
1121.09375	-98.16689	-0.14445	-5.47098	11.80527
1125.00000	-90.76924	-2.56256	2.99168	13.04712
1128.90625	-84.73441	-4.98068	2.18697	13.06204
1132.81250	-77.75228	-3.36945	-2.24419	8.47229
1136.71875	-66.76295	-0.54949	-3.04888	6.35930
1140.62500	-56.07862	2.27051	-0.22727	7.40197
1144.53125	-47.73244	5.09048	2.19141	8.04260
1148.43750	-41.83945	6.29877	1.78950	7.53420
1152.34375	-37.11028	1.86607	-2.23869	3.99894
1156.25000	-35.13534	-5.79012	-5.05806	4.72315
1160.15625	-38.14473	-3.37301	-3.04227	4.59120
1164.06250	-29.64425	2.26747	-1.83240	4.30105
1167.96875	-21.10397	-1.35939	-0.21953	10.12138
1171.87500	-17.45133	-2.97164	-1.02427	10.79240
1175.78125	-16.42276	3.47472	-0.62023	5.84152
1179.68750	-18.17864	5.48880	4.21611	6.18438
1183.59375	-13.53692	1.86195	0.99387	8.66582
1187.50000	-5.19812	-0.95913	-1.42253	7.12880
1191.40625	0.16283	-7.80945	-0.21258	9.11867
1195.31250	0.65191	-13.45098	-3.03193	11.73111
1199.21875	1.79947	-12.64565	0.19261	12.17336
1203.12500	3.41002	-3.37873	2.61137	11.86262
1207.03125	0.24188	1.85883	-3.02844	8.23099
1210.93750	0.02084	5.88753	2.61372	9.86748
1214.84375	3.99789	9.91622	5.83830	14.73962
1218.75000	3.24988	2.66291	0.60136	12.07418
1222.65625	5.07896	1.45361	-2.21801	7.43572
1226.56250	-0.34720	1.45312	-3.02271	3.75878
1230.46875	-0.14498	-1.36790	-1.40985	0.55637
1234.37500	6.10367	3.06380	0.20300	-0.03856
1238.28125	7.92582	7.89843	1.01008	5.07223
1242.18750	10.80946	5.48022	0.60836	7.05900
1246.09375	17.21449	1.85337	-2.61383	7.81333
1250.00000	23.44182	1.45001	-2.61263	15.03908
1253.90625	19.86109	1.04672	3.43244	20.99068
1257.81250	23.07516	0.24046	5.85113	27.42510
1261.71875	39.53774	3.46351	3.03172	40.53973
1265.62500	45.27523	1.04550	5.45034	47.39046
1269.53125	37.34213	-7.41646	11.09246	49.69883
1273.43750	43.65719	-5.80514	15.12286	60.91168
1277.34375	52.31886	-2.58216	14.31810	65.83202
1281.25000	52.98277	-3.79137	12.70747	59.11405
1285.15625	49.58926	0.23748	10.69395	57.21393
1289.06250	48.81368	3.46048	8.68043	58.61050
1292.96875	53.31643	2.65416	7.47275	64.53152
1296.87500	56.56856	1.44487	7.07099	75.56544
1300.78125	57.99200	3.86206	8.68381	81.30748
1304.68750	53.93287	2.65294	9.49081	86.43812
1308.59375	53.42955	-5.40605	7.88018	92.14815
1312.50000	51.25720	-3.79478	7.07544	95.92488
1316.40625	45.49037	-0.16884	7.88243	97.72282
1320.31250	47.71232	-3.79564	8.28654	95.02253
1324.21875	47.02615	3.85958	10.30238	85.49793
1328.12500	39.10669	12.72355	10.70645	66.50878
1332.03125	35.86879	6.27622	7.08125	44.69831
1335.93750	33.18227	5.06699	3.05306	33.98898
1339.84375	32.21252	9.49881	2.24836	26.11083
1343.75000	36.12315	5.06616	5.06999	14.49689
1347.65625	34.05523	1.03646	5.87695	10.30577
1351.56250	31.73194	1.03604	7.08688	10.78813
1355.46875	34.14630	3.05025	8.29683	6.45348
1359.37500	38.48502	5.06445	10.71556	4.71051
1363.28125	40.56564	2.64646	11.92552	1.96351
1367.18750	40.29492	0.22847	10.31497	-3.12310
1371.09375	37.23763	-0.17491	10.71898	-0.96036
1375.00000	31.85940	2.24219	7.09373	-4.22181
1378.90625	30.66448	5.86812	0.24497	-9.07676
1382.81250	28.11935	2.24123	-1.36559	-12.14756
1386.71875	15.12022	-2.59446	-0.96150	-18.09806
1390.62500	10.88751	-1.38615	-0.96039	-21.96627
1394.53125	15.84269	3.44852	3.07000	-24.62643
1398.43750	13.98375	4.65683	5.48863	-23.72001
1402.34375	10.06524	1.83584	2.66922	-27.44232
1406.25000	14.54221	1.83535	1.86444	-30.58877
1410.15625	19.16831	3.44657	2.26849	-27.23810
1414.06250	18.73145	2.64019	5.49295	-24.53509
1417.96875	19.06076	4.25134	4.68821	-22.70442
1421.87500	19.44239	5.05672	-2.96632	-21.76841
1425.78125	21.64219	-0.58466	-3.36818	-19.64265
1429.68750	23.80586	-1.39097	2.27405	-18.78120
1433.59375	19.97483	0.22017	5.90152	-22.87896
1437.50000	19.29659	0.21959	3.08217	-25.37579
1441.40625	21.99906	5.45708	-0.94602	-22.13202
1445.31250	21.91773	2.63604	-0.13908	-19.10779
1449.21875	19.96923	-2.60254	5.50305	-15.12206
1453.12500	16.75176	-2.20019	8.72761	-12.80099
1457.03125	14.28362	-0.99200	4.29650	-15.21755
1460.93750	10.88296	-1.39550	1.47706	-15.64952
1464.84375	-1.95383	-3.41066	4.29872	-7.63190
1468.75000	-7.64789	-2.60533	4.29983	4.69971
1472.65625	2.61573	-1.80004	-0.13129	15.78095
1476.56250	8.04663	1.82577	0.27273	23.48305
1480.46875	3.41689	3.03390	1.48264	29.90460
1484.37500	1.60512	3.03336	-0.12793	39.35962
1488.28125	2.60814	1.82415	-0.52971	47.13806
1492.18750	1.74394	-1.39985	4.30667	53.20544
1496.09375	-3.44759	-1.80337	7.53124	61.71416
1500.00000	-10.47611	-2.20689	7.93532	63.34824
1503.90625	-11.72601	-2.61031	5.51881	48.52743
1507.81250	-10.50332	-2.20790	3.50529	34.83550
1511.71875	-7.62078	0.61217	2.29772	24.53652
1515.62500	-5.29542	5.04383	2.70180	12.84570
1519.53125	-8.64008	1.41700	6.32937	6.10009
1523.43750	-17.36849	-1.00106	3.91293	-3.10325
1527.34375	-17.56437	-2.61324	2.70528	-12.05791
1531.25000	-13.79175	-5.43423	1.90050	-16.22433
1535.15625	-15.63215	0.20625	0.28982	-19.56752
1539.06250	-11.62896	3.42916	1.09687	-21.37227
1542.96875	-9.68076	3.42857	-0.11074	-24.88108
1546.87500	-8.49660	3.02504	2.71090	-29.47360
1550.78125	-5.48365	1.00991	2.30912	-29.17703
1554.68750	-3.83800	-0.19937	-0.10737	-27.86638
1558.59375	2.71334	-3.42327	0.69960	-25.52321
1562.50000	7.30745	-5.03550	-0.10514	-28.09669
1566.40625	5.42278	-3.02126	1.50764	-29.90007
1570.31250	3.60796	1.00761	1.50875	-29.21991
1574.21875	1.07486	4.63357	0.30104	-29.37104
1578.12500	-2.28354	5.03599	1.10806	-26.50478
1582.03125	-8.71168	4.63254	-0.90545	-23.23451
1585.93750	-10.05018	3.42312	-2.11313	-20.99222
1589.84375	-7.06169	1.81086	-0.50037	-18.35758
1593.75000	-10.56510	1.00445	-0.49930	-19.64282
1597.65625	-15.74560	-1.01068	-3.31867	-21.50086
1601.56250	-16.64134	-1.81699	-2.10876	-22.39120
1605.46875	-12.20164	-3.02627	1.11580	-22.49392
1609.37500	-14.52147	-4.23561	1.51979	-22.77071
1613.28125	-18.61234	-2.22154	1.52089	-25.26680
1617.18750	-14.30787	0.19552	1.52198	-22.60279
1621.09375	-7.61974	-1.01386	1.12018	-18.32367
1625.00000	-8.68389	-1.41738	-0.08752	-21.91700
1628.90625	-15.14006	-0.61208	-0.08640	-20.29032
1632.81250	-15.41093	0.19320	2.33230	-17.22434
1636.71875	-15.30091	-1.82202	2.33337	-12.48753
1640.62500	-15.89881	-1.82257	2.73736	-2.98326
1644.53125	-8.76140	3.01206	3.14141	6.52177
1648.43750	-9.31546	0.59399	3.94836	20.11592
1652.34375	-21.10652	-8.27102	2.33775	25.84808
1656.25000	-26.78754	-14.31551	-2.09343	33.01897
1660.15625	-13.27703	-10.68970	-0.07767	57.06266
1664.06250	0.86410	-0.61704	0.32634	69.26315
1667.96875	-19.20420	-1.02058	-5.31356	51.71328
1671.87500	-35.69844	-10.69141	-3.29784	37.87858
1675.78125	-36.68474	-3.03624	-0.87916	35.74793
1679.68750	-51.73764	-3.03676	-8.93673	21.18205
1683.59375	-70.86895	-7.46959	-21.42654	4.32254
1687.50000	-88.72084	2.60310	-31.09578	-19.77894
1691.40625	-88.59815	4.21418	-27.06544	-43.98006
1695.31250	-83.27408	6.63120	-18.19994	-56.67965
1699.21875	-91.39415	6.63063	-15.78127	-71.95230
1703.12500	-84.54564	5.01829	-14.57138	-75.48711
1707.03125	-70.38783	4.61477	-13.76449	-71.06081
1710.93750	-64.56495	1.79364	-12.55458	-73.85714
1714.84375	-55.75271	-1.83337	-10.94180	-68.17982
1718.75000	-45.21873	-1.43102	-11.74657	-61.17561
1722.65625	-38.55460	-3.04335	-10.53669	-57.35321
1726.56250	-34.31043	-5.05863	-8.11797	-50.15177
1730.46875	-28.46716	-3.04462	-7.31106	-46.10199
1734.37500	-26.65069	-0.22468	-5.69828	-42.26506
1738.28125	-28.85785	1.38655	-6.10014	-36.75157
1742.18750	-25.57130	-3.85208	-7.71081	-25.90061
1746.09375	-20.37506	-7.88188	-6.50088	-9.83507
1750.00000	-18.17717	-5.46484	-8.51438	2.22592
1753.90625	-11.28165	-0.63029	-11.33373	12.60995
1757.81250	-2.02354	2.99544	-8.51209	20.65633
1761.71875	-2.88685	4.60658	-5.69047	15.23653
1765.62500	-3.99911	2.18832	-4.88346	4.35871
1769.53125	-2.66473	-1.43869	-4.47945	-3.00283
1773.43750	-3.19932	-1.84228	-6.09007	-11.13013
1777.34375	-3.40203	2.58935	-9.71537	-17.49133
1781.25000	-3.94684	4.60346	-8.90842	-19.77662
1785.15625	-3.71388	-0.23229	-6.89274	-23.28786
1789.06250	-2.47459	-5.47091	-6.48874	-26.32307
1792.96875	-4.82153	-6.68028	-5.68185	-29.66879
1796.87500	-8.01598	1.78073	-2.45731	-29.51342
1800.78125	-10.62169	3.39187	-5.67966	-27.39718
1804.68750	-9.03961	1.37668	-10.51367	-30.32439
1808.59375	-16.79550	4.59951	-7.69207	-29.85189
1812.50000	-30.24974	2.98707	-6.07925	-27.68620
1816.40625	-21.51092	2.98647	-5.27235	-26.29064
1820.31250	-7.20089	5.80648	-1.24204	-24.96095
1824.21875	2.99235	3.38831	-1.24103	-23.60598
1828.12500	11.19032	-0.64157	-3.65763	-18.82154
1832.03125	13.99655	0.16371	-3.65661	-15.24683
1835.93750	11.31021	1.77493	-1.64094	-14.27062
1839.84375	4.69972	0.56556	-5.26623	-16.10457
1843.75000	5.79009	-1.04677	-10.10035	-19.65970
1847.65625	9.76634	0.16143	-6.87590	-16.19500
1851.56250	9.45789	2.17550	-2.44258	-10.87763
1855.46875	9.05199	0.56324	-4.45615	-14.40631
1859.37500	16.21139	0.15976	-3.24632	-8.09072
1863.28125	18.69503	1.36801	0.78399	-1.97337
1867.18750	10.76857	4.99375	-3.24427	-6.65705
1871.09375	14.56103	5.79910	-6.86956	0.74376
1875.00000	17.64427	0.96331	-7.27138	13.19643
1878.90625	15.64338	-4.27542	-6.46450	25.66716
1882.81250	10.27763	0.96204	-2.43417	38.71328
1886.71875	0.50173	3.37902	0.38740	41.62695
1890.62500	1.91001	-0.24801	3.20906	48.63758
1894.53125	4.85056	-2.66622	4.01603	49.20051
1898.43750	9.84146	0.15365	7.24056	42.45092
1902.34375	17.20483	0.15305	8.45045	35.90767
1906.25000	15.23478	-7.10030	2.40758	20.27001
1910.15625	13.41386	-7.50387	-0.81483	10.72663
1914.06250	13.37989	-1.86342	-3.23135	1.74439
1917.96875	13.30625	0.95647	-6.45369	-6.09553
1921.87500	16.91133	0.95590	-7.25844	-8.38316
1925.78125	21.12576	5.79051	-6.45147	-12.70472
1929.68750	21.27477	8.20740	-5.24159	-13.45530
1933.59375	21.07026	1.35697	-4.43469	-15.13569
1937.50000	20.39212	-3.88174	-2.41893	-17.22973
1941.40625	19.46830	-6.29996	-1.61203	-18.01529
1945.31250	11.73135	-7.50932	-0.80511	-19.42323
1949.21875	9.37995	-3.88343	-0.80403	-20.67549
1953.12500	17.44455	4.17459	-4.42932	-23.99540
1957.03125	20.21448	0.54764	-2.81644	-23.18837
1960.93750	18.02273	1.35287	0.40805	-20.79982
1964.84375	18.07973	4.97860	4.43853	-16.00563
1968.75000	13.59453	0.14286	5.24552	-15.35898
1972.65625	9.35269	4.17158	4.03787	-17.17150
1976.56250	7.53086	8.20029	2.02438	-13.49856
1980.46875	10.95973	8.60268	2.42851	-6.27096
1984.37500	5.92447	4.16986	0.81789	-6.08322
1988.28125	-0.32530	0.94585	-0.38977	-6.36322
1992.18750	10.09247	6.18337	1.22310	5.34532
1996.09375	8.12426	0.94469	-0.79045	10.63066
2000.00000	8.75142	-4.29398	3.64289	14.27960
2003.90625	12.33670	1.74941	7.67337	20.41138
2007.81250	6.70952	-2.28064	7.67455	17.59861
2011.71875	10.39794	-8.72813	6.46695	12.13470
2015.62500	17.55867	-6.31126	4.85634	10.51699
2019.53125	17.43754	1.34388	-0.38059	6.59177
2023.43750	15.15609	6.17848	-1.18527	-0.19412
2027.34375	8.91634	-0.26901	2.84519	-5.92549
2031.25000	12.28619	-1.47836	5.66681	-7.27147
2035.15625	13.66938	1.34153	3.65328	-11.82349
2039.06250	6.39073	-1.88259	-1.98662	-18.06054
2042.96875	5.92165	-5.10670	-2.38845	-18.34582
2046.87500	12.74714	-3.09264	0.83611	-10.85024
2050.78125	16.56625	2.54780	2.85188	-6.12133
2054.68750	14.58587	-4.70554	1.24129	-3.19886
2058.59375	15.09358	-2.69149	0.03361	1.56204
2062.50000	14.04689	2.94895	-1.97991	-2.62306
2066.40625	5.71560	-3.09559	-5.20218	-8.45554
2070.31250	2.69222	-3.09624	-4.79814	-6.16361
2074.21875	7.41196	2.94705	1.24692	-3.89700
2078.12500	9.29175	5.36400	4.87440	-6.67143
2082.03125	13.33980	3.34870	5.27852	-4.60980
2085.93750	22.47753	-0.68125	6.89136	-0.75580
2089.84375	30.30136	2.13856	6.08660	1.47601
2093.75000	31.63311	2.54083	2.05838	6.63765
2097.65625	26.45269	-0.68317	0.44778	4.37660
2101.56250	26.36285	-2.29553	2.06068	-1.34898
2105.46875	37.65239	0.92727	0.45007	-1.45183
2109.37500	40.97363	7.37355	-0.35465	5.92693
2113.28125	35.67400	7.37292	2.06411	7.45994
2117.18750	31.51697	5.35760	3.67695	5.69146
2121.09375	30.14644	-3.10458	3.27521	6.74702
2125.00000	24.24708	-11.56679	0.45584	5.16797
2128.90625	23.83472	-8.34396	0.85995	7.60013
2132.81250	24.36964	-1.89773	1.26405	6.23348
2136.71875	24.07661	4.54844	-0.74947	2.91134
2140.62500	29.52254	5.35356	2.87805	3.14772
2144.53125	32.22746	5.35284	6.10266	-0.24136
2148.43750	27.64389	1.72576	4.08917	-7.19707
2152.34375	21.89663	-5.12484	2.47860	-10.32980
2156.25000	19.84179	0.11260	-2.75840	-12.82950
2160.15625	25.29356	8.17060	-7.18958	-9.73852
2164.06250	22.51153	8.97590	-1.95038	-7.20863
2167.96875	-3.19782	1.31959	6.51230	-20.72950
2171.87500	-3.17197	-8.75428	8.12510	-31.34109
2175.78125	26.46424	-7.94917	6.51451	-27.83109
2179.68750	33.57243	-4.72636	3.29216	-23.05661
2183.59375	26.93165	0.51108	1.27865	-21.78466
2187.50000	19.55567	7.36024	0.47387	-19.29324
2191.40625	20.48395	5.34492	-3.55432	-12.06601
2195.31250	22.98722	2.92666	-5.97077	-7.43990
2199.21875	20.91082	-3.11796	-4.76083	-9.01332
2203.12500	22.52089	-1.90993	0.07547	-2.87813
2207.03125	23.78464	5.34204	6.52348	1.14487
2210.93750	16.71338	5.74428	8.94208	-0.44313
2214.84375	5.78164	1.31137	6.12263	-0.81015
2218.75000	0.19799	-5.13617	4.91490	2.97024
2222.65625	-2.40553	-6.34563	5.31893	3.97182
2226.56250	1.83835	1.30940	6.93176	5.12898
2230.46875	2.04026	4.53219	7.73873	5.55204
2234.37500	-2.99332	4.93439	4.51641	-1.89342
2238.28125	-2.38020	-1.51316	2.09989	-8.87122
2242.18750	3.72658	-9.16956	2.50395	-9.70566
2246.09375	8.11671	-4.33511	-4.34485	-11.36959
2250.00000	13.13494	-2.32119	-14.01409	-16.63528
2253.90625	14.38931	0.09570	-9.17775	-15.11631
2257.81250	10.75340	-2.32257	2.91125	-9.89118
2261.71875	11.50165	-5.14380	7.74750	-6.44728
2265.62500	11.59807	1.30236	7.74861	-6.44678
2269.53125	8.90303	2.10753	6.94388	-10.58565
2273.43750	2.32436	-1.92246	6.54211	-10.25214
2277.34375	-0.29612	-5.95243	4.52860	-7.34674
2281.25000	2.38241	-6.75894	-0.30547	-10.03562
2285.15625	-0.60816	-5.55080	-2.31899	-13.54757
2289.06250	1.83968	-6.76026	-5.54139	-11.74830
2292.96875	7.14828	-5.55214	-6.74913	-13.08017
2296.87500	9.59457	0.08817	-3.12164	-14.94018
2300.78125	11.01790	-0.31548	-0.30007	-11.61594
2304.68750	13.80848	-1.52499	2.92448	-8.50003
2308.59375	14.51383	0.48893	4.13440	-8.02821
2312.50000	7.90918	-2.73526	0.10618	-16.33952
2316.40625	2.94825	-9.98871	0.91311	-20.18289
2320.31250	0.73794	-5.96010	4.94351	-16.83940
2324.21875	0.05190	-1.12568	5.34756	-14.67926
2328.12500	0.59413	-3.94689	6.55746	-13.11895
2332.03125	-4.65840	-1.12707	4.54394	-13.17124
2335.93750	-13.38883	0.08100	2.12750	-24.28343
2339.84375	-10.73220	1.69203	1.32279	-28.53511
2343.75000	-10.85092	3.30301	-1.09369	-32.49324
2347.65625	-18.15687	3.30238	-1.49552	-44.74287
2351.56250	-23.30076	4.51058	2.13203	-50.70743
2355.46875	-30.95950	6.12165	2.53619	-60.68291
2359.37500	-34.27653	4.10629	0.11978	-66.85797
2363.28125	-34.61350	8.53779	-7.53478	-71.61955
2367.18750	-38.91352	4.10476	-5.92190	-73.07955
2371.09375	-44.79138	-5.16339	0.92901	-75.75182
2375.00000	-41.70822	-1.13481	-0.27868	-81.43066
2378.90625	-41.29149	2.08797	-0.27755	-87.09142
2382.81250	-47.46308	2.08733	-5.91738	-91.77383
2386.71875	-52.40381	2.89250	-11.96021	-88.85973
2390.62500	-55.42781	4.50359	-10.34731	-90.31009
2394.53125	-48.86093	10.94984	-7.52565	-90.14954
2398.43750	-56.36086	16.59015	-10.34496	-88.43694
2402.34375	-61.48832	18.20115	-13.56732	-86.92094
2406.25000	-58.62320	13.36520	-15.58082	-84.02328
2410.15625	-53.19136	10.14102	-17.19132	-76.64305
2414.06250	-45.16673	8.52863	-17.19018	-73.13392
2417.96875	-43.22586	0.46935	-11.54803	-70.49712
2421.87500	-43.24723	-1.94896	-7.51757	-62.71099
2425.78125	-37.01824	3.69140	-8.72524	-55.74998
2429.68750	-25.58723	4.49663	-8.32118	-42.80061
2433.59375	-10.88339	6.51059	-7.11122	-33.60163
2437.50000	-5.11466	10.53915	-9.52763	-28.84575
2441.40625	-4.82973	11.74722	-10.73525	-23.99039
2445.31250	0.73005	12.14939	-9.52525	-19.35462
2449.21875	8.45191	5.70184	-9.52405	-10.13093
2453.12500	11.68137	2.47765	-12.34337	-4.98953
2457.03125	22.10699	2.47694	-14.35673	4.68157
2460.93750	28.37668	-2.35892	-12.34090	17.54600
2464.84375	30.44824	-10.01521	-6.29575	27.17484
2468.75000	40.46846	-12.03059	-2.26527	37.89426
2472.65625	49.52319	-12.03133	-4.27874	43.33389
2476.56250	52.93937	-10.42035	-9.91855	43.37978
2480.46875	55.96530	-14.85329	-7.49984	44.56266
2484.37500	59.79451	-22.10676	-5.88699	46.76427
2488.28125	59.18578	-19.68988	-7.09465	51.72159
2492.18750	56.70986	-17.67595	-6.28764	50.93853
2496.09375	54.33893	-13.64740	-5.48069	47.76151
2500.00000	50.93692	-10.42470	-5.07662	47.38034
2503.90625	48.07537	-8.41075	-5.07551	47.06446
2507.81250	49.29818	-3.17331	-1.44806	49.08624
2511.71875	44.12223	-10.02375	-0.23811	45.23360
2515.62500	43.22446	-16.06838	-1.04280	43.61551
2519.53125	44.31224	-12.84564	-2.25043	48.95742
2523.43750	42.83684	-14.45801	-5.06976	53.45338
2527.34375	41.43240	-16.07042	-9.09792	52.55696
2531.25000	29.89395	-15.66823	-12.72319	48.79332
2535.15625	25.63626	-10.02789	-8.28977	49.47915
2539.06250	34.07193	-8.81981	-2.24464	48.48015
2542.96875	38.03513	-10.83529	-2.24350	42.15076
2546.87500	38.81673	-9.22435	-3.45114	44.00513
2550.78125	41.83004	-6.80744	-3.04703	45.51041
2554.68750	37.43208	-6.00228	-0.22539	44.40348
2558.59375	36.73094	-12.04696	-3.44772	44.32901
2562.50000	40.11647	-18.09152	-3.44659	46.59069
2566.40625	35.00859	-10.03364	-3.44548	45.59303
2570.31250	38.83497	3.26228	-8.27955	42.64672
2574.21875	36.30205	3.26150	-9.89013	40.88375
2578.12500	30.52620	-4.79779	-9.88902	33.67680
2582.03125	38.20071	-5.60429	-8.67914	34.93225
2585.93750	37.66822	-3.59033	-5.85749	38.38313
2589.84375	30.58375	-7.21752	-2.23003	37.39124
2593.75000	28.69213	-3.18895	-1.82594	38.92632
2597.65625	24.31765	4.46605	-7.06289	34.24741
2601.56250	22.21315	1.24186	-4.64417	34.56553
2605.46875	29.47352	-5.60869	-1.41965	36.88006
2609.37500	29.97440	-6.81819	-4.23901	35.39410
2613.28125	22.25728	-3.99836	-3.02911	32.89763
2617.18750	18.10018	-0.77564	-0.61043	29.92015
2621.09375	15.52094	2.44709	-1.01224	31.37839
2625.00000	8.81574	0.43179	-6.24918	28.18746
2628.90625	8.40344	-4.00119	-4.63628	24.57546
2632.81250	10.55025	-1.58434	-1.00874	24.01451
2636.71875	12.67482	1.63834	-1.81343	19.48349
2640.62500	13.68847	-0.37718	1.00822	17.30228
2644.53125	12.76705	-5.61601	3.42699	19.15115
2648.43750	-1.08395	-10.85490	-1.80994	15.41880
2652.34375	-10.05472	-3.19999	-4.62928	10.27132
2656.25000	-6.87145	4.85784	-1.40471	13.41251
2660.15625	-13.50765	8.08053	-7.04455	16.50352
2664.06250	-19.51325	6.46811	-6.64048	19.03334
2667.96875	-29.91134	4.45276	0.61347	15.18279
2671.87500	-29.88548	2.43740	4.24104	8.19758
2675.78125	-12.74007	4.04839	7.06267	9.29007
2679.68750	-8.85520	6.06229	5.45207	10.43808
2683.59375	-11.06372	0.42056	3.43853	8.88946
2687.50000	-6.75462	-4.41533	3.03676	9.36627
2691.40625	-6.63220	-5.62483	4.24675	7.72895
2695.31250	-5.33761	-0.38752	4.24797	10.34036
2699.21875	-4.59340	3.23816	1.83156	12.39328
2703.12500	-8.22133	2.83451	-0.98780	13.29038
2707.03125	-14.61318	2.02805	-6.22474	9.25489
2710.93750	-18.46092	4.44499	-7.02945	9.68182
2714.84375	-14.08126	11.69697	2.23911	16.56780
2718.75000	-12.41218	6.45812	5.06080	12.69276
2722.65625	-10.58339	-3.61581	1.43565	10.47115
2726.56250	-8.35411	-5.22827	0.22804	14.85202
2730.46875	-4.92872	-0.79673	3.45265	16.88705
2734.37500	0.91683	4.44062	4.66262	17.50039
2738.28125	-2.49928	2.02232	1.84323	14.14920
2742.18750	-8.07738	-1.20185	2.24731	16.53840
2746.09375	-13.35762	2.82671	5.47189	17.29216
2750.00000	-10.75689	6.04946	7.08470	15.65300
2753.90625	-3.86153	1.21363	3.05654	18.78370
2757.81250	-4.27398	-0.80169	-2.98627	15.14446
2761.71875	-5.13746	5.24153	-0.56752	12.14161
2765.62500	-3.83218	6.04661	5.07462	16.17162
2769.53125	1.12858	-0.40105	4.26990	16.86805
2773.43750	2.20563	0.80697	2.25636	13.57535
2777.34375	-0.01175	1.61208	0.64572	11.24274
2781.25000	0.65223	0.40258	-3.78539	8.95680
2785.15625	0.48226	2.01361	-6.20193	6.25063
2789.06250	-1.90497	4.83335	-0.55981	3.21460
2792.96875	-2.64029	9.26483	1.45594	0.67391
2796.87500	-5.43211	5.63776	-1.36353	-1.58906
2800.78125	-10.05270	-2.01868	-2.57113	-1.89116
2804.68750	-7.66493	-3.22829	-0.15246	-1.59559
2808.59375	-4.13885	-5.64670	4.68385	0.08523
2812.50000	-10.74350	-1.61823	5.49077	-3.39060
2816.40625	-10.86930	4.42498	5.49181	-7.23357
2820.31250	-1.39458	4.42424	3.47817	-2.68093
2824.21875	-0.46885	1.20004	3.88211	-0.11756
2828.12500	-1.94135	-0.41242	1.06265	1.84588
2832.03125	1.67064	1.60155	-4.17440	3.40538
2835.93750	2.61055	0.79485	-1.75575	3.17240
2839.84375	1.23800	2.80873	5.90094	5.77047
2843.75000	4.74579	8.04612	12.75179	8.66201
2847.65625	6.70703	6.83653	9.93227	10.11174
2851.56250	4.38359	-0.01412	3.08345	8.17618
2855.46875	1.15696	-6.46185	1.47279	9.88531
2859.37500	-3.77173	-4.44804	4.29436	8.94803
2863.28125	-6.52635	-2.03125	2.28078	-1.45485
2867.18750	-4.78248	4.01196	2.68480	-4.12400
2871.09375	-10.25749	7.23466	1.87995	-3.97604
2875.00000	-14.42707	5.21920	-1.74533	-5.22305
2878.90625	-10.38399	2.39792	-1.34136	-8.46647
2882.81250	-8.49708	2.80004	-0.53440	-8.31394
2886.71875	-8.60263	6.02271	-0.13043	-9.83228
2890.62500	-13.64127	4.00725	2.69121	-12.89457
2894.53125	-16.74488	0.78298	5.91563	-11.52535
2898.43750	-15.78340	-2.44135	2.69328	-9.00711
2902.34375	-12.04647	-1.23343	2.69430	-6.28247
2906.25000	-12.00200	1.58630	8.33631	-2.98198
2910.15625	-11.00237	4.00302	5.51688	1.98054
2914.06250	-4.58947	7.22565	3.50330	3.87779
2917.96875	-3.05150	6.82190	5.92189	6.91740
2921.87500	-0.65532	2.79181	5.11706	10.27115
2925.78125	7.99135	-7.68520	-0.52294	11.99406
2929.68750	9.75207	-7.68603	-8.17760	12.85551
2933.59375	9.54743	1.98352	-1.32673	11.98127
2937.50000	10.07794	7.62377	8.74761	7.06694
2941.40625	8.75102	8.02583	7.94272	2.25213
2945.31250	15.51943	6.81619	7.13788	-0.76755
2949.21875	16.79427	0.77140	5.52722	-8.86981
2953.12500	21.23242	-7.69102	3.91650	-11.78688
2957.03125	28.03154	-1.64783	5.52926	-7.35374
2960.93750	25.43669	2.38068	7.94778	-2.54781
2964.84375	18.64374	-2.05235	7.54590	2.64882
2968.75000	12.54669	-4.87365	-0.10876	2.89210
2972.65625	9.51345	-4.06868	-2.52527	-2.14439
2976.56250	0.84160	1.97440	-3.73305	-5.72479
2980.46875	-8.22059	6.40573	-2.52324	-4.94478
2984.37500	-12.45012	7.21076	5.93919	-2.34015
2988.28125	-15.07361	6.40414	8.76063	-1.00908
2992.18750	-11.50582	2.77694	6.74690	-1.79193
2996.09375	-11.05651	2.77614	2.31556	-3.35693
