 	TP9	AF7	AF8	TP10	
-1000.00000	-10.86930	4.42498	5.49181	-7.23357
-996.09375	-1.39458	4.42424	3.47817	-2.68093
-992.18750	-0.46885	1.20004	3.88211	-0.11756
-988.28125	-1.94135	-0.41242	1.06265	1.84588
-984.37500	1.67064	1.60155	-4.17440	3.40538
-980.46875	2.61055	0.79485	-1.75575	3.17240
-976.56250	1.23800	2.80873	5.90094	5.77047
-972.65625	4.74579	8.04612	12.75179	8.66201
-968.75000	6.70703	6.83653	9.93227	10.11174
-964.84375	4.38359	-0.01412	3.08345	8.17618
-960.93750	1.15696	-6.46185	1.47279	9.88531
-957.03125	-3.77173	-4.44804	4.29436	8.94803
-953.12500	-6.52635	-2.03125	2.28078	-1.45485
-949.21875	-4.78248	4.01196	2.68480	-4.12400
-945.31250	-10.25749	7.23466	1.87995	-3.97604
-941.40625	-14.42707	5.21920	-1.74533	-5.22305
-937.50000	-10.38399	2.39792	-1.34136	-8.46647
-933.59375	-8.49708	2.80004	-0.53440	-8.31394
-929.68750	-8.60263	6.02271	-0.13043	-9.83228
-925.78125	-13.64127	4.00725	2.69121	-12.89457
-921.87500	-16.74488	0.78298	5.91563	-11.52535
-917.96875	-15.78340	-2.44135	2.69328	-9.00711
-914.06250	-12.04647	-1.23343	2.69430	-6.28247
-910.15625	-12.00200	1.58630	8.33631	-2.98198
-906.25000	-11.00237	4.00302	5.51688	1.98054
-902.34375	-4.58947	7.22565	3.50330	3.87779
-898.43750	-3.05150	6.82190	5.92189	6.91740
-894.53125	-0.65532	2.79181	5.11706	10.27115
-890.62500	7.99135	-7.68520	-0.52294	11.99406
-886.71875	9.75207	-7.68603	-8.17760	12.85551
-882.81250	9.54743	1.98352	-1.32673	11.98127
-878.90625	10.07794	7.62377	8.74761	7.06694
-875.00000	8.75102	8.02583	7.94272	2.25213
-871.09375	15.51943	6.81619	7.13788	-0.76755
-867.18750	16.79427	0.77140	5.52722	-8.86981
-863.28125	21.23242	-7.69102	3.91650	-11.78688
-859.37500	28.03154	-1.64783	5.52926	-7.35374
-855.46875	25.43669	2.38068	7.94778	-2.54781
-851.56250	18.64374	-2.05235	7.54590	2.64882
-847.65625	12.54669	-4.87365	-0.10876	2.89210
-843.75000	9.51345	-4.06868	-2.52527	-2.14439
-839.84375	0.84160	1.97440	-3.73305	-5.72479
-835.93750	-8.22059	6.40573	-2.52324	-4.94478
-832.03125	-12.45012	7.21076	5.93919	-2.34015
-828.12500	-15.07361	6.40414	8.76063	-1.00908
-824.21875	-11.50582	2.77694	6.74690	-1.79193
-820.31250	-11.05651	2.77614	2.31556	-3.35693
-816.40625	-17.27921	5.99879	-2.11576	-7.36413
-812.50000	-15.30576	4.78911	0.70575	-7.27683
-808.59375	-10.45672	-0.04691	1.91562	-1.22542
-804.68750	-7.97719	-8.10633	-2.51555	2.57793
-800.78125	-5.24889	-1.66023	-1.70876	1.76595
-796.87500	1.47971	5.59172	1.11266	3.48170
-792.96875	3.63052	3.57618	1.51655	7.57495
-789.06250	-0.99756	4.78405	1.51752	6.67873
-785.15625	-0.85125	3.97730	5.14481	6.54158
-781.25000	2.54655	1.96179	7.56335	10.85386
-777.34375	0.10288	0.34926	5.54965	9.45183
-773.43750	-0.36627	-4.88964	4.74470	4.73395
-769.53125	9.68262	-7.30805	10.38663	4.97650
-765.62500	7.45780	-2.87666	9.98469	7.28763
-761.71875	2.65688	1.15180	2.73290	9.00130
-757.81250	11.22308	6.79199	1.52503	8.12112
-753.90625	15.81730	7.99997	0.31716	7.56239
-750.00000	9.90348	-0.46239	-3.30830	4.95325
-746.09375	7.28299	-0.46324	-4.11324	6.03652
-742.18750	3.54117	3.96816	-0.08304	5.88559
-738.28125	-9.08453	1.54979	5.96180	-1.72406
-734.37500	-14.70675	1.14599	2.33632	-7.31809
-730.46875	-6.77791	-1.27243	-0.88622	-9.91081
-726.56250	-8.62433	-4.09378	0.72641	-11.30533
-722.65625	-13.73941	-3.28875	0.72736	-10.57575
-718.75000	-7.23485	1.94854	1.53423	-5.98687
-714.84375	-4.10117	3.55948	0.32640	-3.65383
-710.93750	-1.27310	1.14102	-0.88148	-3.35383
-707.03125	2.45116	5.97526	-1.68646	-2.42200
-703.12500	0.77796	2.34801	2.34368	-4.51533
-699.21875	-2.57329	-0.07043	5.97090	-2.65758
-695.31250	1.69723	-2.08591	1.53962	-0.39333
-691.40625	9.09457	-5.31014	2.34633	-1.16667
-687.50000	9.08507	-2.89328	-0.87625	-0.74931
-683.59375	10.82882	-1.68528	-2.08415	-2.51903
-679.68750	12.14746	2.74606	1.54318	0.60540
-675.78125	9.53478	6.77452	-0.06763	7.69148
-671.87500	14.25434	5.16200	-4.49886	9.54029
-667.96875	17.32635	-4.10627	-0.87156	10.24007
-664.06250	11.57897	-11.76287	1.14396	8.71884
-660.15625	9.12121	-8.54031	-2.07858	5.81597
-656.25000	10.94656	-3.70603	-4.89813	11.72727
-652.34375	16.62593	-5.72164	-4.89718	23.52421
-648.43750	22.34511	-6.93133	-3.28455	34.17886
-644.53125	18.74456	-6.93217	-4.49241	41.69883
-640.62500	18.56396	-6.93301	-4.49153	51.25251
-636.71875	28.49274	-8.94846	-1.26721	63.27941
-632.81250	25.88125	-11.76990	-3.28094	65.35686
-628.90625	16.49068	-7.33848	-8.92102	64.62457
-625.00000	15.80721	0.31634	-7.71131	62.18106
-621.09375	15.89302	-0.08748	-2.06948	52.30133
-617.18750	12.60793	-8.14694	-5.69498	38.23680
-613.28125	17.84455	-7.74490	-4.08243	27.04564
-609.37500	24.74945	-3.71637	-3.67858	17.77172
-605.46875	25.33410	-2.10555	-10.12460	8.52789
-601.56250	23.26692	-6.13573	-10.52668	1.71385
-597.65625	15.26569	-11.77769	-8.91407	-7.39982
-593.75000	9.84161	-14.19608	-6.09275	-12.03950
-589.84375	9.25027	-15.00299	-2.86844	-15.71761
-585.93750	15.49618	-12.98938	-2.06169	-18.11521
-582.03125	16.10358	-12.99036	-4.47835	-19.11384
-578.12500	10.26977	-11.78253	-6.49221	-26.49463
-574.21875	8.72088	-3.72486	-4.47671	-27.32915
-570.31250	7.87288	-6.14342	-3.67000	-25.36693
-566.40625	5.23553	-15.81463	-4.87793	-28.21499
-562.50000	2.86349	-10.57735	-1.25072	-31.12840
-558.59375	6.48036	-4.13131	-0.04108	-31.94723
-554.68750	10.85501	-8.16150	-4.06958	-29.71212
-550.78125	18.20430	-15.81809	-5.68049	-26.08522
-546.87500	19.13581	-13.40143	-4.06797	-22.16550
-542.96875	17.79530	-12.99947	0.36512	-19.81738
-539.06250	26.05417	-13.00042	1.17178	-19.32969
-535.15625	25.91236	-3.33098	-1.24500	-23.63035
-531.25000	21.71317	3.92091	-1.24420	-27.54522
-527.34375	22.54947	6.33765	-3.25803	-28.96942
-523.43750	22.21724	2.30749	-3.25720	-27.48081
-519.53125	20.63438	-0.91684	-2.45042	-24.50578
-515.62500	13.59634	-1.72364	-6.07596	-25.21073
-511.71875	7.92548	-3.73922	-7.68680	-25.31831
-507.81250	10.24272	-6.96366	-7.68603	-27.66710
-503.90625	12.90567	-8.57634	-6.07354	-29.53142
-500.00000	13.98877	-10.18897	-5.26689	-31.35992
-496.09375	5.33171	-17.44270	-5.66902	-32.44854
-492.18750	3.03392	-13.41434	-6.47413	-33.91471
-488.28125	10.02296	-0.11853	-8.48794	-34.77190
-484.37500	7.99397	1.89523	-8.08415	-29.98911
-480.46875	8.93392	-5.35844	-6.06860	-27.40167
-476.56250	11.18782	-9.38861	-5.26187	-24.40072
-472.65625	11.06922	-9.79241	-2.44044	-19.49467
-468.75000	17.86586	-5.76398	0.38092	-14.82148
-464.84375	13.12512	-6.97372	-0.42405	-17.56278
-460.93750	7.48095	-8.98928	-1.22907	-21.89757
-457.03125	19.07250	-2.14049	-2.03403	-16.79096
-453.12500	27.60003	1.48495	-5.65950	-12.28550
-449.21875	24.50883	2.69272	-4.85275	-10.92547
-445.31250	26.28671	-2.94915	-2.03142	-13.19518
-441.40625	37.83147	-6.97932	-0.41883	-14.44224
-437.50000	46.70980	-3.75676	6.43186	-3.98604
-433.59375	52.22321	1.48048	8.04446	1.80731
-429.68750	49.70015	-4.56433	-2.83375	-7.76989
-425.78125	39.42357	-13.42964	-7.26511	-16.47340
-421.87500	34.70854	-8.99822	-6.45836	-16.31337
-417.96875	38.08784	-6.17865	-5.24869	-10.57199
-414.06250	47.46603	-2.15027	-3.63611	-4.62417
-410.15625	44.69021	9.93675	-9.27637	-13.81494
-406.25000	46.09283	12.75644	-11.69315	-15.29965
-402.34375	54.11756	3.48817	-9.27472	-6.14996
-398.43750	48.80590	0.66675	-8.87086	-6.33403
-394.53125	44.35243	1.06879	-8.46707	-0.16004
-390.62500	40.10533	-3.36437	-5.24276	4.78600
-386.71875	41.86613	-6.18579	-0.80963	7.25901
-382.81250	39.24401	-11.02191	-4.43511	6.78753
-378.90625	27.68661	-9.81408	-7.25481	5.09649
-375.00000	30.38917	-9.41201	-6.04515	4.71374
-371.09375	34.74007	-10.62166	-7.25308	2.90273
-367.18750	28.76233	-2.96684	-3.22294	4.87365
-363.28125	29.97709	0.25573	4.43361	11.22399
-359.37500	31.94111	-5.38620	6.85203	17.67197
-355.46875	34.98733	-1.35779	4.83816	21.67231
-351.56250	37.05895	-1.35874	0.00376	23.64597
-347.65625	36.60302	-2.16550	0.00457	27.91917
-343.75000	36.79333	-0.95760	2.42299	29.33014
-339.84375	30.94216	-3.77900	3.22968	30.98858
-335.93750	26.31240	5.08453	2.42466	35.39579
-332.03125	33.36499	10.72466	-2.00674	38.00124
-328.12500	37.99440	9.11195	-1.20008	38.52720
-324.21875	33.90672	1.45537	-1.60215	39.75967
-320.31250	29.92391	2.26025	-1.19845	45.04513
-316.40625	27.32760	6.28861	-0.39176	46.67953
-312.50000	25.67470	1.85544	-10.06130	39.91771
-308.59375	28.91197	-0.16014	-11.26929	36.29947
-304.68750	26.95928	2.65943	-1.19521	36.88001
-300.78125	19.21157	2.25558	2.02911	38.08344
-296.87500	23.11975	2.25468	4.04461	38.59114
-292.96875	28.09114	5.07427	6.46305	41.07351
-289.06250	29.10425	4.26756	4.85216	41.78985
-285.15625	22.40090	-0.16561	0.42073	38.02724
-281.25000	14.11387	0.63924	-0.78720	33.87888
-277.34375	16.10269	3.86168	-3.20392	31.67199
-273.43750	13.61905	0.23437	-4.00894	26.95520
-269.53125	10.37129	-4.60177	-2.79932	25.58698
-265.62500	5.72885	1.84415	-4.00733	27.49588
-261.71875	7.77773	7.08125	-3.20069	30.01607
-257.81250	8.28540	5.87149	-4.40869	29.94229
-253.90625	4.82109	5.06468	-3.19914	26.16067
-250.00000	8.17472	0.63149	-4.40706	24.35785
-246.09375	10.38941	-1.38413	-6.01798	30.27667
-242.18750	8.66225	-5.01146	-5.21134	33.75243
-238.28125	9.33325	-5.01251	-2.38995	35.00753
-234.37500	12.57564	1.03041	0.83423	39.08395
-230.46875	17.68416	5.05881	1.23794	34.07365
-226.56250	20.67295	8.68430	4.05921	31.06735
-222.65625	20.79606	13.11552	4.46293	35.42315
-218.75000	18.83906	3.84711	1.24026	29.13273
-214.84375	20.36093	-3.00369	0.03225	20.58654
-210.93750	29.23300	-2.19882	-5.60796	21.28942
-207.03125	34.16607	-7.03497	-6.81593	24.23577
-203.12500	28.86644	-3.81246	-3.99456	24.96282
-199.21875	29.14154	1.02172	-3.99373	21.17953
-195.31250	30.99445	3.03545	-3.58997	19.81730
-191.40625	30.73615	2.22865	-8.02147	19.04406
-187.50000	42.81463	3.43650	-10.84122	21.07312
-183.59375	43.34958	6.65897	-9.22875	22.92972
-179.68750	36.20666	0.21125	-6.81037	19.60735
-175.78125	50.51703	-3.41607	-6.00372	19.44074
-171.87500	52.81899	5.85034	-3.98827	20.08081
-167.96875	40.57968	8.66989	-3.98752	16.75126
-164.06250	32.01155	7.86305	-2.77798	15.63301
-160.15625	25.52389	6.65334	-3.18012	19.98293
-156.25000	23.31916	4.23486	-8.01448	19.04458
-152.34375	24.56562	3.83090	-7.61067	19.15676
-148.43750	24.64300	-1.81105	-3.58059	24.97654
-144.53125	28.29440	-5.03534	-0.35636	25.64694
-140.62500	34.15693	-5.43924	1.25609	23.91885
-136.71875	30.78824	-2.21680	0.85390	21.44058
-132.81250	37.84641	3.42325	-2.77168	21.50381
-128.90625	54.64569	5.43698	-7.60597	21.17487
-125.00000	66.04964	2.61549	-5.99351	20.34351
-121.09375	72.17885	1.40581	-5.58976	20.94035
-117.18750	64.86380	4.62821	-9.61826	19.76996
-113.28125	64.45890	3.41846	-6.79697	25.90514
-109.37500	58.46946	0.59697	-5.18445	31.13704
-105.46875	48.17448	-2.22447	-5.58651	27.93740
-101.56250	48.12154	-5.04590	-7.60033	23.54111
-97.65625	44.95521	-1.01762	-10.82311	25.70987
-93.75000	39.12798	2.20477	-9.21069	29.93496
-89.84375	28.86615	-5.85478	-8.40412	32.70392
-85.93750	24.63563	-5.45280	-4.37404	38.76810
-82.03125	21.61653	-0.21565	-2.35862	43.00762
-78.12500	15.37970	-2.23129	-6.79009	45.70032
-74.21875	23.09824	-0.21772	-10.01269	49.70118
-70.31250	28.29410	2.19880	-6.38556	57.30470
-66.40625	26.46247	-0.62278	-5.17594	64.12708
-62.50000	24.49339	-1.83256	-4.77215	66.45197
-58.59375	27.70734	-1.83356	-3.96558	70.06551
-54.68750	26.03799	1.79179	-3.96490	75.52422
-50.78125	23.71686	0.17914	0.06510	79.55418
-46.87500	27.06592	-10.70095	0.46880	83.87694
-42.96875	26.12838	-6.67255	-6.78323	83.40475
-39.06250	19.47876	-8.68812	-7.18543	82.68398
-35.15625	17.32218	-9.49495	-4.36414	84.42746
-31.25000	20.77861	-3.45197	-6.37809	71.24529
-27.34375	22.82359	-3.85584	-5.57142	57.33046
-23.43750	26.92354	-12.72135	-4.36183	44.71680
-19.53125	22.52009	-12.72242	-8.79326	17.47239
-15.62500	14.67619	0.17030	-14.03056	-4.18489
-11.71875	13.03470	2.98981	-14.43282	-12.35086
-7.81250	6.08459	-1.84634	-10.80569	-20.34047
-3.90625	-2.13162	-2.25031	-8.38740	-31.06917
0.00000	-2.25743	-4.26596	-8.38663	-38.13564
3.90625	2.78513	-5.47576	-8.38585	-36.80651
7.81250	1.29334	-7.08847	-14.02603	-39.48126
11.71875	-1.38790	-9.91002	-16.44289	-47.99383
15.62500	-8.25205	-7.49348	-14.42751	-54.08972
19.53125	-3.28276	-6.68867	-10.80036	-49.89009
23.43750	5.82088	-7.89847	-8.38205	-45.67992
27.34375	1.67294	-8.70534	-9.59004	-48.83183
31.25000	8.06654	-10.72105	-5.55999	-41.33752
35.15625	12.59298	-13.54258	-1.93289	-34.40799
39.06250	8.15760	-7.90255	-4.34971	-38.33941
42.96875	8.06415	1.76681	-5.96073	-38.47030
46.87500	11.75651	2.97457	-6.76586	-30.33786
50.78125	5.84484	-0.65280	-9.58566	-29.78316
54.68750	-0.43586	-8.71236	-10.79375	-34.87279
58.59375	5.87085	-9.51923	-12.40473	-31.68699
62.50000	5.88465	-3.87916	-13.61278	-29.69195
66.40625	4.95126	-8.31242	-14.01492	-25.91259
70.31250	8.06938	-17.98380	-17.64066	-17.76019
74.21875	5.44845	-15.56720	-20.05755	-23.23987
78.12500	2.34501	-5.89789	-11.99828	-29.52641
82.03125	3.30659	-2.67542	-7.16244	-26.20226
85.93750	5.83476	-1.87045	-10.38518	-25.49244
89.84375	-1.37340	-7.51245	-10.78737	-27.02725
93.75000	-6.41772	-11.94568	-12.39842	-25.69139
97.65625	4.42750	-11.54367	-16.42702	-21.77953
101.56250	14.42705	-16.37980	-15.62048	-14.71086
105.46875	11.98812	-10.73979	-15.21678	-11.35724
109.37500	14.59086	-1.47339	-16.82773	-12.05201
113.28125	16.35159	0.54028	-16.82705	-11.59366
117.18750	8.49142	-1.47531	-16.02056	-11.66218
121.09375	4.58975	-5.10258	-15.61697	-11.33845
125.00000	0.03956	-5.10360	-14.40750	-8.90063
128.90625	0.36131	-5.91047	-15.21266	-9.09990
132.81250	7.27746	-10.34361	-17.22666	-9.94938
136.71875	2.44840	-12.35918	-18.43477	-9.64299
140.62500	1.59212	-7.12205	-19.64291	-7.62727
144.53125	4.23569	-6.72016	-19.23925	-2.41832
148.43750	1.47234	-13.57097	-17.22400	4.39035
152.34375	3.43407	-13.16910	-14.40286	9.06618
156.25000	2.01282	-16.39353	-11.58168	8.05942
160.15625	-3.83826	-23.24434	-13.99848	6.09111
164.06250	-1.61809	-15.58963	-16.41541	8.08034
167.96875	-0.60928	-7.93505	-15.60888	15.52059
171.87500	-5.24724	-3.50382	-11.17593	28.93999
175.78125	-0.06745	-4.71365	-7.95183	45.08055
179.68750	5.62027	-13.17622	-9.56286	53.58908
183.59375	3.02408	-17.20650	-10.36810	56.43183
187.50000	2.58011	-11.16353	-9.96448	63.36919
191.40625	4.60887	-10.35871	-13.99312	63.77975
195.31250	4.67103	-18.41834	-18.42476	53.07777
199.21875	4.17628	-17.61360	-16.00648	39.77526
203.12500	4.05536	-12.37654	-11.97653	30.61212
207.03125	2.17708	-7.94536	-16.40812	20.20000
210.93750	-0.03311	-3.51415	-18.42212	15.67757
214.84375	2.53105	-0.69472	-17.21265	17.95833
218.75000	3.91448	-3.51629	-14.39148	11.79473
222.65625	-0.14060	-5.12902	-9.55561	2.33447
226.56250	5.83741	-1.90664	-7.13735	3.25814
230.46875	9.43964	-7.54874	-7.53954	2.69525
234.37500	3.99145	-13.19084	-7.13601	-2.64906
238.28125	-1.21238	-13.19189	-6.73237	-6.17328
242.18750	-11.58378	-10.37237	-8.34342	-13.90317
246.09375	-15.04796	-9.16456	-13.17791	-18.49112
250.00000	-9.27665	-5.94222	-13.58019	-13.44451
253.90625	-1.42084	-0.70520	-14.78826	-10.74949
257.81250	7.73116	-7.15312	-15.99639	-12.10930
261.71875	8.40225	-11.18346	-13.98107	-10.45153
265.62500	1.97440	-6.34929	-11.56291	-13.62791
269.53125	-0.16986	-1.11226	-12.36805	-17.02660
273.43750	4.02750	-1.91924	-12.77022	-11.97462
277.34375	0.92695	-10.38186	-10.35202	-13.66321
281.25000	-1.83607	-7.96542	-10.75425	-17.53661
285.15625	0.08836	0.49501	-9.14189	-13.18962
289.06250	0.09559	-1.92367	-7.12655	-11.27860
292.96875	1.80489	-4.34231	-7.52874	-9.54154
296.87500	2.95184	1.29773	-10.34869	-9.21798
300.78125	3.62960	8.14649	-11.15389	-9.37552
304.68750	1.45287	4.51907	-9.13863	-3.88849
308.59375	-6.46139	-6.36102	-10.74968	-1.03618
312.50000	-12.91792	-7.16789	-15.18127	-2.23134
316.40625	-15.60667	-3.13965	-16.38948	-6.01662
320.31250	-18.31738	-0.32023	-16.79177	-8.13101
324.21875	-24.55651	1.69338	-15.58244	-7.49272
328.12500	-29.10427	-2.73992	-13.16422	-8.06251
332.03125	-28.04663	-4.75566	-11.95479	-6.15529
335.93750	-31.37617	-2.33918	-7.11897	-3.24564
339.84375	-40.28053	-6.77244	-8.73001	-8.56762
343.75000	-43.69296	-6.77344	-12.35579	-7.49298
347.65625	-46.07187	-3.95394	-13.16101	-7.38241
351.56250	-43.57588	-9.19311	-15.17504	-6.80239
355.46875	-37.90879	-9.19420	-13.15978	-2.50709
359.37500	-35.26852	-2.74847	-11.95035	2.21043
363.28125	-36.21863	-5.16707	-12.35264	0.13380
367.18750	-39.23254	-6.37694	-7.91969	-5.04234
371.09375	-36.93772	-5.57220	-4.69554	-1.34301
375.00000	-35.20318	-8.39384	-3.88908	3.86854
378.90625	-37.53464	-5.17150	-9.52948	8.89676
382.81250	-34.37260	-1.54636	-11.94650	14.57541
386.71875	-25.10639	0.06419	-5.09615	14.26301
390.62500	-27.87147	-5.57800	-6.30440	11.43555
394.53125	-32.52471	-6.78794	-8.31849	13.87625
398.43750	-23.30963	-3.96854	-6.70629	13.50852
402.34375	-24.86363	-5.17855	-9.52632	3.58863
406.25000	-30.28729	-3.16517	-10.33170	-2.26032
410.15625	-23.62545	0.05703	-9.52529	2.11975
414.06250	-14.96148	4.48795	-6.70425	5.76590
417.96875	-13.95066	9.72480	-7.50947	5.57270
421.87500	-8.09894	5.69428	-8.71770	8.26482
425.78125	-6.02084	-4.38018	-4.68778	17.10006
429.68750	-10.49464	-6.39597	-7.10480	26.71734
433.59375	-8.29635	-5.18832	-10.32765	34.34446
437.50000	-5.42979	-4.38363	-10.72992	45.53250
441.40625	-5.84177	-4.38477	-9.92342	52.36829
445.31250	-16.77808	-1.96828	-8.31107	58.63158
449.21875	-19.90469	-5.19281	-7.10160	66.68964
453.12500	-5.27333	-1.56760	-2.26573	74.63785
457.03125	0.63910	4.07227	-1.86222	79.40263
460.93750	-7.62203	1.25067	-3.47334	83.51608
464.84375	-9.77841	-5.60026	-8.71082	84.85565
468.75000	-9.14248	-6.00423	-13.94822	84.16339
472.65625	-9.11201	-3.18475	-12.33589	85.15629
476.56250	-8.63853	-2.37994	-7.09715	89.46480
480.46875	-16.26556	-3.99272	-7.09653	80.35154
484.37500	-10.00711	-1.97922	-9.11057	63.52874
488.28125	3.66264	-3.99496	-4.67765	48.91515
492.18750	8.39733	-11.24878	-3.46814	35.68656
496.09375	5.01610	-5.60882	-6.28800	27.37461
500.00000	5.29308	-2.38638	-5.48143	19.09839
503.90625	11.54428	-3.99907	-3.46613	10.35336
507.81250	18.51375	1.23804	-5.48016	5.66326
511.71875	19.05584	-3.19521	-5.88243	1.98511
515.62500	17.42957	-8.43435	-6.28476	0.32068
519.53125	15.95183	-4.40610	-8.70168	-6.35955
523.43750	13.37040	-3.19832	-8.70100	-14.64087
527.34375	13.25168	-1.99056	-9.10326	-13.76405
531.25000	19.24239	-1.18573	-7.49082	-11.10533
535.15625	22.15712	2.03670	-1.44633	-11.42893
539.06250	20.54228	5.25921	-1.04286	-18.18095
542.96875	15.61359	1.22894	-1.44516	-20.32661
546.87500	16.08242	-5.62195	-1.44452	-20.25293
550.78125	17.02041	-6.02591	-5.47314	-18.48961
554.68750	18.39523	-3.60941	-3.05489	-14.31202
558.59375	21.88132	1.62766	0.97509	-9.91702
562.50000	19.88035	0.41781	-1.84476	-9.93569
566.40625	11.69394	-5.62718	-7.48507	-15.01989
570.31250	9.57354	-9.65746	-10.30502	-13.71611
574.21875	9.36975	-10.06138	-14.33366	-7.91224
578.12500	3.04248	-7.24188	-11.91540	-6.13863
582.03125	8.03302	-7.24294	-6.27376	-8.05101
585.93750	11.76976	-7.64689	-7.07896	-8.54832
589.84375	12.21696	-5.23028	-6.27248	-6.85810
593.75000	19.66313	-6.44010	-2.64544	-11.16149
597.65625	22.85233	-9.26157	1.78745	-10.87459
601.56250	26.00179	-5.23330	-1.43542	-8.23660
605.46875	30.00942	-7.24894	-5.86706	-5.28462
609.37500	33.82062	-4.83236	-4.65765	-1.94882
613.28125	32.76054	2.01650	-6.67172	-4.30965
617.18750	26.91461	-0.40205	-6.67115	-2.36222
621.09375	22.60975	-6.84989	-2.23832	2.39500
625.00000	14.83585	-8.05967	-1.43194	6.84864
628.90625	10.72507	-4.43422	-2.23721	11.48575
632.81250	13.20868	-8.86741	-4.65423	13.45790
636.71875	12.40875	-20.15048	-3.04195	10.54202
640.62500	9.53769	-14.10753	-2.23546	10.94709
644.53125	6.94295	-4.43818	-7.07009	9.71021
648.43750	10.22331	-4.03618	-6.66661	10.07288
652.34375	10.17034	0.79802	-4.24847	14.74965
656.25000	8.74901	1.60288	-4.65081	12.13199
660.15625	11.35938	1.19891	-4.24730	10.56758
664.06250	5.11785	2.40653	-3.03798	8.93139
667.96875	2.90310	3.21136	-2.63447	6.29937
671.87500	2.29443	-1.62487	0.18661	8.03476
675.78125	1.02725	-10.08747	-1.82746	6.44735
679.68750	5.50606	-8.47681	-6.66206	4.48080
683.59375	5.32756	-2.43394	-7.46731	6.51887
687.50000	8.10709	-0.01751	-6.25804	10.23401
691.40625	13.35928	1.19012	-5.45157	6.21359
695.31250	17.45089	-0.42278	-5.45098	3.97443
699.21875	16.15029	-4.05022	-5.04750	6.38746
703.12500	15.22354	-2.43968	-2.62933	5.28417
707.03125	16.16592	-3.24678	-2.62875	5.34953
710.93750	13.14991	-8.88903	-1.82228	5.26062
714.84375	13.69961	-8.89019	-2.22457	6.33384
718.75000	18.70953	-1.23569	-1.01530	8.63301
722.65625	18.68387	-1.23690	-1.01473	16.90305
726.56250	16.20042	-7.68498	-1.81997	23.06610
730.46875	14.56459	-8.89494	-0.61059	24.92206
734.37500	15.96634	-0.03155	-1.41587	34.48756
738.28125	15.59794	7.62289	-2.22111	43.85845
742.18750	10.86773	6.41282	-2.22053	50.63542
746.09375	3.37437	2.78520	-3.42875	54.91324
750.00000	0.68429	1.97808	-5.03994	58.75230
753.90625	3.70510	-3.26121	-6.24819	60.23975
757.81250	4.39588	-3.66528	-5.03881	52.03130
761.71875	1.44078	-1.65179	-2.62064	41.19923
765.62500	3.87752	-1.65296	-3.82890	30.77087
769.53125	4.95692	-0.44533	-4.63418	22.94075
773.43750	5.52827	-0.04359	-9.06587	11.87653
777.34375	12.50142	-0.04478	-11.48289	3.74215
781.25000	17.79751	0.35699	-8.25888	5.91392
785.15625	18.91671	0.35582	-5.43777	10.26211
789.06250	16.10405	-0.85413	-6.64598	11.36860
792.96875	31.51354	1.15942	-7.04834	19.95668
796.87500	44.74897	-0.45348	-5.03314	24.31070
800.78125	47.03905	-3.27508	-3.82380	28.58666
804.68750	49.29514	0.35013	-3.01741	39.31298
808.59375	46.21651	-3.68033	-0.59931	42.56955
812.50000	53.46004	-5.69611	3.83344	48.22562
816.40625	56.41288	-1.66792	1.81932	44.03890
820.31250	46.44980	-2.47491	-0.59776	33.46441
824.21875	45.04614	-0.46147	-0.59726	32.08958
828.12500	48.15430	0.34323	-1.80556	34.74488
832.03125	48.00326	-2.88136	-1.80507	33.43056
835.93750	46.68853	-7.31467	1.41885	29.89536
839.84375	48.26035	-8.52466	0.61348	34.64883
843.75000	44.04203	-7.31706	-1.40068	32.90512
847.65625	38.84261	-10.54167	-0.59432	27.37680
851.56250	42.54739	-5.70771	-0.59386	25.94420
855.46875	42.17058	-0.06776	-0.59342	24.60048
859.37500	31.51409	-0.87475	-0.19002	25.29047
863.28125	25.32582	-4.50222	-2.60718	22.00665
867.18750	29.96733	-4.90628	-3.41255	14.81756
871.09375	29.03855	-4.90741	0.61721	11.66850
875.00000	27.95247	-6.92321	-0.18822	15.26977
878.90625	21.59159	-5.31261	-3.41119	14.65830
882.81250	18.30667	-1.68747	-3.00779	12.68251
886.71875	26.36388	0.32605	-4.61901	12.37132
890.62500	28.03071	1.93665	-5.42440	11.55964
894.53125	29.01833	-0.07914	-3.40923	11.58392
898.43750	27.35426	-2.90083	-4.61757	9.60569
902.34375	21.77087	-3.70781	-3.81129	9.76031
906.25000	20.77928	-2.09722	-5.82546	7.13604
910.15625	24.62046	-0.48666	-11.06308	4.26452
914.06250	18.37577	-1.29361	-5.82451	3.07646
917.96875	10.92486	-1.29471	-1.79469	1.67559
921.87500	15.56755	1.92762	-3.80885	-1.67523
925.78125	18.04820	4.74701	-5.82300	-0.89733
929.68750	17.20044	3.94009	-8.64299	-2.96360
933.59375	15.77209	-0.09030	-5.82201	-4.60223
937.50000	17.42964	-2.91193	-4.20981	-2.67973
941.40625	20.64391	-3.31589	-5.01529	0.53133
945.31250	13.33381	-3.31699	-3.80604	3.57297
949.21875	6.98360	0.71120	-2.99967	0.75367
953.12500	13.95921	4.33642	-2.19325	1.04771
957.03125	10.20123	-0.09691	-2.99867	1.38187
960.93750	10.40148	-0.90396	-5.01284	3.88505
964.84375	13.48302	1.51249	-6.62403	7.64370
968.75000	13.71593	-0.50327	-5.01182	5.74411
972.65625	8.10531	0.70447	-2.19074	7.54408
976.56250	3.34072	-2.52000	0.63023	12.25681
980.46875	14.24860	-7.75920	1.83951	17.65034
984.37500	14.46322	-5.34276	5.06345	18.96075
988.28125	8.38939	-3.73222	3.45218	9.58670
992.18750	5.06571	-6.55387	-2.59132	12.87988
996.09375	9.74334	-8.56972	-0.97913	33.58054
1000.00000	19.28796	-0.10931	1.84192	50.69069
1003.90625	3.37816	3.51594	0.63360	39.93272
1007.81250	-28.73640	-2.12616	-0.17180	11.47125
1011.71875	-44.31136	-11.39471	-0.57432	-0.26415
1015.62500	-45.93737	-7.76951	3.05249	2.50507
1019.53125	-54.26469	-2.93550	0.63532	-3.36798
1023.43750	-72.15723	-7.77171	-6.61695	-20.10950
1027.34375	-96.04865	-4.14641	-12.66038	-36.15467
1031.25000	-110.60726	-5.75936	-10.24243	-44.77704
1035.15625	-111.31863	-6.16344	-4.60087	-60.81384
1039.06250	-106.48637	5.11746	-3.79453	-79.65302
1042.96875	-109.80316	15.59253	-3.79407	-91.06535
1046.87500	-115.37807	8.33864	-3.79362	-102.27314
1050.78125	-115.64868	3.90525	-7.41948	-108.97071
1054.68750	-118.30293	13.17152	-10.64256	-114.06007
1058.59375	-125.29282	10.75277	-11.04507	-118.52956
1062.50000	-123.66705	8.33410	-11.04466	-117.74292
1066.40625	-120.57107	5.10958	-5.80614	-116.38098
1070.31250	-119.06464	3.49671	-2.58226	-117.09283
1074.21875	-119.26788	-1.33953	-6.20821	-110.88715
1078.12500	-112.70081	-2.54943	-6.61069	-101.05593
1082.03125	-102.87460	7.11978	-5.80445	-94.10499
1085.93750	-100.34608	7.52155	-7.81870	-85.73886
1089.84375	-93.85432	3.49112	-7.01244	-69.94708
1093.75000	-83.98996	2.68408	-9.02671	-54.91080
1097.65625	-74.75637	-5.37572	-11.04096	-43.74563
1101.56250	-58.71257	-11.01793	-10.63762	-32.64692
1105.46875	-53.09259	-4.57209	-8.62251	-22.03998
1109.37500	-51.29556	4.69426	-9.42795	-13.06397
1113.28125	-40.26726	4.29021	-8.62167	-8.97876
1117.18750	-34.02479	1.06572	-0.15979	-0.18234
1121.09375	-20.19740	0.66159	3.86986	10.21500
1125.00000	-11.85379	0.66037	4.27312	14.66791
1128.90625	-8.71164	-3.77304	8.30278	22.93073
1132.81250	2.63672	-12.23572	10.72078	34.97544
1136.71875	2.23986	-14.65435	7.49774	32.86470
1140.62500	-5.06335	-9.01449	0.24538	29.64266
1144.53125	1.60943	-3.77751	-3.78354	31.22575
1148.43750	4.48698	-5.79328	-3.38023	26.75279
1152.34375	5.23993	-6.19727	-1.76821	29.41432
1156.25000	10.26551	-4.98954	2.26143	36.86939
1160.15625	10.86139	-2.17003	3.87350	36.11026
1164.06250	11.06696	-0.15642	2.26206	34.47350
1167.96875	15.29934	-8.21616	6.69463	43.12286
1171.87500	19.12300	-15.87289	4.68033	53.31913
1175.78125	17.45303	-11.84474	0.24843	60.59553
1179.68750	14.27635	-3.78726	3.87519	65.47807
1183.59375	12.48616	-0.16202	4.68137	71.94759
1187.50000	5.01281	-4.99838	1.05528	74.82546
1191.40625	6.82704	-3.79074	1.45851	77.27020
1195.31250	17.27097	2.25203	3.87642	81.10867
1199.21875	18.13596	-0.56963	3.87673	81.91341
1203.12500	13.64757	-1.77953	4.68291	76.74841
1207.03125	12.33649	-6.61583	4.28028	67.52007
1210.93750	8.69196	-12.66103	0.25135	56.56571
1214.84375	10.66845	-11.85641	-0.15114	45.98852
1218.75000	13.36187	-3.79901	0.65508	38.62614
1222.65625	8.62250	1.43797	1.05831	31.15237
1226.56250	11.22618	-1.38363	4.28208	23.18344
1230.46875	12.59061	-0.17590	7.50593	20.21330
1234.37500	8.88606	0.62887	7.50629	20.14330
1238.28125	9.76677	4.65704	5.89487	18.64880
1242.18750	9.23267	1.43247	-1.35763	16.53518
1246.09375	10.94733	-4.61260	-3.77496	13.93136
1250.00000	14.49742	3.04200	7.50738	14.55112
1253.90625	7.89950	5.45846	7.91057	9.62592
1257.81250	2.51652	1.83096	1.46396	-0.98133
1261.71875	6.20837	0.21813	1.06133	-1.76194
1265.62500	13.91647	-1.79756	2.27042	3.08774
1269.53125	16.83324	-11.46895	0.65903	-0.71340
1273.43750	21.81586	-5.42610	4.28566	2.76147
1277.34375	19.01064	1.01968	5.09185	2.70925
1281.25000	14.05050	-7.44309	2.27162	-1.98567
1285.15625	18.92125	-6.63841	2.67484	-2.10400
1289.06250	19.59955	-4.62490	5.09272	-6.24112
1292.96875	20.82185	-5.83475	8.71938	-3.66574
1296.87500	15.32963	-1.00067	7.91383	-3.71673
1300.78125	13.41394	2.62464	5.89947	-4.69123
1304.68750	19.51077	0.60890	1.46748	-5.28189
1308.59375	21.99140	-0.60102	-0.14399	-4.85643
1312.50000	23.45633	2.62132	1.87087	-0.78403
1316.40625	19.27721	1.81433	2.67693	1.90903
1320.31250	19.20374	-1.00732	3.08013	1.80296
1324.21875	20.51638	-3.02308	2.27448	-0.00975
1328.12500	19.98028	-2.21829	5.09529	0.61514
1332.03125	14.81505	-3.83111	3.88675	-1.48046
1335.93750	8.29110	-2.22046	3.48409	-6.99794
1339.84375	15.70269	4.22527	5.90199	-7.08217
1343.75000	23.14305	7.44760	3.48465	-4.83060
1347.65625	26.05767	5.43183	1.87320	-8.76735
1351.56250	30.36057	0.99846	1.47047	-8.97030
1355.46875	29.51713	-0.61453	-0.54395	0.59926
1359.37500	25.87556	5.02535	1.47094	8.54473
1363.28125	25.77509	7.44179	6.30637	16.91376
1367.18750	22.89719	1.79968	5.50079	29.04109
1371.09375	21.74523	-1.02197	1.87468	36.78715
1375.00000	22.51902	0.58867	5.09835	42.03506
1378.90625	19.90376	2.19925	5.09862	53.51878
1382.81250	18.73749	7.43618	0.66666	60.37711
1386.71875	22.98815	4.61452	2.27861	58.82904
1390.62500	24.42994	-1.02768	5.09934	60.44617
1394.53125	23.56325	0.58293	8.32289	59.29713
1398.43750	19.14072	3.80527	9.93485	47.66142
1402.34375	20.56044	3.40114	8.32331	31.26928
1406.25000	21.89650	-5.06160	8.32349	16.52669
1410.15625	18.27132	-9.89795	9.93544	6.40887
1414.06250	22.58061	-5.86978	9.12979	-3.20550
1417.96875	24.79463	2.99361	6.71246	-12.64743
1421.87500	23.58378	7.42470	6.30981	-17.22988
1425.78125	29.29033	2.58845	6.31006	-17.29038
1429.68750	27.44816	-1.44197	4.29561	-21.77294
1433.59375	27.23086	2.18322	6.31042	-26.19798
1437.50000	29.61309	-0.63845	10.74282	-27.47687
1441.40625	26.19228	-9.10121	9.13132	-32.74580
1445.31250	22.60315	-13.93759	3.08759	-36.99096
1449.21875	24.56371	-7.49189	1.07307	-38.20233
1453.12500	27.04244	3.78893	2.28204	-35.05580
1457.03125	25.13511	5.39940	-0.13536	-39.12807
1460.93750	24.75539	2.98062	-2.95576	-45.90643
1464.84375	31.24551	3.38232	-1.74683	-41.77980
1468.75000	32.58657	2.57528	0.67089	-34.82378
1472.65625	30.48129	2.17115	5.10326	-31.38268
1476.56250	31.91180	-0.24753	4.29752	-35.50494
1480.46875	28.94055	1.76592	4.29768	-32.13497
1484.37500	25.80032	2.16756	12.75939	-25.62121
1488.28125	23.31294	-0.65417	15.58003	-29.36779
1492.18750	15.79350	-2.26708	12.75966	-33.30106
1496.09375	16.90460	-4.68587	10.74514	-33.52057
1500.00000	23.83595	1.75989	5.91015	-32.12848
1503.90625	23.18640	3.77339	4.70146	-28.81777
1507.81250	17.29272	-6.70404	5.10451	-29.49527
1511.71875	16.02399	-4.28772	-0.13343	-33.95544
1515.62500	15.17128	10.61936	-0.13331	-29.94330
1519.53125	16.69234	15.05034	2.28432	-24.53303
1523.43750	23.40034	14.24323	2.68733	-21.96644
1527.34375	20.57028	11.42140	4.29910	-22.31964
1531.25000	20.29807	5.37624	4.70215	-21.65647
1535.15625	21.07417	2.95747	4.29926	-17.91427
1539.06250	17.98409	5.77678	0.67299	-16.60035
1542.96875	17.97640	6.17846	4.29937	-14.74630
1546.87500	21.05681	2.14791	6.31409	-15.90703
1550.78125	21.76947	-0.67383	3.89661	-15.33841
1554.68750	22.52830	-2.28676	2.28494	-12.73623
1558.59375	22.47095	0.12958	2.28500	-9.53865
1562.50000	17.38537	-3.09512	1.47921	-12.80878
1566.40625	9.88525	-4.70804	-1.74414	-15.10247
1570.31250	10.77025	2.94642	2.28525	-7.74741
1574.21875	16.31306	7.37736	7.12053	-7.95303
1578.12500	16.85475	6.16730	3.89712	-7.37290
1582.03125	15.17591	5.36023	1.07663	-4.87816
1585.93750	16.46756	5.76200	5.10600	-7.02010
1589.84375	13.09102	6.56667	-0.13211	-11.77466
1593.75000	6.86509	8.17718	-5.77314	-14.83586
1597.65625	0.32976	8.57890	-1.74377	-14.93216
1601.56250	-5.17634	7.77188	2.68855	-13.92683
1605.46875	-5.53610	5.35306	4.30032	-14.63581
1609.37500	-11.15627	4.14307	1.47988	-18.95863
1613.28125	-11.45306	2.93315	1.47993	-7.58786
1617.18750	-18.23975	2.52898	4.70348	0.83043
1621.09375	-21.51441	4.94535	5.91236	5.16822
1625.00000	-15.43287	10.58509	3.09187	9.98940
1628.90625	-30.13799	10.98687	1.07715	7.36584
1632.81250	-41.45712	4.13586	-3.75800	10.17347
1636.71875	-44.89640	5.74640	-5.77258	9.70264
1640.62500	-47.54152	7.75982	-2.14608	13.72247
1644.53125	-46.66941	2.11749	-2.54900	19.29981
1648.43750	-50.70302	8.16030	-4.96657	16.82907
1652.34375	-52.11739	8.96500	-4.56359	17.50313
1656.25000	-47.40422	10.97845	-6.98117	20.95991
1660.15625	-42.96797	15.81240	-3.35475	19.79196
1664.06250	-43.24262	15.00532	1.88331	18.92630
1667.96875	-42.63096	14.60115	-3.75776	20.30571
1671.87500	-36.57974	10.57066	-6.98117	18.43721
1675.78125	-32.20784	5.33138	-2.95181	9.22641
1679.68750	-34.38976	7.34478	-2.95179	-1.20346
1683.59375	-36.58490	6.53777	-4.56350	-8.46724
1687.50000	-34.93261	2.50737	-1.74301	-12.02743
1691.40625	-33.11835	2.90920	0.27165	-16.83568
1695.31250	-30.32998	3.71396	0.27164	-16.62378
1699.21875	-23.82392	5.72749	-4.96647	-15.01345
1703.12500	-15.82122	8.94985	-5.77232	-10.10548
1707.03125	-15.92355	7.33700	0.67460	-4.82843
1710.93750	-24.80616	3.30661	2.28634	-10.54483
1714.84375	-17.59145	6.93188	1.07760	-6.61675
1718.75000	-2.40721	6.93073	-1.33988	2.13779
1722.65625	-0.29676	4.10906	-1.33984	3.12534
1726.56250	1.09839	4.10793	5.10710	5.22956
1730.46875	1.25432	-4.35467	7.52471	5.48291
1734.37500	0.37049	-10.80271	7.52471	7.83054
1738.28125	4.87778	-5.56572	9.53937	7.14213
1742.18750	8.77613	-2.74628	7.92773	9.86395
1746.09375	5.25276	-6.37373	3.89850	11.28968
1750.00000	1.95304	-6.77776	2.28682	11.10401
1753.90625	3.01089	-8.79350	3.09277	13.02914
1757.81250	6.89527	-7.18293	4.30152	16.52486
1761.71875	12.60163	-7.58698	6.31614	19.77394
1765.62500	9.83334	-9.19983	5.91321	10.92434
1769.53125	5.90012	-6.38040	7.92784	7.12345
1773.43750	18.94130	-6.38152	9.94251	10.59861
1777.34375	28.62684	-9.60604	11.15131	8.53209
1781.25000	27.29301	-10.81596	13.97181	5.85223
1785.15625	25.31381	-6.38486	14.37476	4.92852
1789.06250	29.61845	-6.38601	16.38939	7.23879
1792.96875	25.19967	-13.63998	14.37472	3.36761
1796.87500	19.30450	-10.41771	8.33072	-6.35341
1800.78125	17.79162	-5.18077	6.31610	-4.50701
1804.68750	20.66487	-3.16728	7.12207	-1.87380
1808.59375	25.56299	-1.15380	7.52498	-4.26824
1812.50000	26.62489	0.05380	9.94256	-4.62710
1816.40625	25.66914	-1.96204	9.94255	-2.73916
1820.31250	23.98389	-5.99254	7.52495	1.58792
1824.21875	24.89363	-1.56154	9.53957	0.98471
1828.12500	24.76048	-0.75694	7.92782	-1.61303
1832.03125	21.60987	1.25653	6.71900	4.75365
1835.93750	19.92098	4.47878	12.36008	10.92182
1839.84375	18.06512	0.04537	11.95719	7.61464
1843.75000	19.05864	-2.37334	10.34555	10.67272
1847.65625	20.36150	-3.58333	10.34555	16.40686
1851.56250	19.42634	-2.77866	10.74840	12.98077
1855.46875	25.43265	-4.79446	11.55417	12.47762
1859.37500	30.25249	-7.61609	7.52482	16.39425
1863.28125	34.58422	1.24718	5.10722	15.49634
1867.18750	32.91495	2.85774	6.31594	17.14804
1871.09375	26.52488	-0.36686	7.92770	18.04495
1875.00000	24.07521	1.64661	9.13655	10.80289
1878.90625	18.23649	1.64547	7.92782	6.57335
1882.81250	19.08492	2.45014	7.92788	6.18010
1886.71875	24.94731	1.24003	8.33076	2.21538
1890.62500	21.55403	1.64169	5.51021	0.20685
1894.53125	22.70201	5.66978	5.91313	1.07305
1898.43750	25.93517	8.89203	9.53945	2.73443
1902.34375	26.54903	6.87617	7.52483	-2.37525
1906.25000	23.45302	4.05440	5.51021	-9.05895
1910.15625	21.03680	6.06786	5.10732	-7.08861
1914.06250	21.71988	6.06671	4.30140	-6.22645
1917.96875	23.93418	4.85682	2.28669	-6.80375
1921.87500	26.75276	2.03505	-0.93685	-5.34202
1925.78125	21.98326	3.64561	2.68948	-4.99941
1929.68750	14.50030	4.45022	5.10702	-7.46703
1933.59375	13.07446	1.22556	6.31575	-7.45971
1937.50000	18.27740	1.62731	8.33036	-5.91791
1941.40625	19.28900	5.25248	7.92739	-1.51637
1945.31250	18.92347	8.07186	5.91269	-0.52339
1949.21875	17.25787	4.44433	6.71847	-4.95821
1953.12500	17.31913	2.42853	7.92723	-3.42327
1957.03125	18.63539	0.00975	7.92721	1.36919
1960.93750	21.47927	0.00853	9.94184	4.26139
1964.84375	25.55190	6.05122	11.15060	5.16486
1968.75000	24.87836	11.69104	10.34472	6.07700
1972.65625	25.59367	7.66051	5.50950	14.75622
1976.56250	16.14514	-0.39930	1.88317	21.11002
1980.46875	7.53295	-1.20638	4.30072	22.46511
1984.37500	6.40745	1.61299	2.68903	27.76984
1988.28125	4.32315	1.20886	-0.93735	35.30492
1992.18750	4.05666	4.02814	3.09202	41.84746
1996.09375	5.16793	10.07095	9.53879	44.85092
2000.00000	2.42905	9.66684	8.73286	48.25721
2003.90625	4.60011	5.63635	9.94157	54.38797
2007.81250	2.33280	6.44099	15.17961	50.48669
2011.71875	-2.96526	6.43982	17.19423	47.63782
2015.62500	1.01707	-1.21702	12.76198	51.24669
2019.53125	0.92639	-2.02403	8.73263	54.23898
2023.43750	-1.63307	2.81003	7.92669	55.59636
2027.34375	-1.64273	6.83815	9.53831	56.45147
2031.25000	-1.91502	8.04576	11.15001	59.53164
2035.15625	-3.15385	10.05925	9.13532	63.67599
2039.06250	1.00852	4.81995	5.10599	63.78043
2042.96875	6.23863	0.38651	6.71765	64.42522
2046.87500	6.09526	3.60877	9.94108	65.27899
2050.78125	1.16664	2.39877	6.31465	63.42982
2054.68750	-0.08950	-2.84056	5.91174	60.39107
2058.59375	1.86753	-8.88579	8.32922	55.93316
2062.50000	2.82563	-2.84307	9.13508	53.06644
2066.40625	-1.45130	5.61722	13.97021	55.60854
2070.31250	-3.38703	4.00424	13.16433	53.69703
2074.21875	2.96138	4.00303	7.12036	47.85133
2078.12500	4.71170	1.98723	6.31442	48.02949
2082.03125	3.43565	-2.84899	3.49390	45.69012
2085.93750	3.51829	-0.43257	1.07626	40.32580
2089.84375	2.96208	6.81890	5.10550	42.82503
2093.75000	5.60033	6.81767	5.50823	45.40593
2097.65625	2.69125	-2.45091	2.68763	40.47561
2101.56250	-2.41196	-2.45209	3.09056	38.66143
2105.46875	0.85460	3.99355	7.92569	40.77421
2109.37500	2.08421	1.57480	12.76086	50.95806
2113.28125	-2.64482	-2.05278	13.96966	57.09199
2117.18750	-4.59642	-0.84519	13.16371	61.88504
2121.09375	-7.06523	6.00337	9.53721	60.58299
2125.00000	-24.35355	10.03152	3.49319	40.42359
2128.90625	-36.23812	4.79222	3.49313	30.95126
2132.81250	-39.49854	3.98512	7.52241	25.70145
2136.71875	-46.96696	1.16344	7.11946	12.74095
2140.62500	-47.59741	2.77401	5.10474	3.46532
2144.53125	-39.87538	9.62264	3.89588	5.82040
2148.43750	-38.67061	-1.25766	1.47822	6.97739
2152.34375	-37.26428	-4.88524	-0.93939	-4.03226
2156.25000	-36.98318	1.15746	-3.35696	-17.90027
2160.15625	-34.15834	2.36503	-4.96883	-23.09633
2164.06250	-32.41812	3.16967	-0.53667	-19.52855
2167.96875	-35.43256	-0.45781	2.28375	-14.11858
2171.87500	-34.61911	1.95856	-0.13388	-8.73302
2175.78125	-30.64981	-2.07198	2.68653	-3.43709
2179.68750	-26.38457	-8.11712	10.74503	3.46022
2183.59375	-30.59390	-4.49186	10.34208	7.07659
2187.50000	-31.35872	1.55089	7.52151	0.29395
2191.40625	-25.11180	6.38486	6.71560	-12.57193
2195.31250	-25.54648	6.78662	4.70090	-28.07335
2199.21875	-29.51611	9.20296	2.28325	-43.78811
2203.12500	-25.13954	7.99299	3.49202	-46.93791
2207.03125	-11.94463	3.96243	8.32711	-42.86889
2210.93750	-12.76814	1.14070	7.92410	-43.34645
2214.84375	-12.80578	-0.06937	4.29751	-42.64108
2218.75000	-9.30607	-0.87646	3.08862	-41.54139
2222.65625	-13.64207	-2.48936	4.70018	-41.35909
2226.56250	-14.66415	-1.68467	3.49124	-41.26895
2230.46875	-10.88156	-5.31222	-0.13527	-44.64164
2234.37500	-14.18271	-7.73096	0.67046	-45.92002
2238.28125	-8.86939	-2.89701	3.89377	-45.80231
2242.18750	-2.15031	0.32525	3.49070	-41.87162
2246.09375	-2.04698	1.53289	2.28178	-31.17845
2250.00000	0.69758	-2.49762	2.68459	-18.47043
2253.90625	0.14406	-2.09594	1.07274	-9.29276
2257.81250	-0.40340	1.52925	-1.34491	-5.79724
2261.71875	-7.99326	-0.08371	-1.34499	-2.14537
2265.62500	-7.13462	2.73563	-0.53924	-4.95118
2269.53125	3.43808	4.34617	-2.15104	-14.79616
2273.43750	6.00349	2.73335	-1.74823	-22.60331
2277.34375	7.22781	5.55270	0.66931	-33.53456
2281.25000	9.92350	4.34271	2.28090	-37.82657
2285.15625	7.54169	-0.49362	1.47494	-42.77994
2289.06250	7.01142	-1.30077	-3.76321	-48.52853
2292.96875	23.14237	0.30968	-3.36030	-35.07385
2296.87500	28.12663	-1.70619	3.08651	-33.51313
2300.78125	9.28806	1.51611	2.68343	-55.84324
2304.68750	-8.79074	0.70916	-6.18116	-63.68700
2308.59375	-6.71282	-3.72428	-9.00174	-61.24714
2312.50000	2.40797	-2.11373	-5.77836	-59.59252
2316.40625	0.24374	1.51155	-5.37557	-56.09406
2320.31250	-7.08228	5.53968	-4.56984	-53.78310
2324.21875	-1.74015	7.95602	-4.57001	-49.95546
2328.12500	6.18545	5.13422	-7.39066	-45.70474
2332.03125	7.06427	4.32715	-9.40550	-42.96576
2335.93750	7.79313	4.72889	-9.40563	-44.05153
2339.84375	10.77260	-0.10748	-9.40574	-42.92753
2343.75000	15.39278	-2.92910	-6.18245	-33.02057
2347.65625	18.71041	-2.52733	-6.98840	-28.09315
2351.56250	16.96951	2.30662	-12.22663	-26.68480
2355.46875	19.75259	-4.94731	-10.21210	-20.33846
2359.37500	18.12578	-12.60423	-3.36234	-12.39256
2363.28125	11.17571	-0.51750	-6.98891	-10.06678
2367.18750	14.74482	9.15160	-8.60077	-11.23532
2371.09375	12.78722	6.73281	-7.39205	-13.96433
2375.00000	5.09956	3.91099	-11.01858	-13.95318
2378.90625	8.12538	0.68639	-11.42165	-10.12359
2382.81250	17.03258	-0.12063	-8.19831	-3.26366
2386.71875	21.28348	3.10173	-2.55738	8.08344
2390.62500	20.71087	-0.52574	-1.34867	15.74572
2394.53125	18.63564	-4.55623	-2.55756	27.49154
2398.43750	16.22793	-2.54280	-2.96058	37.21215
2402.34375	14.82726	-3.75282	-2.55773	43.78801
2406.25000	12.13424	-3.35118	-6.99007	49.59574
2410.15625	9.31518	-8.59050	-6.99018	40.28457
2414.06250	5.16310	-15.03849	-2.55804	29.05919
2417.96875	2.13936	-4.16060	-6.58748	20.82687
2421.87500	6.97274	4.70272	-8.19937	13.42465
2425.78125	6.23264	-3.35712	-5.37898	9.73835
2429.68750	8.41999	-5.77578	-2.55860	12.91215
2433.59375	9.41175	-2.95645	-2.96164	14.12862
2437.50000	5.75032	-4.97227	-6.58811	6.40344
2441.40625	-0.89368	-3.36171	-7.79704	0.32927
2445.31250	-5.69123	-0.54228	-4.17079	12.60479
2449.21875	-6.55083	-0.14056	-3.36509	25.89955
2453.12500	-4.47467	-4.17101	-3.76822	33.07610
2457.03125	1.27412	-7.39553	-1.35071	45.52483
2460.93750	1.70070	-4.57606	-0.54495	51.23816
2464.84375	-6.71715	-10.62125	-2.96269	51.33625
2468.75000	-4.97293	-15.45762	-4.97749	57.08418
2472.65625	0.17481	-10.22062	-1.75416	60.52597
2476.56250	2.00866	-9.41583	-0.14254	64.05995
2480.46875	1.05245	-3.77598	-0.94856	54.53654
2484.37500	-1.28159	-0.55371	-0.54573	39.69548
2488.28125	0.26059	-8.21056	0.66294	29.90526
2492.18750	1.20302	-10.62926	3.08045	21.54014
2496.09375	-0.90901	-9.01862	4.28910	10.44182
2500.00000	-2.03596	-13.45199	1.87146	-0.25378
2503.90625	-0.26770	-12.64734	-3.76973	-3.38975
2507.81250	0.68867	-9.42504	-5.78453	-4.47000
2511.71875	1.03186	-10.23198	-1.35241	-6.91534
2515.62500	-4.65582	-9.02432	1.06504	-9.34984
2519.53125	-13.20787	-13.45777	3.48249	-10.78912
2523.43750	-13.34955	-16.68246	3.07944	-15.07207
2527.34375	-12.95609	-17.08651	0.25872	-18.64845
2531.25000	-8.39305	-12.65543	0.25859	-21.61135
2535.15625	-3.99055	-11.85064	-1.35323	-24.31569
2539.06250	-7.88645	-11.44882	-1.75630	-22.19543
2542.96875	-9.90888	-7.82353	-0.54767	-23.16129
2546.87500	-8.03727	-11.04809	1.46677	-21.50077
2550.78125	-5.30989	-6.21413	5.49588	-14.88747
2554.68750	-5.35687	1.03744	1.86936	-17.92548
2558.59375	-9.84639	1.84214	-2.56306	-15.53268
2562.50000	-7.67921	-2.59117	-1.35443	-3.08745
2566.40625	-2.68850	-10.24798	-2.96635	7.11073
2570.31250	-6.63867	-8.23444	-4.17530	13.25823
2574.21875	-9.15444	-10.65317	-2.96672	21.91827
2578.12500	-8.20974	-18.31000	-4.17567	30.96111
2582.03125	-11.09746	-13.47599	-5.38467	36.27746
2585.93750	-9.00000	-7.43322	-5.78782	40.18043
2589.84375	-3.91506	-5.82265	-5.38513	45.90291
2593.75000	-7.32062	-7.43559	-0.95319	50.09533
2597.65625	-18.28820	-11.06307	4.28467	53.62621
2601.56250	-16.94436	-12.27297	4.68743	57.85561
2605.46875	-11.66303	-3.40963	-2.96848	52.71520
2609.37500	-18.89478	-5.82833	-4.17749	45.57262
2613.28125	-18.38566	-11.06758	2.26908	48.88550
2617.18750	-11.47270	-5.83059	4.28346	48.84289
2621.09375	-12.32965	-3.01123	1.05978	48.74925
2625.00000	-15.11237	-3.81824	-3.37266	48.73608
2628.90625	-14.90892	-6.63986	-6.99930	32.41360
2632.81250	-5.27538	0.20880	-6.19364	22.32828
2636.71875	3.37344	8.26624	-1.76155	25.88757
2640.62500	-6.52430	-0.59938	3.07346	17.82034
2644.53125	-8.87542	-7.04745	7.10251	1.64030
2648.43750	-3.23843	-4.22811	0.65535	-10.49966
2652.34375	2.19732	-1.00583	-7.80646	-14.25674
2656.25000	3.68741	1.81351	-3.77747	-16.03696
2660.15625	1.27433	1.81237	-3.77776	-23.65074
2664.06250	3.41764	-6.24731	-4.58382	-20.48577
2667.96875	7.25319	-17.53045	-0.15180	-13.86690
2671.87500	11.69308	-16.32278	2.66846	-12.91324
2675.78125	8.40969	-8.66835	3.47406	-14.86965
2679.68750	13.07792	-1.01374	3.07094	-16.03040
2683.59375	16.52427	4.62619	4.27942	-14.02500
2687.50000	4.07440	7.04254	3.07044	-16.77762
2691.40625	0.65102	2.60917	-0.15329	-18.36063
2695.31250	3.84269	-2.22719	1.05522	-17.74418
2699.21875	6.31994	-7.46649	3.06968	-15.72937
2703.12500	5.86144	-12.30281	-0.15405	-13.64026
2707.03125	-0.68719	-10.28933	-3.78072	-14.40578
2710.93750	-1.10771	-15.93152	-2.97514	-18.10631
2714.84375	1.67520	-15.12674	-1.76662	-19.41521
2718.75000	3.96624	-14.72499	1.05362	-19.12102
2722.65625	4.86864	-6.66747	-0.15536	-17.32647
2726.56250	3.84678	-3.84817	1.05318	-9.17723
2730.46875	8.03264	-15.53433	-2.97635	-7.31137
2734.37500	-0.10323	-4.25338	-9.82636	-20.27419
2738.28125	-20.98001	13.07151	-8.61780	-29.82634
2742.18750	-23.12504	14.68217	-8.61808	-27.50691
2746.09375	-24.23017	13.47229	-7.40956	-22.85722
2750.00000	-27.12628	9.03893	-1.36594	-17.80448
2753.90625	-23.65018	1.78505	2.26016	-11.84972
2757.81250	-22.58566	1.78397	-0.56060	-7.95088
2761.71875	-25.74316	-3.05222	-4.18723	-7.92496
2765.62500	-34.15178	-10.70900	-7.41091	-11.93925
2769.53125	-30.42870	-12.32178	-4.99373	-9.69590
2773.43750	-22.62509	-9.90521	-2.57646	-6.62355
2777.34375	-24.62407	-1.04190	-0.56213	2.99507
2781.25000	-25.15152	5.40389	1.04924	18.04424
2785.15625	-31.96534	-1.04417	1.85480	28.40271
2789.06250	-38.94233	-5.88044	-0.56315	35.14543
2792.96875	-35.30204	-4.67274	-2.57818	35.70685
2796.87500	-26.69123	1.37011	0.64493	38.07416
2800.78125	-21.75678	5.80126	-0.56422	37.90632
2804.68750	-21.70368	-1.45259	-2.17625	37.31646
2808.59375	-18.81968	-5.88594	-4.19127	26.86374
2812.50000	-13.72800	-3.87242	-7.81803	11.19374
2816.40625	-9.44518	-1.05304	-7.01251	2.20298
2820.31250	-13.14449	-0.24840	-7.01284	-7.16915
2824.21875	-14.24890	0.95922	-7.81905	-11.80118
2828.12500	-13.17271	-0.65358	-6.20773	-22.85994
2832.03125	-15.51692	-4.28107	-6.61101	-45.10070
2835.93750	-16.80253	0.55309	-3.79088	-71.56918
2839.84375	-27.11952	-0.25390	-3.38828	-97.43976
2843.75000	-30.96059	-4.68727	-7.01504	-102.03666
2847.65625	-27.64264	-8.31487	-11.44768	-102.74872
2851.56250	-31.39788	-11.53946	-14.26858	-111.00928
2855.46875	-28.61448	-7.51124	-10.64256	-101.84155
2859.37500	-28.62935	-7.91526	-7.01657	-89.46294
2863.28125	-34.77335	-13.15448	-7.82278	-78.67532
2867.18750	-19.92197	-9.52917	-6.61433	-56.47365
2871.09375	-12.20906	-7.11265	-3.39123	-35.02675
2875.00000	-17.07587	-7.91965	-2.98879	-24.94221
2878.90625	-19.28775	-5.90616	-8.63021	-21.91842
2882.81250	-21.66231	0.13657	-11.45120	-17.47596
2886.71875	-22.24632	-3.49101	-10.24285	-7.33755
2890.62500	-21.60990	-13.96833	-9.03451	-0.88397
2894.53125	-22.47607	-8.73132	-5.81148	1.19168
2898.43750	-22.06292	-0.27089	-3.39427	5.67427
2902.34375	-22.25441	-0.67492	-5.40934	13.05611
2906.25000	-30.99102	-2.28782	-9.03618	20.87867
2910.15625	-31.39203	-11.15340	-7.42481	24.05862
2914.06250	-22.24700	-11.96040	-5.41062	33.38306
2917.96875	-18.01770	-7.12633	-6.61987	50.53566
2921.87500	-15.19866	-3.90407	-7.82910	55.22178
2925.78125	-12.71499	-4.30817	-8.23246	55.56525
2929.68750	-21.40634	-12.77085	-10.24755	58.73956
2933.59375	-29.68179	-11.96612	-7.42735	61.16545
2937.50000	-19.64338	-7.93806	-6.21909	64.72294
2941.40625	-7.34938	-11.96859	-7.42826	67.51384
2945.31250	-5.69983	-10.35811	-9.44339	65.28466
2949.21875	-8.17098	-0.68897	-12.66721	61.65709
2953.12500	-2.06545	4.95087	-13.47360	64.80516
2957.03125	1.26581	1.32340	-12.26524	67.18143
2960.93750	-0.72510	-3.91588	-12.66849	70.47791
2964.84375	5.36246	-9.96098	-9.84842	75.00910
2968.75000	11.53906	-13.18569	-5.81952	65.84940
2972.65625	6.21067	-6.73999	-10.25215	48.74260
2976.56250	-2.83462	-5.53241	-13.87887	33.74262
2980.46875	-7.82014	-10.36872	-3.80610	23.01129
2984.37500	-10.55713	-6.34058	0.62576	10.18572
2988.28125	-14.65584	-3.11827	-1.79224	6.84319
2992.18750	-19.35439	-4.73110	-2.59850	3.31405
2996.09375	-15.01944	-7.95571	-3.40474	-1.33664
