 	TP9	AF7	AF8	TP10	
-1000.00000	-1.80484	1.34139	-0.83659	4.24794
-996.09375	-2.09134	-2.03901	-0.17487	1.79322
-992.18750	-3.92107	-3.55403	-2.38018	1.99751
-988.28125	-0.97010	-1.59688	-3.58218	-1.20036
-984.37500	-2.28496	-2.14328	-2.05564	-4.62002
-980.46875	2.89065	-0.02736	-2.25162	-1.14329
-976.56250	8.87522	2.47964	-3.35891	4.74114
-972.65625	1.91589	5.12816	-5.37247	3.84558
-968.75000	4.30998	5.31776	-5.07924	5.27578
-964.84375	3.58856	4.53197	-2.21125	1.20469
-960.93750	2.73097	0.19566	-2.07000	-3.74070
-957.03125	5.71168	-0.28512	0.27210	1.20999
-953.12500	-2.31930	2.52754	2.10278	2.87770
-949.21875	-4.48488	0.98027	0.70513	2.11611
-945.31250	-3.41443	-0.45676	-1.93631	-2.22007
-941.40625	-4.69776	0.40288	-0.68983	-1.92886
-937.50000	0.10216	0.54514	-0.96687	0.86833
-933.59375	-0.51367	-0.07802	-4.94079	-2.11989
-929.68750	-5.19495	-0.10524	-3.15521	-5.03946
-925.78125	-5.96498	3.44359	0.78676	-2.80176
-921.87500	-6.09557	5.43369	-0.12079	-0.13568
-917.96875	-6.34284	6.17838	1.38649	-1.52375
-914.06250	-12.41505	0.52973	0.08574	-9.54097
-910.15625	-7.08943	-5.59758	-1.35257	-12.56664
-906.25000	-15.34157	-0.68760	-3.30742	-7.78905
-902.34375	-20.39551	2.39867	-8.81909	-8.02650
-898.43750	-9.99673	-0.30845	-4.35135	-9.99562
-894.53125	-5.38999	-0.08575	1.86691	-6.09348
-890.62500	-6.14172	3.84075	1.27401	-4.75377
-886.71875	-12.60448	4.07503	-0.92050	-7.10554
-882.81250	-9.31520	0.97280	-1.39507	-3.83802
-878.90625	-3.20305	-3.19997	-2.06120	-0.77433
-875.00000	-0.39472	-2.33138	-3.63036	-4.67611
-871.09375	-8.80192	4.43318	-2.53312	-12.62975
-867.18750	-12.25730	4.83937	-1.72245	-12.83607
-863.28125	-4.68154	3.57842	0.80086	-4.48775
-859.37500	1.95134	7.17552	2.21576	-0.04917
-855.46875	5.38803	1.44456	-1.90366	1.95938
-851.56250	3.46183	-3.42142	-0.69059	2.88545
-847.65625	5.44506	-2.42310	1.13657	2.82315
-843.75000	7.20924	-0.65894	0.19113	2.52015
-839.84375	2.24469	3.82407	0.42417	2.65756
-835.93750	1.88152	3.58342	1.00050	2.92956
-832.03125	-3.60413	2.03082	-0.85922	1.09136
-828.12500	-1.40233	4.85221	-0.80580	3.60936
-824.21875	4.60295	4.38258	-0.80217	2.28240
-820.31250	2.91730	0.85097	-1.38791	2.51308
-816.40625	5.20019	3.27679	0.24530	3.87184
-812.50000	2.23069	-0.56979	1.79104	0.92087
-808.59375	-2.17662	-3.15203	2.52197	4.43146
-804.68750	1.20333	2.59013	0.24226	4.07155
-800.78125	3.16647	2.69201	-1.20199	3.54977
-796.87500	-1.58061	-1.89512	0.26143	0.75403
-792.96875	-2.00478	0.05377	-2.01241	-2.86897
-789.06250	-0.90757	5.39439	-1.37327	0.45407
-785.15625	0.64092	4.44367	1.71655	-0.97177
-781.25000	3.39832	1.29210	-4.25115	1.74211
-777.34375	0.47496	1.36295	-4.59227	1.63228
-773.43750	2.21977	-0.53529	1.02225	1.40099
-769.53125	12.07318	-1.74466	4.83141	15.85119
-765.62500	18.63242	-2.94699	6.04085	25.43444
-761.71875	2.00403	0.28176	-0.05446	2.73473
-757.81250	-8.78116	3.78277	-5.04804	-10.41844
-753.90625	-8.87338	4.50776	-7.64416	-0.77943
-750.00000	-7.15570	8.46814	-8.68377	-1.35649
-746.09375	4.00892	15.87854	-3.70497	4.32047
-742.18750	1.40533	15.37953	-5.52954	-0.31722
-738.28125	-4.36736	13.01994	-11.17787	-8.40262
-734.37500	-5.87420	12.76117	-11.89909	-4.58116
-730.46875	0.63414	12.25761	-7.27142	0.80554
-726.56250	2.70706	17.00399	-5.76173	1.36690
-722.65625	0.39790	15.16194	-6.56924	-3.78264
-718.75000	-0.38556	15.37596	-8.07187	-1.18456
-714.84375	0.73755	18.17700	-10.53748	2.88549
-710.93750	2.80263	14.45529	-7.85878	-2.24371
-707.03125	0.62654	12.51904	-6.97806	0.05698
-703.12500	3.01543	15.34799	-5.18301	1.20864
-699.21875	7.59740	17.29888	-1.77126	1.16327
-695.31250	10.15226	17.93075	-3.15976	0.66308
-691.40625	4.58445	15.05715	-3.19800	-0.83814
-687.50000	-2.63434	14.91564	-0.50402	0.79563
-683.59375	-3.22852	12.31605	-2.97757	-0.24663
-679.68750	3.46611	9.92637	-2.74912	1.46283
-675.78125	7.86144	11.21346	2.57568	3.25320
-671.87500	6.78217	11.23870	0.66198	2.19774
-667.96875	6.62549	11.70360	-2.86060	5.59924
-664.06250	6.24940	15.33820	0.05134	7.97409
-660.15625	8.98111	12.19881	1.08609	6.56637
-656.25000	9.57639	7.69238	-0.58608	7.83150
-652.34375	11.00263	10.24772	1.29868	2.82957
-648.43750	11.88470	10.94081	6.50071	1.57403
-644.53125	13.72375	12.73341	7.93761	5.72915
-640.62500	6.01271	10.01646	2.48601	-0.44693
-636.71875	-1.22523	8.97695	0.24772	-3.73733
-632.81250	5.15459	9.66225	3.13934	-1.36503
-628.90625	2.26485	4.16535	2.59609	-1.20645
-625.00000	-0.94762	2.89448	-1.87929	-1.33517
-621.09375	3.83205	8.21843	-2.97717	0.57335
-617.18750	-2.78692	12.64812	0.64385	5.21064
-613.28125	-3.91693	11.89502	4.56685	7.74028
-609.37500	3.95450	10.71616	1.53968	2.89761
-605.46875	8.17235	12.82135	-0.78839	3.70842
-601.56250	3.65048	10.43519	0.01257	6.40753
-597.65625	-5.98956	6.21398	-1.00934	-1.58992
-593.75000	-6.14326	8.88267	-1.27322	-4.10861
-589.84375	-4.00042	7.62380	-1.10397	-1.02379
-585.93750	-2.83246	3.43275	-0.87509	-4.11745
-582.03125	-2.18300	6.59769	0.58110	-1.47455
-578.12500	3.26970	11.83559	1.33294	0.84142
-574.21875	2.09842	9.88829	1.73172	-5.89130
-570.31250	4.58863	8.18245	3.92858	1.53245
-566.40625	13.18360	10.99541	3.50353	11.05158
-562.50000	17.76370	7.99284	2.36006	12.38955
-558.59375	16.93178	4.53171	0.01678	13.30998
-554.68750	13.95361	5.64005	-1.73347	12.45998
-550.78125	5.94554	2.71833	0.91890	10.56304
-546.87500	6.25928	5.69433	3.08125	9.32831
-542.96875	3.86179	6.96948	2.93686	11.74133
-539.06250	-1.26566	-0.78806	7.53528	15.26697
-535.15625	17.33117	-0.64256	9.28002	17.90053
-531.25000	20.21364	-1.92253	7.99428	18.40891
-527.34375	20.31525	-0.38105	7.52885	20.12923
-523.43750	29.85114	4.74127	5.94296	22.37369
-519.53125	31.68142	7.96598	7.77416	21.62185
-515.62500	28.74749	5.94549	6.56413	19.29016
-511.71875	26.03424	3.92601	3.39140	21.43926
-507.81250	20.70107	1.63431	6.77274	22.90634
-503.90625	14.34515	-1.50773	5.74192	17.69842
-500.00000	14.64085	0.17339	-0.87476	9.81263
-496.09375	17.17461	0.41927	-0.21308	10.98413
-492.18750	12.12122	3.73942	2.01387	15.21758
-488.28125	11.84863	2.87599	3.63228	15.64598
-484.37500	14.56298	-1.69985	3.94991	14.64375
-480.46875	11.27691	2.43070	0.53045	12.07629
-476.56250	12.82909	2.11713	0.63195	15.54303
-472.65625	9.09304	-6.51649	-0.97870	15.05028
-468.75000	8.66654	-5.11823	-1.08836	10.83929
-464.84375	15.60075	0.13990	3.79422	11.60325
-460.93750	13.53450	-0.57003	5.14432	8.67261
-457.03125	-5.64594	0.56088	3.86007	6.77370
-453.12500	-4.81259	-2.67047	4.07904	5.62081
-449.21875	8.73609	-0.18854	3.48728	7.67968
-445.31250	8.19463	0.38893	2.86058	7.37276
-441.40625	8.52321	-1.97494	3.30120	4.84366
-437.50000	2.84707	-2.63867	1.00957	1.99986
-433.59375	0.61940	-3.66495	-1.35260	7.07028
-429.68750	3.99657	-3.28938	-2.38757	7.77709
-425.78125	3.62960	-4.57574	-5.69828	-0.46133
-421.87500	2.29054	-4.60031	-6.60578	0.19033
-417.96875	6.47573	1.38238	-2.27800	7.66698
-414.06250	10.87996	2.18060	-2.37000	8.91737
-410.15625	8.55019	-5.15559	-2.19658	3.47435
-406.25000	10.77449	0.96312	1.08667	7.84927
-402.34375	6.52673	5.25808	-2.81330	6.40338
-398.43750	1.61451	-4.70185	-2.37485	3.62868
-394.53125	6.62443	-3.67329	-1.39466	12.36639
-390.62500	7.48476	-0.95575	-1.58455	12.49771
-386.71875	7.46916	-2.33321	1.05614	9.34051
-382.81250	-0.92632	-4.62960	1.38746	5.75852
-378.90625	-6.90203	1.27074	1.12425	10.03117
-375.00000	10.81493	6.16855	1.56975	14.99409
-371.09375	14.49579	1.24820	1.05525	9.86104
-367.18750	6.20526	-6.40435	0.25417	3.20796
-363.28125	6.12531	-8.06828	-2.46070	-1.33738
-359.37500	8.72892	-2.85953	-2.65754	5.11596
-355.46875	9.34512	-0.12897	-0.73292	5.51295
-351.56250	10.64235	-0.15985	-0.32572	5.23035
-347.65625	14.23730	2.45024	-1.31900	8.39153
-343.75000	10.76353	-0.62085	-1.45861	5.67105
-339.84375	5.79921	-6.21119	-1.62851	3.79398
-335.93750	8.65949	1.60682	-5.08150	8.90126
-332.03125	11.63543	1.66599	-5.32959	6.66026
-328.12500	10.21081	-3.97426	-0.03818	1.92556
-324.21875	8.15765	-2.83223	2.78584	3.82214
-320.31250	5.66641	-3.54332	-0.21752	4.45593
-316.40625	9.15823	-2.72937	0.60984	5.00895
-312.50000	-0.66119	1.07968	1.34973	4.87868
-308.59375	-3.85966	-1.90551	1.67772	7.98628
-304.68750	18.05521	-10.26593	7.05370	20.11721
-300.78125	19.61552	-8.95528	7.62409	23.62487
-296.87500	1.16873	0.56010	-3.80626	6.72672
-292.96875	-8.11998	1.70322	-10.91529	-9.38703
-289.06250	-1.38184	0.59697	-10.67920	-12.51087
-285.15625	0.56960	3.27255	-10.00700	-8.69857
-281.25000	-9.16383	5.76193	-9.52778	-8.40213
-277.34375	-6.44603	8.25041	-6.24257	-11.33243
-273.43750	-4.29817	5.14341	-5.86614	-14.38393
-269.53125	-7.74135	2.32228	-7.29503	-15.64803
-265.62500	-10.04647	7.96979	-3.66812	-12.10883
-261.71875	-14.58699	5.55755	-5.73424	-10.22983
-257.81250	-12.88116	-0.61168	-6.69857	-5.65395
-253.90625	-6.92925	-1.49833	-4.45966	-0.85005
-250.00000	1.23546	6.08853	-4.29056	0.99045
-246.09375	-0.09063	9.06673	-4.14711	-6.22623
-242.18750	-0.27641	2.52384	-4.36004	-10.46091
-238.28125	4.83025	2.17905	-4.77035	-1.62302
-234.37500	-8.76424	6.35257	-2.26818	0.58694
-230.46875	-11.12025	9.47542	-2.47579	2.75029
-226.56250	-0.98861	8.58089	-3.38377	2.10289
-222.65625	-0.88011	4.72426	-3.78843	-6.26989
-218.75000	-3.67805	4.13243	-5.69399	-6.08935
-214.84375	-4.56940	5.72472	-4.53333	-6.85446
-210.93750	-2.50415	6.43526	-2.66059	-7.55132
-207.03125	-4.68011	3.69323	-2.58574	-7.26519
-203.12500	-7.12616	2.49303	-2.80540	-6.51624
-199.21875	-7.78198	-0.39120	-3.42304	-4.94979
-195.31250	-9.65932	-1.77392	-1.18524	-6.65873
-191.40625	-9.58598	-2.63282	0.79109	-8.16002
-187.50000	-7.94026	-3.98306	-1.75315	-8.94380
-183.59375	-12.56365	-6.17963	0.60835	-4.74807
-179.68750	-9.89822	-4.94297	0.43385	-5.85901
-175.78125	-4.69705	-4.86467	-0.68830	-6.88915
-171.87500	-5.37344	-7.65996	1.42726	-5.12425
-167.96875	-3.51545	-7.59802	-0.48361	-6.55796
-164.06250	-2.68240	-9.20136	-2.80990	-2.16835
-160.15625	0.45239	-5.89390	1.04535	1.66201
-156.25000	-6.60793	-5.56509	2.59656	-1.10205
-152.34375	-14.44907	-12.68001	0.85485	-1.67178
-148.43750	-10.74665	-12.38971	0.81870	-0.10690
-144.53125	-6.89305	-11.00002	1.04666	-2.80162
-140.62500	-6.14269	-13.71698	-0.77874	-4.94859
-136.71875	-7.73979	-13.54752	-1.80840	-5.82164
-132.81250	-7.80687	-16.08558	-2.14043	-5.86709
-128.90625	-6.26451	-17.15008	-0.26625	0.33532
-125.00000	-6.25370	-10.76510	-4.33886	0.20632
-121.09375	-5.10059	-9.06740	-9.06331	-3.92928
-117.18750	-0.43755	-11.89045	-1.41312	-2.91849
-113.28125	2.05890	-9.41994	0.49511	-0.79197
-109.37500	3.48347	-8.58414	3.10886	0.40917
-105.46875	1.25433	-11.31402	6.01873	1.21977
-101.56250	-3.67043	-14.10302	3.59608	1.50121
-97.65625	-5.25179	-12.28009	0.55950	-0.85524
-93.75000	1.04141	-7.19379	-2.12208	-2.16523
-89.84375	-12.12715	-7.24384	-0.34121	-1.49809
-85.93750	-11.36207	-4.18202	3.11104	1.85499
-82.03125	5.00165	-5.04631	3.35840	-1.14325
-78.12500	0.78418	-11.49334	-1.12790	-5.27415
-74.21875	-1.19293	-11.42594	-2.34091	-3.14248
-70.31250	1.70028	-8.29657	0.25882	-2.16567
-66.40625	2.63961	-5.88638	-0.56924	-3.52568
-62.50000	0.77302	-6.06844	-2.92162	-3.79950
-58.59375	-2.47632	-8.72356	-2.04154	-1.26734
-54.68750	-7.87202	-12.04742	-2.18016	-0.50564
-50.78125	-10.23907	-11.74562	-2.75120	-8.04366
-46.87500	-9.11936	-8.36662	-3.00650	-10.08427
-42.96875	-5.06994	-3.86798	-1.94213	-8.88006
-39.06250	-7.37695	-3.96972	-4.59655	-8.98071
-35.15625	-7.31466	-7.04761	-6.07524	-5.94429
-31.25000	2.01494	-6.71582	-4.13759	-5.83889
-27.34375	2.51958	2.88433	1.03808	-0.49222
-23.43750	-3.25565	4.78325	0.25809	5.78161
-19.53125	11.46855	-5.69161	-3.95465	2.20936
-15.62500	4.50533	-9.72669	-2.74717	-1.33106
-11.71875	-9.49004	-3.68742	-1.48768	0.41504
-7.81250	-3.94413	-3.15859	-2.94161	3.49378
-3.90625	3.80241	-4.68887	-2.36069	3.92684
0.00000	9.33625	-1.39592	-0.11291	4.09978
3.90625	12.27305	2.47637	-0.66009	11.31529
7.81250	20.51652	3.78188	-4.47721	19.57814
11.71875	15.81186	0.90392	-2.45588	11.94793
15.62500	-6.45549	-3.26888	-0.12367	-7.99198
19.53125	-14.57668	-5.98816	1.29196	-13.37990
23.43750	-10.20399	-6.30175	3.40802	-9.10730
27.34375	-14.74584	-8.48836	0.99144	-14.03239
31.25000	-18.79872	-9.50766	2.49337	-15.42291
35.15625	-9.44687	-6.26410	-0.68271	-11.83847
39.06250	2.58943	-5.76527	-2.95907	-6.71048
42.96875	10.00232	-7.05185	0.99466	1.46378
46.87500	3.98572	-4.64222	2.01941	9.17527
50.78125	3.43186	-1.35439	1.42751	7.20473
54.68750	8.12856	-3.59740	2.41242	7.70365
58.59375	6.44244	-1.93200	4.06179	9.20377
62.50000	10.03361	1.83649	5.39650	10.38931
66.40625	7.80614	-0.39853	2.22836	10.22166
70.31250	6.75146	-2.44043	0.38749	6.09340
74.21875	-4.09188	-3.32402	-0.50571	0.27255
78.12500	-6.64002	-5.36323	-1.41325	-0.28485
82.03125	4.39469	0.61943	1.30281	2.75935
85.93750	2.75494	0.61181	2.41957	-3.64591
89.84375	2.03700	-3.90385	-1.83914	-4.65651
93.75000	-1.37959	-1.81442	-6.21157	-7.53418
97.65625	-6.43296	-3.56336	-3.66467	-10.99448
101.56250	-3.28633	-0.22654	0.80306	-1.68098
105.46875	-13.18466	0.80200	2.99201	-5.43388
109.37500	-8.69767	-3.33012	1.59324	-11.34629
113.28125	-11.13063	-3.49879	-0.60128	-7.25055
117.18750	-17.51109	-0.15417	-0.67293	-3.98239
121.09375	-2.13098	-0.70061	-0.93609	-4.14156
125.00000	2.69264	0.16795	-1.69940	0.41878
128.90625	-0.07291	-1.12608	0.20376	-1.89337
132.81250	1.30717	-3.54052	2.22314	-3.71094
136.71875	0.42156	0.43663	0.71705	4.63775
140.62500	-3.01860	-1.20445	1.32609	3.43577
144.53125	3.23884	-2.90619	6.47402	-0.19632
148.43750	1.71585	-2.93707	3.25481	-4.91104
152.34375	1.68460	-4.75924	-3.78251	-4.57016
156.25000	5.06081	-2.18933	0.10709	1.57399
160.15625	-7.96194	-1.73569	1.95181	-3.12354
164.06250	-5.50447	-2.37923	-0.29242	-4.06006
167.96875	1.90388	-1.11138	-0.13761	0.14588
171.87500	-3.95274	-2.72229	-0.08431	-2.97694
175.78125	-6.81185	-3.59489	-4.51300	-3.09495
179.68750	-6.07965	-2.69430	-3.08420	1.97110
183.59375	-2.99075	-0.26855	1.77245	-3.51977
187.50000	-12.81013	-1.29467	0.09466	-12.51455
191.40625	-1.90599	-1.86229	2.84020	-5.37748
195.31250	8.72696	-1.76118	2.97806	-2.11091
199.21875	-0.99485	-5.68865	2.33959	-5.85612
203.12500	-6.14485	-1.81425	0.17653	-4.62254
207.03125	1.08674	4.56685	-4.11206	-8.24553
210.93750	4.19852	-1.37462	-1.86134	-6.53411
214.84375	-2.31175	-2.32531	1.22835	-1.11008
218.75000	0.84871	-0.64172	0.09579	-2.82838
222.65625	2.35771	-3.39136	-1.05127	-6.56440
226.56250	-3.55294	0.35140	-1.07777	-5.98945
230.46875	0.25677	-0.05217	0.71678	-1.61234
234.37500	6.81610	2.37188	2.32904	-0.49067
238.28125	6.70788	6.80950	-0.54296	-3.44679
242.18750	8.01087	0.64031	-2.31328	-5.31775
246.09375	3.48669	-2.66383	-0.88030	-4.94592
250.00000	-0.43645	1.29664	0.90052	-1.09063
253.90625	-2.16547	-0.96325	-0.97061	5.39247
257.81250	-6.38065	-4.28268	-1.98940	0.35212
261.71875	-2.07982	1.81936	0.01786	-4.50968
265.62500	-0.76576	3.57534	-1.91216	-6.32902
269.53125	0.10183	-0.55454	-1.71681	-6.58302
273.43750	-4.27187	-0.24031	-0.20726	-1.99227
277.34375	-8.59552	-4.09690	-1.01488	0.51408
281.25000	1.90340	-6.70332	0.70589	-0.11120
285.15625	3.02685	0.93296	-0.14803	-0.07034
289.06250	-1.35463	-1.57986	-9.96027	-3.58754
292.96875	-0.70996	-5.12774	-6.66197	-1.68943
296.87500	2.48496	-3.50744	2.38574	0.67118
300.78125	-0.99152	-5.98875	-1.05245	-5.41809
304.68750	-5.68930	-8.98315	-0.82933	-6.32111
308.59375	-3.19820	-6.21565	1.54989	-7.01649
312.50000	2.07405	-4.74543	1.42329	-3.77081
316.40625	4.70346	-6.53915	-1.05035	-0.38075
320.31250	-0.68953	-0.46723	-5.65709	0.92593
324.21875	-3.14398	1.22280	-4.36167	-1.31288
328.12500	-4.22328	-0.76656	-3.85784	-6.80073
332.03125	-10.02100	-1.10752	-4.15704	-2.19040
335.93750	-9.18801	-5.93431	-1.64815	0.58749
339.84375	-6.05324	-9.47656	-1.41935	-2.02895
343.75000	-1.02557	-7.53602	-1.07694	-1.56958
347.65625	6.44496	-1.75711	0.80776	2.69606
351.56250	4.50667	3.36830	-0.84011	2.24656
355.46875	-0.90688	1.13169	-5.04438	-2.46268
359.37500	1.85843	-3.59992	-3.64627	-0.98301
363.28125	8.72303	0.19577	-0.64658	0.56169
367.18750	6.23846	0.07523	-1.78437	-0.28928
371.09375	4.96043	-3.80981	-0.31308	1.88402
375.00000	0.53933	-4.67764	-1.16216	-0.66218
378.90625	-1.93371	-3.38293	-4.67773	-0.36521
382.81250	4.74391	0.64381	-0.65389	3.06328
386.71875	1.19628	1.09955	-0.76033	-2.06290
390.62500	3.02390	-3.70566	-0.96707	-3.27925
394.53125	-0.01083	-5.62964	1.13696	-0.05074
398.43750	-10.57638	3.66922	1.53492	-1.78363
402.34375	3.55667	7.10384	0.51302	-1.31945
406.25000	9.84999	-1.10643	1.05495	0.99715
410.15625	5.14323	-3.97696	0.01535	7.30556
414.06250	8.32610	0.69661	-0.56164	7.03255
417.96875	8.16976	3.05572	-0.31425	3.63163
421.87500	4.35519	1.44385	1.64639	7.55946
425.78125	4.39274	1.51126	2.04508	6.87065
429.68750	4.06260	4.23765	2.22728	8.25054
433.59375	3.39040	3.42434	0.99629	8.90531
437.50000	1.92667	-2.39873	-2.16189	5.00527
441.40625	5.93010	-7.87444	-2.89345	3.91120
445.31250	5.36962	-5.96022	-2.22616	6.68764
449.21875	2.19669	-0.01739	-0.37962	8.01417
453.12500	6.13693	3.36160	-0.23203	6.37652
457.03125	7.36603	1.81626	-1.58518	3.55156
460.93750	-3.40235	-0.70322	-2.62792	1.83921
464.84375	-0.92246	-0.55771	-0.07729	4.06992
468.75000	7.19829	-0.62895	3.47212	5.38418
472.65625	6.09117	1.31553	5.82722	1.86645
476.56250	2.33060	0.79682	2.62950	4.51392
480.46875	0.93748	-0.41071	-2.79213	6.17980
484.37500	4.85334	6.03036	0.02710	5.45987
488.28125	1.33417	5.62267	2.09249	6.40027
492.18750	0.43325	1.71921	2.25031	3.03217
496.09375	0.92725	0.99477	0.81661	0.24184
500.00000	-2.80623	-4.17390	0.64677	1.22066
503.90625	-5.10749	-0.70463	2.11426	2.39218
507.81250	-5.72849	0.19792	-1.29993	1.38765
511.71875	-1.97160	-2.68001	-5.32263	-1.00451
515.62500	0.33976	-4.43531	-2.18456	2.82841
519.53125	-3.34925	-9.16928	1.24567	2.67851
523.43750	-5.42345	-7.46819	2.95879	4.13055
527.34375	-3.11551	-6.43140	5.78033	9.27871
531.25000	-1.93044	-5.43610	4.86471	8.29111
535.15625	2.18320	-1.38674	6.12084	5.02568
539.06250	0.51983	-4.11136	4.24733	-0.72558
542.96875	-1.33452	-5.39799	2.15712	-1.41585
546.87500	4.33392	-3.39128	2.77898	3.87818
550.78125	2.57108	-1.71522	-1.03634	2.31059
554.68750	-3.20855	-4.36120	-3.67782	-4.44335
558.59375	-0.46254	-8.73983	-1.62557	-2.13750
562.50000	4.74038	-5.37424	-0.69377	-2.16075
566.40625	5.73643	-1.16234	-1.44425	-2.73130
570.31250	0.24949	-4.41302	-0.06165	-2.42726
574.21875	-10.59381	-6.50538	0.25392	-4.21877
578.12500	-10.72425	-2.09781	-1.05651	-1.55252
582.03125	-4.52462	-4.17379	0.45082	-0.92575
585.93750	-4.14992	-7.40497	-0.44707	-3.30188
589.84375	-5.27121	-7.48845	-2.69125	-2.70115
593.75000	-5.46480	-6.20499	-3.84024	-2.75867
597.65625	-10.11576	-5.13341	-3.30813	-7.83122
601.56250	-4.95509	-2.60257	-2.06400	-9.80028
605.46875	-11.63050	-3.99174	-2.69562	-9.12138
609.37500	-18.42619	-4.49764	-1.27388	-6.57269
613.28125	-3.13064	2.98928	-1.45373	-4.89509
617.18750	-1.05005	0.28989	-3.13724	-4.44801
621.09375	0.22689	-7.10639	-1.38583	-3.39897
625.00000	3.03527	-8.65553	-1.34330	-5.28605
628.90625	2.28386	-6.32323	-2.66357	-3.16639
632.81250	4.46945	-3.09668	-2.65883	-0.95502
636.71875	1.16609	-5.16359	-3.76199	-1.47108
640.62500	4.97845	-3.98405	-1.94421	-1.06172
644.53125	5.59465	-2.86527	-1.22850	-3.08242
648.43750	2.45965	-5.31378	-2.03008	-1.35039
652.34375	5.24873	-2.70376	-0.20295	6.64597
656.25000	3.38663	2.28374	0.46325	1.50791
660.15625	-1.17489	-2.90372	0.29334	-5.60734
664.06250	1.28245	-6.77075	0.06373	-2.91771
667.96875	1.03497	1.34693	-1.79610	-2.33825
671.87500	-0.38965	-1.87573	-4.56327	-1.43200
675.78125	5.61573	-8.79232	-4.55984	-0.34145
679.68750	6.34788	-2.25067	0.09241	1.50101
683.59375	5.81036	5.01017	-0.69196	-1.97522
687.50000	-8.03826	-0.04530	-1.96676	1.52084
691.40625	5.28334	-0.21002	7.22560	21.14860
695.31250	30.42157	6.33795	8.16934	24.41507
699.21875	15.86454	0.39584	0.27809	14.62592
703.12500	8.29692	-1.37085	0.12969	13.44203
707.03125	10.69335	3.80146	-1.33837	13.04257
710.93750	15.81988	5.91849	-2.31103	19.99211
714.84375	26.23283	6.98239	-0.83304	28.63955
718.75000	30.60201	7.86003	-1.15980	30.95054
722.65625	35.33454	7.12507	0.51365	37.28782
726.56250	37.88555	5.22688	3.30757	37.86277
730.46875	33.63679	4.01752	7.51959	38.61348
734.37500	32.94347	-1.61695	8.32600	40.94416
738.28125	33.64128	1.20899	6.25992	42.01752
742.18750	36.55607	4.30717	5.69849	43.77306
746.09375	42.10538	1.80880	6.32565	47.36841
750.00000	43.01767	2.94883	5.68893	49.20931
753.90625	42.09467	3.50946	5.02657	47.63391
757.81250	39.08856	3.01055	7.23125	44.20539
761.71875	36.94276	6.69508	6.82089	42.16444
765.62500	37.04821	5.22761	3.27916	36.71895
769.53125	23.41042	3.51529	4.28032	34.04749
773.43750	18.23102	3.82951	4.17817	30.17702
777.34375	25.59261	3.19638	2.56475	27.04258
781.25000	24.00380	0.18708	1.86800	28.43228
785.15625	27.94795	-2.65281	2.62576	26.05577
789.06250	27.19287	0.47541	4.09555	19.71824
792.96875	24.21129	3.77740	4.57332	22.82530
796.87500	27.40652	9.02414	5.15950	26.79788
800.78125	25.13914	8.15459	4.13894	23.12642
804.68750	13.18884	-0.48084	-0.07016	14.16507
808.59375	15.27709	1.88369	-2.92902	9.84357
812.50000	19.74364	2.14513	-1.84685	13.49232
816.40625	14.71750	-3.67777	0.91756	14.86782
820.31250	18.99484	-0.42639	1.95180	13.75706
824.21875	21.77862	3.68122	0.02376	13.53300
828.12500	14.25257	0.48306	-0.68114	16.10394
832.03125	5.23161	-0.26085	-1.38319	10.64113
835.93750	10.49692	1.76215	-0.08311	6.97219
839.84375	16.45230	4.26385	2.96619	8.78797
843.75000	16.64486	2.57809	3.71157	9.24750
847.65625	12.83326	-0.91037	1.56693	9.48379
851.56250	11.29797	2.20044	3.54544	11.04885
855.46875	11.52544	4.79893	4.57928	11.17478
859.37500	-1.02049	2.08199	0.73926	5.40170
863.28125	-3.42314	-0.56917	2.12712	6.14069
867.18750	6.18021	-2.30138	0.98928	6.09550
871.09375	1.27593	-3.36600	-0.76289	1.41912
875.00000	-3.95113	-0.20453	0.80558	-0.32125
878.90625	0.82854	1.49309	0.51341	1.58734
882.81250	4.68588	-0.52416	2.52254	6.62762
886.71875	6.37668	-1.27711	3.62495	9.15730
890.62500	15.45718	-0.44121	4.22397	11.56743
894.53125	15.24292	2.87285	5.92512	11.97531
898.43750	-0.56076	6.53075	6.72597	5.40707
902.34375	-1.33603	6.33893	6.10695	1.03603
906.25000	2.13678	3.76956	1.81367	2.14380
910.15625	-0.15246	7.34587	2.78872	6.43747
914.06250	0.61272	14.83989	3.82339	3.34383
917.96875	-1.96115	11.96093	0.04153	-0.86297
921.87500	1.47714	5.51391	2.40499	1.05018
925.78125	3.12651	6.38714	3.60953	1.16728
929.68750	0.37884	8.30775	2.58288	2.54724
933.59375	-5.53148	5.88260	0.54606	0.38146
937.50000	-7.39800	3.68593	-1.00046	1.71951
941.40625	-11.05026	5.86589	-0.52331	3.84885
945.31250	-11.20779	7.78010	2.56153	3.40184
949.21875	3.75114	7.67889	2.39338	3.11659
953.12500	4.87088	7.43153	0.12335	3.89661
957.03125	4.48842	8.70668	0.78471	4.29529
960.93750	0.97284	11.02238	-0.25797	-1.04330
964.84375	-4.60600	8.34735	-2.13959	-4.85675
968.75000	-4.14115	3.84388	-3.02246	-7.57197
972.65625	-4.44247	5.38532	-3.48793	-7.06059
976.56250	-7.39743	8.49291	-5.47682	-6.83092
980.46875	-5.97009	6.47935	-0.01930	-6.77707
984.37500	-0.44263	4.45877	1.99403	-5.48246
988.28125	1.67896	6.06563	-3.99927	-6.55712
992.18750	6.01580	4.17673	-2.63265	-6.29914
996.09375	8.52409	7.88437	2.38042	-1.83693
1000.00000	7.20794	13.59472	-1.41578	2.36503
1003.90625	2.08592	11.42294	-4.38060	1.52178
1007.81250	7.50878	4.26672	-0.54205	0.91999
1011.71875	10.86251	5.82087	0.67339	1.34827
1015.62500	5.51807	8.90069	-0.62078	-0.86285
1019.53125	0.62016	4.16664	0.79491	1.00181
1023.43750	-5.08047	4.65877	0.09041	-2.78442
1027.34375	-2.77264	9.32185	-1.52031	-0.85970
1031.25000	16.94707	14.34642	-1.63016	15.47864
1035.15625	10.18161	7.91953	-0.37404	15.83954
1039.06250	-18.07516	1.97138	2.99060	-3.61130
1042.96875	-14.28857	0.68465	4.52679	-15.98665
1046.87500	-16.27585	-11.41126	3.53692	-23.18358
1050.78125	-19.24738	-12.55580	2.13911	-23.13950
1054.68750	-19.78878	-6.74023	1.91521	-14.98488
1058.59375	-18.65439	-5.07486	1.95285	-15.90239
1062.50000	-22.31601	-6.94736	4.89920	-16.32869
1066.40625	-19.30558	-0.31807	5.76037	-14.48185
1070.31250	-15.92831	3.28093	3.91944	-16.19281
1074.21875	-15.48951	-4.45245	2.22031	-15.16397
1078.12500	-8.77032	-6.49186	-1.91070	-15.31837
1082.03125	-7.00329	-3.73278	2.81999	-13.08018
1085.93750	-9.85219	-5.35234	7.56309	-11.02430
1089.84375	-11.77953	-3.42123	5.31891	-5.18573
1093.75000	-10.76448	-4.15252	2.15517	-8.46713
1097.65625	-12.19209	-6.70747	-0.53614	-11.92820
1101.56250	-17.50781	-3.37078	2.31976	-11.47992
1105.46875	-6.85743	-3.14821	2.09099	-9.99549
1109.37500	-3.17718	-6.07172	-0.11375	-4.62674
1113.28125	-11.65481	-4.22589	1.72092	-6.97863
1117.18750	-14.40956	-3.70189	0.03743	-10.15826
1121.09375	-10.71519	-9.48657	0.57999	-6.28893
1125.00000	-0.25134	-10.22990	-0.58637	-3.74405
1128.90625	-0.19704	-3.86831	-4.32435	-3.63932
1132.81250	-8.48780	-5.47699	-1.09624	-5.86043
1136.71875	-0.91232	-9.96146	2.23278	-8.39142
1140.62500	2.09396	-7.57333	-0.78475	-7.98222
1144.53125	0.29242	-12.90145	-0.87492	-6.77972
1148.43750	-9.69250	-12.12645	-0.46783	-5.04795
1152.34375	-17.37990	-6.69593	-2.67009	-1.88685
1156.25000	-5.13951	-11.37879	-1.60109	-0.17532
1160.15625	2.78970	-10.11939	-0.15933	-0.44082
1164.06250	0.41171	-10.36003	0.01391	-4.19816
1167.96875	-3.86535	-10.70394	1.78039	-0.39552
1171.87500	1.15691	-5.06221	1.02774	2.52530
1175.78125	0.31234	-5.12896	1.43406	0.79533
1179.68750	0.64145	-6.24309	0.04227	1.83186
1183.59375	7.75961	-7.04074	0.46660	1.98185
1187.50000	5.59580	-7.26114	0.40054	1.44846
1191.40625	2.80019	-5.81410	-0.07748	-0.27915
1195.31250	0.53919	-6.92187	1.26915	0.97262
1199.21875	-4.75049	-8.83472	-2.59277	5.28597
1203.12500	5.81385	-6.97501	-1.53239	5.31080
1207.03125	7.80727	-6.23498	0.62592	2.09063
1210.93750	-3.58657	-6.13261	-0.34687	-1.83907
1214.84375	-3.64976	-4.66586	-0.88357	-1.25040
1218.75000	-0.89244	1.04691	-0.80737	0.65761
1222.65625	-0.18937	-4.12036	-1.95448	-4.28743
1226.56250	-2.47366	-17.70368	-4.39859	-8.54780
1230.46875	3.75332	-10.85449	-3.41004	-4.97676
1234.37500	2.25394	-5.20708	0.61974	-1.03456
1238.28125	-0.27182	-8.02216	-1.04346	-0.36431
1242.18750	0.62812	-3.71527	-3.21667	-2.23537
1246.09375	0.93907	-0.97562	-2.58954	-3.07260
1250.00000	11.52136	-3.46202	-1.21173	-0.82908
1253.90625	-1.89264	-4.91613	-3.48586	0.01291
1257.81250	-15.77812	-2.99755	-3.29586	-0.99823
1261.71875	-3.41862	0.68686	-0.07986	-1.83065
1265.62500	1.92476	-4.00411	-2.41285	-2.84418
1269.53125	-5.66922	-8.53689	-3.82925	0.12512
1273.43750	-8.83410	-2.17871	-2.31970	1.08956
1277.34375	-2.27863	-1.60310	-3.12735	-5.26852
1281.25000	-1.45016	-6.62719	-2.61542	-3.07331
1285.15625	-0.32681	-3.02029	-3.87228	-0.61490
1289.06250	3.35019	3.33129	-1.19380	3.52344
1292.96875	0.77138	4.21557	-2.32786	3.80969
1296.87500	-10.13620	-3.83452	-3.75635	1.73808
1300.78125	-14.01549	-7.92762	-1.95644	-1.93354
1304.68750	-3.80464	-4.07223	-4.15092	-0.82185
1308.59375	0.29815	-0.49893	-3.38343	2.91513
1312.50000	-0.07052	-2.65509	-0.68964	0.51969
1316.40625	-3.08205	-6.46345	-2.76044	-5.35769
1320.31250	-14.51911	-5.62964	-6.15842	-9.28903
1324.21875	-4.88568	-5.55136	-5.26600	-3.87228
1328.12500	0.07899	-3.51148	-4.35923	-1.70439
1332.03125	-2.89819	-2.24085	-4.25556	-0.72047
1335.93750	-2.46801	-5.05308	-3.76135	-1.97182
1339.84375	0.26393	-0.93978	-0.30915	1.05274
1343.75000	7.30631	4.22425	1.64496	5.13845
1347.65625	1.88307	-0.07014	-1.30566	0.53944
1351.56250	1.55652	-2.19749	-0.53602	-1.92472
1355.46875	1.78401	0.40101	-1.91982	-1.39594
1359.37500	7.77280	0.90745	-2.93933	7.73939
1363.28125	15.04048	1.88265	-1.55141	12.91053
1367.18750	3.28861	-2.67012	-2.28634	1.58337
1371.09375	-18.94170	-5.74941	-0.00920	-9.94293
1375.00000	-29.80962	-7.42320	-0.45538	-20.95063
1378.90625	-31.87975	-12.17248	-1.95634	-23.07132
1382.81250	-31.64874	-13.38374	-1.15596	-22.06029
1386.71875	-27.94334	-13.33084	1.15527	-26.78333
1390.62500	-32.56246	-11.28631	1.75437	-25.98487
1394.53125	-33.17966	-9.98696	-1.37967	-25.57690
1398.43750	-28.03099	-6.73208	-2.19055	-26.50397
1402.34375	-25.98580	-4.10332	-0.79492	-24.42804
1406.25000	-22.51294	-3.44919	-0.65602	-21.70858
1410.15625	-18.75824	-7.12563	-0.88977	-21.04148
1414.06250	-20.81345	-12.52541	1.35364	-22.12055
1417.96875	-19.76091	-7.74871	2.40686	-17.05990
1421.87500	-11.08439	-6.54012	0.33820	-10.71425
1425.78125	-5.80855	-10.09918	0.73691	-7.37346
1429.68750	-3.72084	-4.55232	0.91913	-9.21677
1433.59375	-8.42217	-2.54523	-0.71473	-12.18814
1437.50000	-6.66211	-7.56255	-0.24647	-8.43228
1441.40625	-3.86715	-6.18848	1.43957	-2.27332
1445.31250	-5.63614	-5.08023	1.30103	-0.30252
1449.21875	-3.97359	-6.79314	0.72993	-3.00503
1453.12500	-2.04775	-7.44345	2.89224	0.99863
1457.03125	0.39031	-8.58584	1.13611	-0.21435
1460.93750	-12.39262	-8.28480	0.09342	0.08811
1464.84375	-15.55358	-4.91593	2.24104	3.52772
1468.75000	-3.80632	-4.98713	1.35819	-1.60481
1472.65625	-4.91321	-8.28084	2.10153	-5.92830
1476.56250	-7.86781	-10.81420	0.91850	-10.13049
1480.46875	-8.05181	-5.97787	1.94376	-5.24103
1484.37500	-2.12106	-7.19240	3.55421	-0.72282
1488.28125	-3.22240	-10.82357	-0.82734	-1.79704
1492.18750	-3.31757	-5.45966	-4.29593	-1.53872
1496.09375	-4.03245	-2.96069	-3.31209	-6.74654
1500.00000	-7.36284	-5.71180	-4.28778	-10.60280
1503.90625	-6.84340	-7.88354	-1.61156	-8.22237
1507.81250	-12.70248	-6.17516	3.03282	-8.01815
1511.71875	-8.54264	-5.02381	2.63648	-6.38086
1515.62500	-0.99308	-2.74983	0.13343	-5.36833
1519.53125	-4.27899	-5.87209	-2.48028	-8.33865
1523.43750	-3.12965	-8.20039	-3.18483	-7.28955
1527.34375	-10.89484	-6.76077	-6.00435	-6.17057
1531.25000	-17.36524	-6.57129	-4.50247	-3.53170
1535.15625	-7.61040	-8.16305	-3.24639	-5.58820
1539.06250	-8.87071	-4.84366	-2.29937	-10.13053
1542.96875	-11.93370	-0.08636	0.84850	-2.76209
1546.87500	-6.66808	2.32333	1.47034	1.72610
1550.78125	-2.78965	1.58175	0.87842	-3.46784
1554.68750	-3.73377	-9.92873	-0.55430	-7.40107
1558.59375	-5.41977	-11.08388	-2.12843	-7.10968
1562.50000	-7.06650	-6.91243	-4.42015	-7.13293
1566.40625	-4.86158	-6.72998	-4.76777	-9.31510
1570.31250	-7.12504	-3.93678	-1.77350	-7.80232
1574.21875	-3.46275	-2.80572	-5.48725	-6.37032
1578.12500	-1.98140	-4.03915	-7.20062	-10.55393
1582.03125	-0.61691	0.73458	-1.26120	-8.31548
1585.93750	-0.24221	2.33858	-0.54740	-3.84173
1589.84375	-2.57220	-0.56548	-3.19450	-5.25555
1593.75000	21.00733	-0.49083	-1.92596	10.40118
1597.65625	27.23562	-1.03111	0.62085	23.05756
1601.56250	-3.86727	-1.72368	0.25334	-1.87852
1605.46875	-41.97105	-9.96267	0.02461	-32.22521
1609.37500	-51.18416	-16.91549	0.64037	-36.52634
1613.28125	-42.33534	-15.06958	-0.74833	-43.71305
1617.18750	-50.73085	-12.53103	-4.84939	-56.15967
1621.09375	-49.45379	-10.65998	-7.12730	-59.54278
1625.00000	-54.30099	-3.34466	-9.09940	-61.83260
1628.90625	-70.76667	0.59925	-16.06075	-72.60670
1632.81250	-70.99852	-5.44164	-16.05615	-78.05087
1636.71875	-67.85489	-11.94081	-16.35340	-77.76096
1640.62500	-72.50381	-11.16439	-22.59435	-79.36607
1644.53125	-71.48453	-6.82215	-21.87856	-76.55147
1648.43750	-61.72569	-7.25598	-19.05388	-72.80481
1652.34375	-54.10146	-5.45187	-15.21219	-64.40554
1656.25000	-54.35190	-0.46441	-14.54607	-59.87327
1660.15625	-49.64602	-2.42842	-14.71599	-56.51228
1664.06250	-40.33877	-7.90719	-10.51342	-43.34643
1667.96875	-35.75111	-13.08620	-11.56744	-40.75226
1671.87500	-32.74347	-10.26495	-11.11129	-36.62243
1675.78125	-29.55849	-7.51121	-9.89907	-26.26440
1679.68750	-22.78228	-9.83409	-8.87324	-24.42188
1683.59375	-21.30510	-7.40841	-6.43433	-24.67469
1687.50000	-17.42475	-6.01701	-6.90328	-25.20793
1691.40625	-12.96756	-7.39059	-5.76954	-18.87673
1695.31250	-11.60217	-8.49831	-3.61708	-13.99852
1699.21875	-14.07117	-7.59064	-3.85267	-19.75827
1703.12500	-19.22104	-8.55162	-3.59815	-18.52447
1707.03125	-14.00417	-7.40862	-1.84288	-16.50643
1710.93750	-4.84834	-3.67981	-2.00984	-13.98914
1714.84375	-8.53782	-6.64524	-4.15830	-8.56501
1718.75000	-9.40656	-3.75294	-1.66452	-4.23922
1722.65625	-4.27105	-0.45872	2.02359	-8.37806
1726.56250	-13.00204	-2.75991	-0.42056	-11.42941
1730.46875	-14.43038	-2.35766	-3.05840	-9.06694
1734.37500	0.59046	0.46923	-0.64029	-4.72165
1738.28125	6.12342	0.07163	1.72578	1.18682
1742.18750	-3.04970	-0.85955	1.97011	-0.28118
1746.09375	-7.57366	-2.55207	-1.02918	-1.52106
1750.00000	7.84392	-3.42682	-1.26305	0.31978
1753.90625	14.57662	-1.65747	-0.31372	0.35610
1757.81250	12.37625	-2.96229	0.27923	-3.47533
1761.71875	12.24494	-2.90421	0.27184	-6.32223
1765.62500	13.96210	-1.55130	-0.04650	-1.69458
1769.53125	14.02393	-2.45781	-0.25411	3.69252
1773.43750	6.82985	-1.74069	-1.16212	-0.58105
1777.34375	-1.11999	-1.97100	0.04488	-0.89503
1781.25000	2.12618	1.06357	1.76562	5.32976
1785.15625	0.42916	3.46169	1.31458	4.96778
1789.06250	-1.13189	-0.25997	0.36668	2.65942
1792.96875	4.75096	0.22142	-0.36445	1.33401
1796.87500	2.70803	2.24457	-3.00172	-3.15515
1800.78125	-3.58864	-2.25142	-3.61937	-4.40900
1804.68750	-6.27152	-1.61950	0.23020	3.14983
1808.59375	-6.60089	0.34211	-0.21108	-1.97754
1812.50000	-4.55190	-3.42587	-0.33782	-6.79034
1816.40625	-5.54865	-3.60781	-0.79682	-7.42948
1820.31250	-8.92693	-0.35649	-0.97144	-9.34600
1824.21875	-3.32265	0.12474	1.12981	-2.31733
1828.12500	-1.58126	-1.86472	0.02196	0.65660
1832.03125	-6.97591	-3.41454	-0.27733	-1.17978
1835.93750	-15.00719	-6.22671	-0.18604	-3.63980
1839.84375	-9.85764	-4.12800	-1.56902	-0.61510
1843.75000	1.61711	0.63299	-0.01787	1.45611
1847.65625	-3.40323	-2.45258	-0.55085	-0.32221
1851.56250	-4.13254	-2.56529	0.21881	-0.36875
1855.46875	3.75061	3.25663	2.46137	0.96600
1859.37500	2.48674	2.95727	2.24765	0.83397
1863.28125	-1.52754	2.32076	2.82963	-0.03888
1867.18750	-2.80325	4.61783	0.08002	-3.71055
1871.09375	-0.85784	-3.29663	3.56587	-3.95493
1875.00000	-0.84676	-5.77624	2.71669	-0.86021
1878.90625	-5.33450	1.96529	-2.41070	-0.16039
1882.81250	-6.31243	1.15683	0.00144	-0.76118
1886.71875	-6.23340	-1.61095	1.50676	-1.45502
1890.62500	-1.18219	0.03072	0.49404	-1.46260
1894.53125	1.02110	1.73305	-1.83425	-4.68117
1898.43750	3.34917	-0.65308	-2.64522	-6.41437
1902.34375	3.78265	1.16971	-0.44383	-1.92098
1906.25000	6.04663	7.46485	-1.11079	2.00722
1910.15625	6.57786	5.40008	0.26716	1.86857
1914.06250	-0.31271	0.00021	-0.71281	-1.22506
1917.96875	-2.88661	2.76217	-2.07722	-1.80559
1921.87500	2.16338	5.98535	-1.72836	1.31633
1925.78125	3.00689	3.23213	-1.32971	1.43328
1929.68750	-0.94974	3.13798	-0.74464	-0.00736
1933.59375	-2.42790	5.54794	-0.36404	-0.15859
1937.50000	-0.26518	3.75405	-2.31347	-3.65576
1941.40625	3.73824	1.90463	-3.85093	-5.55583
1945.31250	6.40113	2.20697	-3.58670	-3.58545
1949.21875	-7.24795	2.50856	-2.54612	-2.25902
1953.12500	-14.18691	4.27568	-1.99560	-1.47907
1957.03125	-4.89925	-0.89620	-0.93129	-3.09527
1960.93750	-7.20609	-3.81862	0.04061	-7.62817
1964.84375	-4.72620	1.56489	-0.63239	-8.21802
1968.75000	-2.24648	0.28482	-3.12699	-6.50076
1972.65625	-8.59151	-2.60607	-5.20415	-8.40679
1976.56250	-3.89052	-3.93071	-1.55208	-8.57985
1980.46875	-0.44821	-2.72078	3.09954	-6.91396
1984.37500	1.05030	-1.51795	-0.12529	-2.79863
1988.28125	0.75467	-3.94040	-3.29809	-1.45528
1992.18750	0.25671	-1.39704	-3.14040	-5.22631
1996.09375	-1.26398	-0.91275	-2.55956	-2.37567
2000.00000	-2.98270	-0.84343	-2.72942	-3.00863
2003.90625	-3.26921	0.20827	-1.66491	-5.46327
2007.81250	-5.50185	-3.72445	0.56185	-1.22979
2011.71875	-5.77433	-2.17027	-0.23748	-0.80142
2015.62500	-7.89516	2.52130	-2.74050	-7.84756
2019.53125	-3.52547	2.21953	-3.33960	-7.19166
2023.43750	-7.21125	0.69705	-0.41776	-2.91919
2027.34375	-12.55887	-4.71316	-1.22267	-4.21783
2031.25000	-9.35892	-4.52365	-4.15305	-5.60836
2035.15625	-4.84225	-0.07139	-0.88233	-7.66488
2039.06250	-4.89378	2.84502	0.06465	-4.95454
2042.96875	-3.52462	1.96121	1.19782	-0.40666
2046.87500	0.53224	1.95322	3.02840	0.05217
2050.78125	-4.45381	2.01741	0.01882	-0.30662
2054.68750	-10.63617	1.38599	1.00361	-3.03116
2058.59375	-11.11340	4.26009	5.47334	-1.53102
2062.50000	-11.55145	4.80503	4.39038	-3.56896
2066.40625	-14.98771	-0.65345	0.81922	-14.21276
2070.31250	-9.99850	-0.27788	-0.21595	-12.29704
2074.21875	-3.51563	5.28532	3.32295	-6.43294
2078.12500	-2.84024	4.45477	2.41529	-6.99012
2082.03125	-9.53439	1.57284	-0.10686	-8.78093
2085.93750	-20.44155	3.17681	1.41272	-4.71002
2089.84375	-10.28064	3.89909	3.60069	0.72599
2093.75000	-0.40092	-2.87617	3.66038	-2.55491
2097.65625	7.03620	-7.44579	5.40129	8.48988
2101.56250	27.91136	-4.91497	12.68936	25.45858
2105.46875	23.65373	0.14273	8.02827	12.84082
2109.37500	-0.87075	7.29250	-5.86150	-12.41276
2113.28125	-1.69236	6.72073	-10.07085	-12.34675
2117.18750	12.07334	7.24465	-8.12804	4.21744
2121.09375	19.39437	12.33913	-7.98852	8.08700
2125.00000	13.74141	8.77533	-6.33434	8.61760
2128.90625	10.16968	7.88404	-8.86356	13.96077
2132.81250	12.73893	10.67695	-10.98387	16.46628
2136.71875	11.51205	3.80141	-8.10880	19.33417
2140.62500	14.12124	-1.17127	-4.11357	19.83556
2144.53125	18.57730	1.73128	-2.83420	18.25094
2148.43750	15.71215	4.07905	-5.30208	14.27224
2152.34375	13.89730	4.34454	-4.07554	12.78984
2156.25000	14.47039	-0.79312	-1.87634	14.29741
2160.15625	13.99034	-3.81118	0.51582	14.50893
2164.06250	14.72214	1.34227	0.86510	13.55479
2167.96875	16.76342	4.31222	-1.42376	12.43690
2171.87500	21.13838	4.08620	1.25646	14.78332
2175.78125	12.60248	5.11641	1.55841	11.68335
2179.68750	11.00603	3.20770	-2.12778	9.96243
2183.59375	12.04459	-5.12646	-4.73947	8.03021
2187.50000	-6.34917	-2.31711	-3.59374	3.76210
2191.40625	-0.18912	1.84041	-1.43648	7.94172
2195.31250	13.57006	-0.62788	-0.21791	10.69018
2199.21875	14.43951	0.95315	2.46616	10.63083
2203.12500	13.76506	1.26354	2.51245	9.73348
2207.03125	11.24049	3.52690	-0.53528	6.37572
2210.93750	12.77115	4.85603	0.73640	7.57626
2214.84375	13.34877	3.33123	2.46853	10.11340
2218.75000	12.20674	0.71208	0.20006	4.42910
2222.65625	11.82227	1.17263	1.26542	4.55978
2226.56250	9.48988	4.51386	0.89633	8.58841
2230.46875	7.23346	2.65267	0.51890	2.00104
2234.37500	9.12245	5.31046	-0.04984	4.71838
2238.28125	9.55041	8.13100	-3.27967	6.26890
2242.18750	5.81176	2.25877	-1.62992	4.99859
2246.09375	2.09269	1.84890	2.30793	6.36654
2250.00000	1.73043	3.28457	2.74206	4.91435
2253.90625	7.74517	2.49013	-2.12997	5.38778
2257.81250	-1.18022	0.24802	-3.13255	2.85753
2261.71875	-9.90835	2.50978	0.27473	2.18463
2265.62500	7.98136	6.40762	1.68055	4.13807
2269.53125	11.16776	8.35829	1.35744	5.03184
2273.43750	8.81824	12.19624	5.49714	8.90108
2277.34375	15.88188	13.33177	4.67661	6.68993
2281.25000	4.95538	9.98772	-0.27081	-3.07614
2285.15625	-1.45772	14.96389	1.83086	-6.96540
2289.06250	-8.37800	15.85420	4.01579	-12.55707
2292.96875	-17.87597	11.86401	3.08842	-22.21189
2296.87500	-18.63579	16.36127	2.42411	-27.35807
2300.78125	-30.18281	22.68172	1.16879	-33.34758
2304.68750	-39.52671	21.47169	-1.27376	-44.67691
2308.59375	-43.21176	17.70835	-2.98771	-50.67625
2312.50000	-43.32420	25.26468	-7.34166	-52.89423
2316.40625	-55.97273	30.29306	-9.07912	-67.45049
2320.31250	-75.02762	31.32879	-5.47624	-86.21110
2324.21875	-97.36501	31.97374	-8.03889	-104.56776
2328.12500	-118.72229	29.22684	-14.82349	-123.83471
2332.03125	-124.74067	31.44370	-16.92988	-132.30261
2335.93750	-136.41551	31.35805	-20.56108	-137.75935
2339.84375	-146.49950	31.09845	-21.81353	-147.15990
2343.75000	-142.74245	31.96400	-18.86957	-151.18379
2347.65625	-146.67360	28.64640	-23.84147	-156.68878
2351.56250	-151.31960	25.96585	-25.67798	-160.10681
2355.46875	-147.94460	30.03542	-21.94410	-160.11180
2359.37500	-154.33928	29.24847	-21.64742	-154.14032
2363.28125	-145.04021	22.24859	-20.06687	-141.41409
2367.18750	-116.99823	24.42363	-17.15301	-132.31934
2371.09375	-107.34729	25.34786	-15.45649	-128.24829
2375.00000	-98.61363	27.93932	-16.04492	-114.35735
2378.90625	-87.26103	24.57485	-12.62886	-97.88234
2382.81250	-74.44401	14.11002	-5.99026	-82.51348
2386.71875	-62.74202	14.13616	-4.43393	-65.23595
2390.62500	-40.37067	19.10917	-3.59486	-47.60668
2394.53125	-18.63724	20.63928	-1.65167	-29.50310
2398.43750	-8.92337	15.06851	-3.21397	-17.86979
2402.34375	7.39590	7.95354	-0.81504	-5.91237
2406.25000	18.50664	4.22716	1.01417	5.06973
2410.15625	27.44708	1.60461	2.24741	20.97425
2414.06250	38.80204	2.89833	5.52365	37.23858
2417.96875	43.60942	-0.47419	6.19987	42.78756
2421.87500	48.50079	-4.27712	9.96567	50.51330
2425.78125	54.61807	-2.08351	10.87167	54.82095
2429.68750	57.82528	-4.20369	6.90126	55.73481
2433.59375	60.81505	-7.95702	7.49749	61.29230
2437.50000	59.46419	-8.75127	10.38010	65.15632
2441.40625	60.95882	-6.86446	9.43084	65.00479
2445.31250	60.49535	-8.42506	10.62893	66.28449
2449.21875	58.41629	-15.24376	10.76452	65.93993
2453.12500	59.49284	-13.53905	7.89683	61.19516
2457.03125	57.58419	-13.78736	6.51151	56.09024
2460.93750	48.79979	-17.53368	6.44768	55.29149
2464.84375	46.20650	-16.41142	5.11762	54.36506
2468.75000	54.60025	-16.61242	5.77354	57.22778
2472.65625	59.41599	-11.02862	8.73653	57.09596
2476.56250	56.91230	-10.34017	6.28431	54.67792
2480.46875	58.36183	-17.34296	5.85497	57.23489
2484.37500	54.86020	-18.38853	7.63165	54.51656
2488.28125	47.58149	-19.99994	5.21957	51.75621
2492.18750	52.52796	-14.12719	5.18068	57.05481
2496.09375	54.63433	-9.28466	7.28583	56.49164
2500.00000	49.75756	-17.56970	6.85088	50.69007
2503.90625	51.39761	-18.78950	5.67810	53.43904
2507.81250	55.08396	-15.33816	4.26222	48.31250
2511.71875	55.75265	-15.18196	5.68929	46.96967
2515.62500	55.18810	-14.24414	5.49135	47.02983
2519.53125	55.22430	-10.15042	2.99303	40.49397
2523.43750	50.32019	-10.36151	4.89638	40.25018
2527.34375	45.67328	-13.10827	6.11897	47.29539
2531.25000	44.91392	-8.95786	6.23034	52.62817
2535.15625	36.41769	-10.30712	4.12778	45.23441
2539.06250	23.59348	-14.42041	1.53901	37.93139
2542.96875	30.27000	-14.05601	2.86847	43.15306
2546.87500	34.65530	-16.53806	2.32316	43.46315
2550.78125	34.91924	-14.39651	0.75719	36.96092
2554.68750	25.32439	-11.97722	5.61641	37.00723
2558.59375	19.33830	-9.01920	5.71778	41.79686
2562.50000	34.76116	-9.72517	1.60941	38.77586
2566.40625	33.70918	-11.52957	1.33131	31.57295
2570.31250	32.61683	-6.11788	1.35398	31.39482
2574.21875	34.40395	-8.77705	1.90111	32.82744
2578.12500	32.39053	-13.68525	2.23793	36.78209
2582.03125	31.96115	-13.48394	3.13465	35.98162
2585.93750	28.32374	-12.18898	2.73567	30.15530
2589.84375	23.49847	-14.34653	0.36081	26.25813
2593.75000	27.79919	-11.58523	3.45996	31.08688
2597.65625	25.28254	-8.67000	1.98415	31.75577
2601.56250	19.04860	-8.80948	-0.20945	31.14353
2605.46875	23.73145	-8.44624	1.69689	30.74465
2609.37500	26.09586	-10.07635	2.20534	24.77209
2613.28125	24.85456	-7.91118	2.63853	25.74436
2617.18750	24.21096	-2.43016	1.33559	27.93061
2621.09375	26.24408	-1.74229	2.05581	29.90254
2625.00000	25.56802	-5.94509	2.24042	26.88959
2628.90625	25.89936	-4.99780	2.04698	23.71015
2632.81250	26.78087	-5.00888	3.06320	26.06906
2636.71875	23.94233	-7.04929	2.31188	24.50467
2640.62500	22.52220	-8.39550	1.06913	20.57386
2644.53125	22.14293	-5.89582	1.13978	17.78036
2648.43750	10.41299	-3.95104	-1.32806	15.41326
2652.34375	11.01564	-6.10319	-1.31028	17.15420
2656.25000	23.27391	-3.18226	0.08306	18.25889
2660.15625	23.59979	-0.55921	2.07227	16.45569
2664.06250	15.06409	-1.44960	1.61573	15.50147
2667.96875	3.00264	3.93793	1.74440	18.81576
2671.87500	8.98922	1.29445	2.81285	17.53563
2675.78125	14.15295	-4.92805	1.90596	14.03256
2679.68750	13.36213	0.01300	1.84618	14.32618
2683.59375	11.98296	-0.66554	2.05496	12.39391
2687.50000	7.69165	-6.72073	2.79779	7.72278
2691.40625	7.80772	-6.99543	1.73149	9.48469
2695.31250	16.73164	-2.21100	0.93546	18.27703
2699.21875	29.68883	5.01105	-0.81270	23.85857
2703.12500	21.76151	3.30677	-0.36352	16.91721
2707.03125	-1.31253	-9.74120	5.05028	7.91843
2710.93750	2.23268	-15.66479	9.94838	12.74541
2714.84375	10.86877	-13.56324	11.27755	16.08833
2718.75000	10.12967	-12.15307	11.42665	13.62741
2722.65625	16.19213	-10.48371	10.88034	18.59334
2726.56250	11.44216	-7.54538	10.51119	18.59266
2730.46875	8.78289	-7.39191	12.55139	14.02000
2734.37500	9.46305	-8.76352	9.96802	13.11103
2738.28125	8.27943	-11.18099	5.52945	8.61762
2742.18750	15.41991	-13.82983	8.79099	9.36200
2746.09375	1.62773	-13.83677	7.08789	8.71531
2750.00000	-1.95792	-11.19234	5.50736	7.66611
2753.90625	8.89214	-4.33116	6.67933	6.52790
2757.81250	6.81662	-3.75276	6.88564	7.62401
2761.71875	10.17630	-3.90859	6.66648	15.41278
2765.62500	9.12830	-1.21960	3.23719	8.50171
2769.53125	4.25609	-4.10409	4.12284	4.56039
2773.43750	5.93599	-7.11594	7.45674	6.01192
2777.34375	4.53812	-5.57752	4.21868	1.78616
2781.25000	5.29663	-5.29514	2.89764	7.33153
2785.15625	5.73348	-6.36296	5.40232	11.50093
2789.06250	0.42504	-3.05500	5.97552	10.34147
2792.96875	2.20937	-1.00132	3.43641	9.14820
2796.87500	6.28490	-0.13041	5.59266	14.07542
2800.78125	0.78206	4.98129	6.75491	13.72696
2804.68750	-1.71185	1.35366	6.72998	6.42692
2808.59375	0.64695	-1.60394	6.62780	6.87431
2812.50000	8.59314	0.71433	6.70604	12.71475
2816.40625	9.64416	1.31044	5.37155	12.66385
2820.31250	3.48283	-4.50361	3.73634	5.58811
2824.21875	0.08301	-1.84398	6.00885	7.78076
2828.12500	-6.76893	5.88527	3.25354	5.83970
2832.03125	-0.69943	0.04355	-0.46454	0.19229
2835.93750	1.32529	-6.08606	0.33651	2.79409
2839.84375	3.32923	-3.52514	2.71048	7.49620
2843.75000	3.86277	0.96681	4.84852	7.50161
2847.65625	-3.69485	0.87264	2.29420	2.80243
2851.56250	-2.29674	1.41560	-1.15408	2.60781
2855.46875	4.30179	3.47045	-1.85243	4.61748
2859.37500	3.95115	7.11561	-1.95875	1.32168
2863.28125	1.56533	5.35381	-0.37821	-0.86042
2867.18750	-6.25331	-5.36483	-3.10537	-1.83878
2871.09375	-3.85506	-5.24638	-3.42351	0.62063
2875.00000	2.46107	0.16561	-1.19135	1.21504
2878.90625	-4.31795	1.23341	-0.19291	-2.85912
2882.81250	-14.87064	0.43905	3.62524	0.01914
2886.71875	-10.82413	-2.75824	3.97277	0.77675
2890.62500	5.90651	-1.00856	4.40897	4.30373
2894.53125	7.09065	1.32739	3.12869	3.87290
2898.43750	3.50819	-4.64628	1.56644	1.00090
2902.34375	5.72523	-4.91137	3.15957	6.91472
2906.25000	5.95711	-1.78786	1.36239	8.22675
2910.15625	3.21284	3.24532	0.58105	8.82028
2914.06250	6.10666	6.55383	2.24553	7.35592
2917.96875	1.24403	0.76378	-1.51048	0.41428
2921.87500	-2.32582	-2.23329	-2.17694	3.30506
2925.78125	5.80641	0.76619	1.54957	8.01593
2929.68750	7.40215	1.06366	2.41435	7.31828
2933.59375	5.55707	-4.30131	2.60768	7.23496
2937.50000	-1.43455	-7.11012	1.86397	5.45831
2941.40625	-2.76018	-5.62623	3.73523	8.12763
2945.31250	0.80603	-3.56037	4.12748	7.39292
2949.21875	-0.46696	-0.70873	1.84549	5.43685
2953.12500	-1.80776	2.60771	5.42476	11.57143
2957.03125	5.14831	2.35940	5.24821	7.67549
2960.93750	8.45219	-1.78980	-0.05366	0.43003
2964.84375	3.03877	-2.68216	1.43678	1.92138
2968.75000	0.55371	-2.07729	2.09260	2.36674
2972.65625	4.16096	-2.13448	2.63801	3.84678
2976.56250	4.07508	-0.64010	5.42382	5.05526
2980.46875	3.51020	2.02739	4.18859	3.98591
2984.37500	1.62060	2.99650	3.95057	4.08814
2988.28125	0.38598	-0.22648	4.35899	4.95419
2992.18750	0.49735	-2.00940	-0.11223	4.20875
2996.09375	4.21549	-2.00206	-0.82759	4.04864
