 	TP9	AF7	AF8	TP10	
-1000.00000	-11.35785	-1.37282	-0.09736	-14.03304
-996.09375	-10.94988	-1.46312	-1.32543	-12.87488
-992.18750	-16.58573	-2.08271	0.52889	-15.74497
-988.28125	-15.77466	-3.34856	1.24584	-16.39868
-984.37500	-12.94887	-3.04031	-1.21154	-14.49967
-980.46875	-11.73472	-3.45136	-1.01820	-17.27510
-976.56250	-11.32635	-3.49513	1.84073	-15.24203
-972.65625	-11.72383	-7.27574	0.20143	-15.67370
-968.75000	-13.33000	-5.32277	-0.25878	-18.39664
-964.84375	-12.92155	-0.24502	0.79883	-18.56961
-960.93750	-11.70712	-0.29291	0.88541	-14.88167
-957.03125	-11.70146	2.11976	2.57506	-13.18271
-953.12500	-12.09868	2.83708	0.66618	-15.19592
-949.21875	-10.48124	0.76610	-1.75824	-11.51993
-945.31250	-6.44618	0.94638	0.40872	-8.12867
-941.40625	-8.85801	0.44815	-0.83078	-10.88134
-937.50000	-12.47855	0.07046	-2.34424	-13.14504
-933.59375	-17.71084	2.87015	-0.49574	-13.10478
-929.68750	-16.89920	3.23214	-2.04635	-13.49852
-925.78125	-18.10218	4.96686	-1.57635	-13.39672
-921.87500	-21.72268	4.01170	-1.73251	-15.34743
-917.96875	-20.91099	1.64027	-4.85691	-18.75665
-914.06250	-18.08465	3.70231	-2.47952	-12.22280
-910.15625	-14.45243	2.47759	0.08324	-9.02210
-906.25000	-12.83492	0.93753	-3.14242	-12.61476
-902.34375	-12.02317	1.93747	-4.23522	-11.75907
-898.43750	-12.82322	4.00950	0.27717	-9.87143
-894.53125	-12.41439	2.51230	-1.25673	-7.31340
-890.62500	-11.19973	2.12748	-5.04255	-6.15001
-886.71875	-12.80564	2.96083	-3.88778	-10.21444
-882.81250	-10.38222	-0.13227	-3.90504	-11.39708
-878.90625	-8.76474	0.32932	-4.26578	-9.45680
-875.00000	-6.74425	1.31429	-2.46866	-10.46593
-871.09375	-4.72383	1.37470	-1.71170	-7.70368
-867.18750	-6.73269	1.76913	-3.00769	-4.58336
-863.28125	-2.69761	1.42983	-1.94915	-4.99321
-859.37500	-4.30359	0.67382	-0.75460	-2.20141
-855.46875	-9.53588	-2.30974	-0.87718	0.88253
-851.56250	-6.70950	-0.99071	-3.22335	-3.20774
-847.65625	-8.71838	-0.22054	-1.30980	-5.39109
-843.75000	-11.53304	0.17799	-0.78377	-8.25990
-839.84375	-13.54184	1.82094	-3.69196	-10.26541
-835.93750	-14.34185	-2.31596	-4.13736	-10.33795
-832.03125	-15.14187	-2.55264	-3.13259	-5.55635
-828.12500	-17.15068	0.21446	-0.81027	-6.59275
-824.21875	-16.74193	-1.46956	2.00978	-14.34566
-820.31250	-17.94483	0.14535	3.84761	-14.71046
-816.40625	-15.92423	1.69852	3.06295	-13.10257
-812.50000	-15.11229	-0.49173	-1.03841	-13.54160
-808.59375	-12.68861	3.87918	-4.73474	-18.66397
-804.68750	-5.83248	5.75500	-4.04427	-15.59300
-800.78125	-2.60270	2.90069	-3.11491	-6.67064
-796.87500	-3.40231	0.86900	-3.45100	-10.63495
-792.96875	-5.00761	1.16118	0.23680	-5.80870
-789.06250	-8.62753	-0.50986	3.43455	1.10661
-785.15625	-10.23274	0.09359	2.40972	-1.12126
-781.25000	-16.27017	1.62652	0.40448	-4.27719
-777.34375	-21.90472	2.04555	1.30395	-10.99442
-773.43750	-22.30112	2.00196	2.30328	-13.78791
-769.53125	-23.90641	-0.86579	-0.48075	-18.60079
-765.62500	-23.89996	-1.12725	-3.61051	-20.89371
-761.71875	-22.28184	3.17431	-3.72422	-13.97711
-757.81250	-18.64922	6.43807	-4.02621	-15.39199
-753.90625	-14.61378	4.85104	-5.71945	-20.15636
-750.00000	-12.99601	2.00531	-3.99236	-20.16922
-746.09375	-15.81063	5.31682	-2.36164	-18.09791
-742.18750	-15.40185	7.54595	-4.21627	-20.86277
-738.28125	-14.59031	3.57148	-5.73939	-24.63528
-734.37500	-14.58473	4.06686	-5.69985	-19.67841
-730.46875	-10.95277	6.89329	-4.28179	-21.32925
-726.56250	-12.96191	6.12889	-5.12640	-22.55056
-722.65625	-10.53895	5.07209	-5.90500	-18.88947
-718.75000	-4.48954	6.34040	-3.83338	-17.77229
-714.84375	-5.29012	6.49851	-3.68244	-13.16112
-710.93750	-6.49358	6.94707	-4.17229	-11.60498
-707.03125	-6.89131	6.14388	-3.44470	-19.74480
-703.12500	-8.90079	5.42429	-2.34199	-26.99314
-699.21875	-12.52206	5.07545	-2.33544	-23.81342
-695.31250	-10.09933	3.68400	-4.09981	-22.76649
-691.40625	-10.09417	1.76240	-4.47234	-24.44014
-687.50000	-10.49200	-1.08562	-1.75046	-20.55877
-683.59375	-10.48685	1.35054	-0.77877	-16.16089
-679.68750	-10.48165	1.38921	-1.24310	-14.55238
-675.78125	-11.28230	-1.15358	0.70422	-17.87171
-671.87500	-12.08296	3.42576	4.48644	-19.13844
-667.96875	-13.28658	2.57148	6.40182	-15.32036
-664.06250	-14.89308	-1.10455	3.21824	-19.02766
-660.15625	-16.90255	-0.68792	1.46109	-21.41651
-656.25000	-21.32963	-0.35893	1.06008	-20.63838
-652.34375	-18.90685	1.05653	3.76426	-16.25005
-648.43750	-15.67826	5.83202	4.89255	-12.08767
-644.53125	-16.88180	8.13280	4.81444	-14.63972
-640.62500	-17.68249	8.91831	8.19696	-11.76789
-636.71875	-19.28896	10.50024	5.43016	-12.53275
-632.81250	-18.47789	8.75597	4.23827	-15.77634
-628.90625	-17.26382	7.48631	5.00161	-15.69603
-625.00000	-18.87025	8.11074	8.03926	-15.08392
-621.09375	-18.05916	8.85388	8.89361	-14.21379
-617.18750	-19.26272	7.24841	5.35415	-18.93976
-613.28125	-22.88388	6.37662	6.30982	-24.97079
-609.37500	-25.69916	7.93617	5.51783	-22.51856
-605.46875	-26.90273	8.49983	6.04293	-21.97008
-601.56250	-26.49454	5.56679	6.77694	-22.30597
-597.65625	-22.86292	4.39142	6.47470	-17.69901
-593.75000	-20.03710	7.61691	7.96293	-16.03294
-589.84375	-18.82305	8.79213	5.22975	-20.06533
-585.93750	-17.60905	7.28567	4.86889	-22.40431
-582.03125	-12.36568	10.74349	5.07250	-23.55338
-578.12500	-11.55451	12.40634	3.15272	-20.89912
-574.21875	-13.96686	8.44706	1.54106	-15.96064
-570.31250	-11.14107	5.62106	1.31447	-15.18673
-566.40625	-10.73282	2.05085	4.51634	-13.16200
-562.50000	-11.53337	2.62703	5.79681	-11.91080
-558.59375	-11.52805	6.71530	1.83710	-9.60260
-554.68750	-12.73151	4.43418	0.74322	-9.84652
-550.78125	-10.30862	4.06264	3.03700	-9.89791
-546.87500	-12.31792	7.70361	3.37262	-11.56817
-542.96875	-14.32719	7.00609	3.71376	-12.76150
-539.06250	-11.09837	6.65993	6.96251	-8.79103
-535.15625	-7.46660	3.63635	4.76345	-6.55641
-531.25000	-6.25241	0.48917	2.73903	-6.21432
-527.34375	-10.67929	3.69399	6.67426	-6.34019
-523.43750	-9.46511	3.73502	5.67449	-10.38988
-519.53125	-10.66848	5.79432	2.41413	-10.80845
-515.62500	-16.70699	7.26206	2.72289	-8.91179
-511.71875	-17.91037	4.16685	3.64199	-11.79253
-507.81250	-19.51669	2.10945	1.52597	-14.40047
-503.90625	-18.70535	4.09696	0.39827	-14.06195
-500.00000	-18.69991	4.11986	2.29711	-14.44571
-496.09375	-18.29156	3.62639	4.29240	-12.48145
-492.18750	-15.06266	7.43891	3.32614	-10.11333
-488.28125	-17.07186	8.99341	4.04298	-13.99047
-484.37500	-18.27523	5.27223	6.01775	-13.30034
-480.46875	-16.25518	3.65229	6.61395	-12.85239
-476.56250	-14.63801	3.20557	8.26406	-14.84869
-472.65625	-13.02087	4.26004	7.83346	-13.66888
-468.75000	-13.01541	5.40702	5.76149	-15.18329
-464.84375	-13.81582	6.45543	5.61023	-16.16242
-460.93750	-16.22798	6.00461	6.09971	-12.87779
-457.03125	-17.43130	3.98501	3.75998	-8.76175
-453.12500	-17.02291	3.49358	3.86567	-10.37249
-449.21875	-12.58523	3.03438	5.87339	-9.92049
-445.31250	-8.95343	4.02065	5.21981	-4.11218
-441.40625	-10.55971	3.92542	6.39788	-6.46241
-437.50000	-14.58356	5.15949	6.49609	-7.92083
-433.59375	-13.77224	7.55634	3.50950	-8.28400
-429.68750	-11.75211	6.70956	3.57055	-11.09590
-425.78125	-13.35836	1.59455	2.42877	-10.59166
-421.87500	-12.54696	-0.97235	1.06384	-13.34881
-417.96875	-14.95911	2.29741	2.77454	-16.35561
-414.06250	-12.93899	3.95653	0.71963	-19.89561
-410.15625	-9.71005	5.55238	-1.14987	-21.12764
-406.25000	-15.34565	4.81822	0.45964	-21.90034
-402.34375	-19.36950	4.20644	-0.23020	-23.86571
-398.43750	-19.36407	7.08443	-1.35883	-23.59042
-394.53125	-18.95571	7.19898	-0.07227	-29.09159
-390.62500	-16.53270	5.20246	-1.03760	-25.91402
-386.71875	-15.31853	6.03590	-1.89750	-18.69696
-382.81250	-16.92481	6.16620	-1.91478	-18.26849
-378.90625	-17.32239	3.80729	-0.66381	-17.94048
-375.00000	-16.10823	5.59814	-0.88128	-19.35308
-371.09375	-18.11750	6.46448	-2.13894	-21.42647
-367.18750	-18.51502	7.66478	-1.82324	-22.73892
-363.28125	-17.70380	7.72844	-2.37628	-21.53759
-359.37500	-16.48960	5.76362	-1.18171	-23.98432
-355.46875	-16.48420	5.60054	-0.49838	-24.52731
-351.56250	-11.24072	4.90494	-2.84451	-16.93322
-347.65625	-9.22071	6.88388	-5.76606	-13.07323
-343.75000	-13.24477	8.08818	-2.82245	-14.33093
-339.84375	-8.40437	7.71640	-0.89558	-13.91960
-335.93750	-3.96691	12.04094	-1.34102	-9.96361
-332.03125	-4.76752	15.43054	1.67837	-12.43546
-328.12500	-4.76218	10.94478	2.38897	-10.65202
-324.21875	-6.77148	9.26060	-0.02914	-10.34697
-320.31250	-5.55733	9.26374	0.59987	-14.33880
-316.40625	-3.94019	8.39931	0.21806	-11.11993
-312.50000	-3.53191	7.01493	1.75766	-13.17141
-308.59375	-6.34704	8.16236	3.70231	-14.66825
-304.68750	-9.56516	10.44115	2.37816	-12.80717
-300.78125	-10.36568	6.78102	4.11331	-17.98843
-296.87500	-9.15151	4.34648	7.40358	-19.13322
-292.96875	-11.96668	3.83282	5.45028	-15.11395
-289.06250	-15.18475	2.56485	0.99228	-11.42327
-285.15625	-10.34418	4.37725	1.98211	-9.22012
-281.25000	-8.72716	5.91032	0.78266	-13.18309
-277.34375	-13.95990	6.32949	0.07046	-11.03705
-273.43750	-14.35742	5.07727	3.48742	-8.59363
-269.53125	-10.72567	5.03015	3.52393	-9.37829
-265.62500	-10.72028	5.57469	3.61767	-8.85185
-261.71875	-13.13250	3.42942	4.30990	-8.38318
-257.81250	-11.51536	3.87269	3.60494	-7.78432
-253.90625	-10.30118	0.67401	-0.90876	-6.90854
-250.00000	-11.90757	3.06634	-1.19633	-5.31055
-246.09375	-12.70806	5.16912	1.64315	-12.10445
-242.18750	-16.73202	0.54844	0.59432	-15.27298
-238.28125	-19.54718	-1.00846	1.08588	-13.80796
-234.37500	-20.75064	0.69560	1.52828	-14.08967
-230.46875	-19.53650	1.10436	2.94628	-10.50284
-226.56250	-16.30772	1.14582	2.90744	-11.72447
-222.65625	-13.07901	2.10360	2.53171	-13.70461
-218.75000	-14.68535	3.77470	2.99155	-10.17009
-214.84375	-13.87416	3.12682	2.73944	-10.79715
-210.93750	-8.63073	1.96350	3.05549	-10.44985
-207.03125	-9.02829	2.77182	0.96259	-12.14276
-203.12500	-10.23174	1.64916	0.45359	-11.33246
-199.21875	-11.43516	2.50886	4.89242	-5.73504
-195.31250	-9.81810	3.53484	4.73975	-8.71728
-191.40625	-9.40978	1.21008	0.74092	-12.00251
-187.50000	-7.79269	0.37651	1.04528	-10.94160
-183.59375	-3.35505	2.40947	0.80815	-12.99043
-179.68750	2.29138	4.05966	-2.07379	-13.79938
-175.78125	6.72899	2.72538	0.27644	-11.88046
-171.87500	5.52572	0.45470	3.65564	-8.71487
-167.96875	2.71060	0.80897	0.73575	-7.71718
-164.06250	-2.52208	-1.25552	1.98443	-4.57455
-160.15625	-4.93421	-0.43616	2.64478	1.09530
-156.25000	-4.92880	-0.10737	2.24375	1.47062
-152.34375	-6.93809	-0.30384	0.91859	-3.40835
-148.43750	-6.52985	0.84507	0.83802	-1.66343
-144.53125	-7.33033	-0.88359	3.98331	2.63442
-140.62500	-12.96606	-3.72469	2.93356	-2.55234
-136.71875	-14.97537	-2.14290	1.77841	-9.76396
-132.81250	-14.16407	0.54493	0.58648	-11.79863
-128.90625	-16.17336	0.08095	0.14105	-8.49482
-125.00000	-16.16804	-0.50347	1.56692	-7.88259
-121.09375	-19.78911	-1.37219	2.82421	-8.22130
-117.18750	-27.84237	-1.76902	2.91104	-10.93266
-113.28125	-25.01654	-0.22328	1.44911	-12.53146
-109.37500	-22.59356	-0.27548	1.86583	-17.73484
-105.46875	-24.60281	-0.51768	1.98803	-18.79812
-101.56250	-20.97106	-1.03317	0.70736	-13.49296
-97.65625	-21.77149	-0.19387	1.21098	-12.51232
-93.75000	-20.96024	-0.59477	1.08744	-13.26379
-89.84375	-18.94018	-3.44880	1.17477	-13.26680
-85.93750	-17.32298	-2.94063	2.82856	-15.20280
-82.03125	-16.91463	-5.52674	4.64385	-15.14312
-78.12500	-12.47698	-5.47565	5.54456	-14.50349
-74.21875	-8.03935	-2.98802	3.53002	-13.99724
-70.31250	-12.86922	-3.39645	3.30343	-11.61167
-66.40625	-12.46096	-4.14615	1.26722	-9.58692
-62.50000	-8.42637	-6.39051	-1.07862	-9.94751
-58.59375	-8.82398	-7.54031	-0.20321	-10.86284
-54.68750	-8.01286	-6.59801	1.52347	-10.30100
-50.78125	-8.00760	-3.74607	3.41425	-10.75541
-46.87500	-9.21115	-2.11975	2.13828	-12.02278
-42.96875	-8.40004	-4.02610	0.46474	-9.18685
-39.06250	-6.38016	-5.98398	0.49007	-8.84284
-35.15625	-9.59837	-6.58996	-0.09718	-7.81710
-31.25000	-8.38430	-3.69316	1.50479	-8.68386
-27.34375	-6.76722	-4.51766	3.82839	-8.80980
-23.43750	-9.58245	-5.28244	1.21688	-9.63602
-19.53125	-12.39764	-6.04358	-2.04347	-16.50156
-15.62500	-12.79533	-5.38165	0.68290	-17.02260
-11.71875	-11.17832	-0.82123	1.19910	-15.06822
-7.81250	-10.77011	-2.87858	2.30656	-15.25873
-3.90625	-9.95898	-6.12920	3.19344	-10.08519
0.00000	-4.71558	-4.49463	5.09224	-4.82796
3.90625	-0.68099	-2.97339	8.69926	-3.66965
7.81250	1.33896	-2.38442	6.12122	-8.15144
11.71875	1.34426	-1.63576	5.22630	-10.41690
15.62500	-3.88855	-1.32763	5.18632	-12.14446
19.53125	-7.10671	-1.73880	1.35028	-16.53176
23.43750	-7.50440	-2.58851	3.00031	-14.90183
27.34375	-5.48441	-4.75747	5.39019	-14.12503
31.25000	-3.06158	-4.41629	5.73570	-11.61031
35.15625	-3.05636	-2.56200	7.19611	-7.35155
39.06250	-6.27460	-6.23624	7.68551	-5.27589
42.96875	-5.86645	-6.24114	7.76327	-4.78644
46.87500	-5.45828	-4.31497	7.06305	-7.60610
50.78125	-5.05016	-7.19177	8.26483	-6.75130
54.68750	-1.41853	-7.41430	8.01410	-2.15206
58.59375	-2.21918	-5.09198	7.17733	0.33263
62.50000	-5.03439	-3.05200	7.27545	0.08285
66.40625	-5.02909	-3.47569	8.31793	0.92821
70.31250	-3.41202	-3.91947	9.18467	3.35419
74.21875	-3.40674	-6.61694	8.44568	7.48455
78.12500	-3.40151	-9.58676	7.08059	7.14473
82.03125	-3.79929	-11.15223	5.97066	6.95818
85.93750	-6.21174	-11.10481	6.73610	6.23852
89.84375	-7.81827	-7.09139	6.47822	5.00621
93.75000	-4.99257	-4.19913	4.05830	2.62160
97.65625	-5.39027	-4.00504	0.54777	2.67066
101.56250	-5.78805	-2.33588	1.83664	3.34868
105.46875	-3.36527	-2.22135	5.54072	5.90591
109.37500	-2.15133	-5.82958	5.38113	7.06859
113.28125	-2.54904	-7.01082	2.90943	-0.22001
117.18750	-2.94680	-3.65709	1.28029	-3.01515
121.09375	-4.55332	-4.80728	2.53114	-3.09018
125.00000	-4.14527	-8.65746	1.10476	-4.90588
128.90625	-2.52837	-4.16481	0.24989	-6.97942
132.81250	0.29725	-3.77040	2.58018	-6.68029
136.71875	-1.30932	-6.93022	3.23575	-8.70256
140.62500	-2.11011	-4.86580	2.01262	-9.94075
144.53125	1.92433	-4.22305	1.48706	-3.23113
148.43750	1.92939	-3.70999	-0.05336	-1.27822
152.34375	4.35196	-1.73111	-2.16919	-0.64191
156.25000	4.35697	-2.13850	-2.44911	-1.49687
160.15625	3.55612	-0.89857	-0.11942	-4.30903
164.06250	4.36692	-3.02085	1.85267	-0.75601
167.96875	1.55137	-7.28697	2.45438	-2.01927
171.87500	0.34752	-7.74339	-0.46151	-2.25070
175.78125	3.17297	-7.81581	-0.05911	1.68047
179.68750	2.37207	-10.23030	1.77857	-1.50583
183.59375	0.36236	-7.46837	1.39669	-4.73423
187.50000	1.57614	-4.82355	1.32446	-3.96561
191.40625	0.37237	-6.89959	0.85139	-3.04517
195.31250	0.78037	-7.44141	1.13884	-1.58722
199.21875	2.80007	-7.07231	0.45635	2.09571
203.12500	4.81980	-7.08937	-0.68580	6.59170
207.03125	7.64538	-7.20013	-0.62454	6.98429
210.93750	10.06808	-5.64761	1.76724	8.25705
214.84375	10.87906	-2.62654	1.95113	9.65401
218.75000	7.25778	-3.51109	0.34866	5.69071
222.65625	8.87466	-6.31543	-0.36374	2.19543
226.56250	9.28276	-6.35892	-1.37914	2.62390
230.46875	3.64687	-7.21195	-1.74563	1.83888
234.37500	3.24909	-8.27920	-1.65201	3.17090
238.28125	3.65717	-5.18643	-2.57163	2.83341
242.18750	2.45346	-2.72858	-0.85908	-1.80610
246.09375	-1.57068	-5.12142	-0.53773	-0.12472
250.00000	-3.17718	-7.96724	-0.42237	2.68179
253.90625	-2.76914	-6.67043	-1.61231	2.73740
257.81250	-4.37570	-6.85891	-3.86999	1.98627
261.71875	-6.38518	-9.62464	-1.76682	-0.57824
265.62500	-5.57418	-8.32349	-0.92152	-2.06898
269.53125	-3.95739	-6.70598	-2.72702	-1.30290
273.43750	-9.19043	-8.27636	-3.97474	-6.55412
277.34375	-12.00583	-10.94499	-4.75345	-6.51999
281.25000	-8.77728	-11.69154	-5.90545	-3.38867
285.15625	-8.77213	-10.32480	-6.56056	-1.59848
289.06250	-9.57283	-11.48819	-5.84174	0.76322
292.96875	-8.35895	-12.29153	-2.29373	3.50219
296.87500	-7.95103	-9.38500	-0.38530	6.32694
300.78125	-7.94602	-8.92825	-1.99063	-2.17850
304.68750	-9.55267	-13.54335	-2.94923	-3.14635
308.59375	-10.75648	-13.45062	-2.91899	2.43257
312.50000	-11.96030	-13.47836	-6.24110	1.47859
316.40625	-16.79039	-11.04250	-6.47832	-3.79407
320.31250	-19.60588	-13.01880	-4.52519	-7.82686
324.21875	-18.79488	-12.74140	-3.38394	-4.29656
328.12500	-16.77514	-12.99750	-4.03406	-3.14594
332.03125	-18.38179	-17.07558	-8.96877	-4.96907
335.93750	-19.58544	-15.51384	-8.92898	-5.05030
339.84375	-17.96851	-14.69482	-5.44823	-5.42475
343.75000	-13.93400	-14.76927	-5.44646	-2.22920
347.65625	-15.54044	-12.95148	-4.35415	1.75605
351.56250	-14.72930	-13.81760	-4.43482	1.08307
355.46875	-11.90351	-14.33790	-1.69262	2.15721
359.37500	-13.10698	-13.95602	-3.54835	0.99957
363.28125	-12.29578	-14.38941	-7.12111	-2.18300
367.18750	-12.69331	-11.70194	-5.89551	0.61719
371.09375	-15.10555	-10.15166	-5.13229	1.50321
375.00000	-17.92066	-9.93073	-5.31820	-5.94350
378.90625	-20.33283	-13.21747	-7.28456	-8.29712
382.81250	-20.32735	-14.82353	-3.97453	-4.96477
386.71875	-17.90428	-13.27835	-3.42212	-3.34038
390.62500	-19.51059	-13.33102	-6.22907	-6.12653
394.53125	-25.54912	-11.96196	-4.89838	-9.20476
398.43750	-27.55836	-12.47785	-4.16456	-6.31748
402.34375	-25.53827	-13.65374	-5.67585	-6.14298
406.25000	-23.51817	-14.45809	-4.59076	-4.88015
410.15625	-22.70685	-13.28329	-4.10064	-2.86885
414.06250	-23.91028	-13.58150	-6.47629	-2.79047
417.96875	-22.69612	-15.36228	-5.06400	-0.31344
421.87500	-19.46739	-16.11746	-6.98392	-2.49462
425.78125	-17.04449	-13.63021	-9.80444	-3.60023
429.68750	-17.44209	-12.42722	-8.41937	-4.03534
433.59375	-21.46617	-16.40059	-7.63518	-4.02548
437.50000	-19.44626	-16.22760	-7.96658	-2.77459
441.40625	-12.18821	-14.15414	-6.28533	-6.10764
445.31250	-6.94480	-16.03240	-6.17048	-9.17230
449.21875	-1.29845	-13.98631	-7.90612	-11.23858
453.12500	2.73611	-11.15112	-7.97343	-8.07395
457.03125	0.72671	-11.84857	-10.04995	-2.41772
460.93750	0.73195	-12.19446	-8.81589	3.16419
464.84375	-1.68045	-14.81486	-7.79154	5.39850
468.75000	-4.49576	-15.54421	-7.80136	5.74022
472.65625	-4.08757	-15.56250	-5.88080	6.41983
476.56250	-5.69411	-15.52112	-4.86593	9.21965
480.46875	-5.28599	-15.87901	-7.32046	6.78604
484.37500	-0.84859	-14.00800	-9.83222	1.83241
488.28125	2.38002	-11.05891	-7.70433	1.77179
492.18750	-0.43536	-14.72764	-7.40273	1.17804
496.09375	2.79328	-15.15737	-7.72457	1.91910
500.00000	4.00727	-14.73120	-7.03455	2.34081
503.90625	2.40075	-15.62710	-7.45687	-0.53054
507.81250	-0.41464	-15.84359	-7.21432	-0.98342
511.71875	-5.64761	-17.91513	-10.12386	0.37706
515.62500	-6.85128	-16.80073	-10.16382	-3.36558
519.53125	-12.08425	-16.00273	-9.56763	-4.52994
523.43750	-12.88497	-17.65793	-9.93220	-3.30328
527.34375	-8.04465	-17.40903	-7.94522	0.69663
531.25000	-8.84546	-16.66458	-8.80844	4.01681
535.15625	-12.46672	-16.42168	-6.94508	2.63424
539.06250	-15.68513	-16.06634	-6.45561	6.72419
542.96875	-13.26251	-16.87687	-10.80998	6.00443
546.87500	-8.82525	-17.36802	-10.30135	6.40786
550.78125	-10.43188	-17.02111	-9.09952	10.08282
554.68750	-11.23269	-20.46675	-8.54436	10.24957
558.59375	-10.42179	-21.36764	-8.17226	14.74861
562.50000	-8.40210	-18.11870	-6.86534	16.11020
566.40625	-4.77070	-17.33340	-5.41986	16.14940
570.31250	-2.34821	-17.77702	-8.17939	9.30766
574.21875	-3.14909	-15.63910	-8.11244	6.18499
578.12500	-3.54707	-15.78822	-6.65694	9.47124
582.03125	-4.75083	-19.77105	-9.37849	7.26976
585.93750	-11.19273	-20.12641	-9.41884	2.92341
589.84375	-12.79947	-18.93336	-8.46798	4.91433
593.75000	-13.60031	-18.45851	-7.66444	5.34992
597.65625	-16.41578	-19.47309	-7.54854	1.77245
601.56250	-17.61959	-21.83314	-7.87140	3.25613
605.46875	-20.03220	-21.31553	-6.18195	5.41030
609.37500	-22.04185	-22.10317	-7.14734	3.75230
613.28125	-23.64859	-22.47846	-8.00731	1.70157
617.18750	-24.04659	-21.54219	-8.02466	-0.69085
621.09375	-26.05628	-21.48348	-7.57962	-4.79542
625.00000	-28.06598	-19.28959	-5.78249	-4.59665
628.90625	-22.82291	-17.21434	-4.62269	-1.43231
632.81250	-17.98278	-17.22280	-3.09824	1.68712
636.71875	-22.00709	-17.96490	-4.05439	-1.14120
640.62500	-22.40501	-19.52664	-4.06870	-4.79710
644.53125	-21.19132	-18.88373	-4.19132	-5.34047
648.43750	-20.78345	-19.57933	-6.13458	-4.19359
652.34375	-19.16687	-20.42081	-5.02691	1.27773
656.25000	-16.74442	-17.60461	-3.69510	-0.78616
660.15625	-15.93372	-15.96159	-4.99169	-0.77808
664.06250	-14.31709	-15.26327	-5.84005	1.96878
667.96875	-11.49175	-16.70868	-5.23829	1.10825
671.87500	-13.50161	-18.37372	-5.33364	0.07062
675.78125	-12.28801	-17.23726	-7.34884	-0.83367
679.68750	-11.07442	-15.62230	-8.73459	0.00903
683.59375	-12.27849	-15.68070	-7.90770	2.82433
687.50000	-11.87088	-17.06500	-6.77112	8.83082
691.40625	-12.26907	-15.11165	-6.43829	4.91583
695.31250	-11.86150	-14.84742	-8.16552	1.13531
699.21875	-12.25970	-15.68696	-6.43049	7.63842
703.12500	-13.46379	-15.30091	-3.14033	7.29891
707.03125	-13.05613	-17.82907	-3.88494	1.64729
710.93750	-12.24558	-19.09706	-5.92546	0.09931
714.84375	-11.83799	-16.47873	-4.13000	1.49600
718.75000	-9.81858	-17.76617	-2.50908	3.97931
722.65625	-6.59049	-19.36161	-2.81858	4.51300
726.56250	-6.58581	-19.80790	-4.23697	3.32943
730.46875	-6.98401	-19.85498	-2.99187	1.33524
734.37500	-8.99393	-18.90750	-0.48076	7.09913
738.28125	-8.58632	-17.42634	-0.19169	10.38762
742.18750	-6.16402	-16.17719	-1.29977	10.17994
746.09375	-5.35346	-16.55538	-2.18734	13.87566
750.00000	-5.34878	-17.38643	-2.87802	11.04079
753.90625	-7.76174	-17.29835	-3.66514	7.06683
757.81250	-9.36895	-15.47211	-5.11703	7.52422
761.71875	-6.14100	-16.22313	-5.43160	9.79455
765.62500	-2.10716	-14.51903	-1.76597	7.90053
769.53125	-1.69959	-14.91611	-1.15410	4.63703
773.43750	-5.32140	-16.48636	-3.61070	7.04124
777.34375	-4.51088	-13.51393	-0.76319	8.28390
781.25000	-3.70041	-13.85748	-1.51235	6.98278
785.15625	-4.09873	-17.32590	-3.77925	8.36977
789.06250	-0.87063	-18.08621	-1.44886	7.50769
792.96875	-0.06012	-15.26317	0.08437	7.02299
796.87500	-2.07011	-11.14769	-1.63371	12.66795
800.78125	-3.67715	-12.30262	-2.43324	9.80327
804.68750	0.75973	-15.70884	-0.97442	2.79107
808.59375	4.39081	-17.63066	-4.16769	4.34036
812.50000	2.38080	-15.64367	-4.66950	7.81831
816.40625	5.20596	-14.01361	-2.89222	9.79806
820.31250	4.80774	-17.19851	-2.14799	9.79433
824.21875	4.40946	-17.32395	-2.21557	7.68325
828.12500	4.81712	-14.35649	-3.67171	9.23646
832.03125	5.22470	-14.80804	-4.98005	10.23346
835.93750	5.63232	-18.48420	-5.34333	9.34606
839.84375	4.42817	-20.08241	-3.87734	7.76243
843.75000	5.64160	-18.94775	-6.29326	4.91352
847.65625	7.25793	-16.32371	-6.81283	10.91298
851.56250	7.26257	-15.98065	-2.86427	13.86594
855.46875	5.65551	-16.50050	-4.95738	9.29862
859.37500	6.86894	-13.70060	-6.00734	10.15512
863.28125	11.70871	-14.13350	-3.93926	10.59847
867.18750	7.68402	-15.47501	-5.13138	12.99522
871.09375	3.25637	-14.32724	-1.95069	14.28371
875.00000	4.46980	-14.10590	-0.52503	12.07466
878.90625	6.89204	-14.16874	-2.49142	11.33231
882.81250	8.10538	-14.56561	0.41564	11.03776
886.71875	6.09532	-15.43753	-0.24069	15.48210
890.62500	9.72633	-15.08688	-2.24179	21.15701
894.53125	11.74560	-13.71738	-1.31402	24.52523
898.43750	11.34729	-13.02412	-1.78909	19.35342
902.34375	8.53140	-14.60259	-0.07696	11.87182
906.25000	8.93894	-15.00350	2.61970	13.94008
910.15625	10.55530	-14.63420	-0.91961	16.35385
914.06250	7.33653	-16.14074	-2.48954	14.41710
917.96875	6.53534	-16.71227	-1.48034	7.62624
921.87500	10.97225	-13.84068	-1.38569	10.68276
925.78125	7.35050	-12.56194	-2.99755	12.39721
929.68750	4.93764	-14.58218	-3.62723	6.72356
933.59375	8.97160	-16.13779	-2.03730	6.73302
937.50000	10.58793	-16.77046	-4.38333	6.77480
941.40625	13.41303	-15.09983	-4.71688	6.26178
945.31250	14.62640	-13.75467	-3.39333	10.85233
949.21875	11.40751	-12.91747	-5.53199	10.39734
953.12500	8.99451	-13.30586	-5.59943	5.90583
957.03125	13.43122	-10.37713	-4.85554	5.92054
960.93750	14.24162	-7.09697	-7.65092	5.05509
964.84375	13.03733	-9.71765	-5.01496	5.67727
968.75000	14.65353	-10.85023	-2.60733	6.82442
972.65625	15.86682	-9.66016	-3.91035	8.71245
976.56250	15.46833	-10.42502	-3.29854	10.30305
980.46875	14.26406	-11.18625	-3.73857	8.67488
984.37500	13.46266	-10.92735	-5.04169	4.52681
988.28125	14.27304	-9.59047	-4.92870	3.25702
992.18750	12.66574	-8.82743	-2.61265	6.28926
996.09375	9.84971	-8.85468	-2.12885	7.83573
1000.00000	10.66005	-10.04068	-1.84188	10.27171
1003.90625	13.08217	-13.35473	-4.27901	10.22048
1007.81250	11.87788	-13.16871	-6.05129	6.94672
1011.71875	11.07656	-12.82309	-3.31998	3.87466
1015.62500	14.30452	-10.50033	-1.74835	3.35515
1019.53125	11.08560	-11.71744	-1.95816	7.42857
1023.43750	8.26959	-10.55247	-2.32289	8.25188
1027.34375	11.90047	-9.35564	-1.12183	9.92890
1031.25000	9.48734	-11.62596	-1.91619	7.91613
1035.15625	8.28303	-12.31504	-4.13157	7.91804
1039.06250	10.30225	-13.46255	-3.74451	10.74048
1042.96875	10.30685	-11.65653	-3.68653	11.95111
1046.87500	11.52017	-10.91415	-2.28337	14.37058
1050.78125	11.52467	-11.55576	-2.21100	11.14892
1054.68750	9.51451	-8.29992	-3.70601	6.71851
1058.59375	8.31017	-7.10371	-1.82579	6.31735
1062.50000	10.73227	-8.88950	-2.56798	6.31919
1066.40625	12.75144	-8.85578	-5.47472	7.52985
1070.31250	9.93544	-8.25777	-6.13145	6.32291
1074.21875	13.96924	-10.31646	-7.29415	5.92186
1078.12500	20.01771	-7.59091	-6.74711	5.52086
1082.03125	15.99291	-6.13236	-6.29366	5.11980
1085.93750	16.80328	-7.21103	-4.24970	4.31585
1089.84375	18.41955	-8.58363	-2.39778	5.12360
1093.75000	17.21524	-10.30615	-3.21176	5.93135
1097.65625	21.24906	-8.47549	-1.98637	7.14200
1101.56250	28.90931	-8.21897	-2.77344	9.15854
1105.46875	33.74899	-9.20403	-4.65267	5.93701
1109.37500	38.18571	-9.31153	-3.10052	6.74481
1113.28125	41.81652	-10.68676	-2.74231	8.35839
1117.18750	35.37409	-10.15874	-2.45057	6.74858
1121.09375	30.54346	-9.10378	-3.28729	4.73574
1125.00000	28.13037	-10.40297	-1.44569	5.54351
1128.90625	24.91147	-10.04022	2.63730	11.18638
1132.81250	22.49835	-10.25004	0.15688	10.38242
1136.71875	21.69697	-10.22143	0.32311	11.99595
1140.62500	22.10431	-6.77054	-0.17701	10.38609
1144.53125	16.46777	-9.59955	-2.28394	5.14985
1148.43750	9.62235	-15.60683	-0.09484	9.98681
1152.34375	8.01505	-13.83208	0.24583	11.60036
1156.25000	10.83993	-11.88600	-2.52881	5.55822
1160.15625	11.24724	-10.48513	-3.91651	1.53071
1164.06250	11.25159	-9.61434	-3.94351	4.75585
1167.96875	11.25593	-9.89577	-2.03167	6.77235
1171.87500	13.27494	-9.74900	-1.67166	5.96823
1175.78125	15.29398	-11.12205	-2.14135	6.37294
1179.68750	18.92476	-10.17229	-1.60971	3.95716
1183.59375	25.77902	-8.43243	-1.99116	5.97369
1187.50000	29.81271	-9.02596	-2.36897	9.19902
1191.40625	29.81710	-11.29872	-4.79160	8.39506
1195.31250	20.95699	-10.74930	-5.36376	9.20274
1199.21875	19.34972	-9.05379	-2.92428	7.18992
1203.12500	31.44200	-12.90324	-1.26066	20.48846
1207.03125	29.83466	-13.80468	-2.71994	24.11670
1210.93750	4.85731	-9.21538	-5.08728	2.36024
1214.84375	-4.80871	-7.14096	-2.52609	-7.30832
1218.75000	-7.22192	-7.12784	-3.02311	-12.54461
1222.65625	-11.64986	-8.92363	-4.16804	-12.13987
1226.56250	-14.86903	-9.32523	-4.29441	-12.54108
1230.46875	-14.86477	-9.14181	-4.57542	-12.94223
1234.37500	-12.84583	-9.56417	-2.89589	-12.53758
1238.28125	-9.61810	-6.81030	-2.70978	-12.53582
1242.18750	-5.18156	-8.58043	-3.05578	-5.68421
1246.09375	-5.98318	-9.69092	-2.25822	-4.07074
1250.00000	-7.18765	-9.46781	-0.43817	-5.27775
1253.90625	-5.57168	-7.54274	0.77861	-1.64955
1257.81250	-7.58204	-5.68176	2.04672	-0.03605
1261.71875	-9.18946	-7.84338	0.46631	0.77164
1265.62500	-11.19992	-7.65037	-2.65595	1.17646
1269.53125	-13.61322	-7.37500	0.47229	1.58127
1273.43750	-10.78846	-8.73293	2.85533	2.38893
1277.34375	-10.78417	-8.57611	3.18950	2.79367
1281.25000	-9.57113	-7.51712	4.38594	1.18383
1285.15625	-8.76108	-8.84524	5.39164	-0.02314
1289.06250	-11.17451	-8.90899	5.40655	-0.02132
1292.96875	-6.73810	-5.88237	2.93008	-1.22830
1296.87500	-3.51048	-6.22431	2.33184	0.78817
1300.78125	-0.68580	-4.37643	2.25857	3.61050
1304.68750	-1.48745	-2.79963	5.76735	5.22393
1308.59375	-4.30376	-4.80414	8.31847	6.03151
1312.50000	-2.28491	-1.00621	5.43332	4.01856
1316.40625	-1.87777	-0.23657	3.90692	4.82611
1320.31250	0.54393	-0.83710	4.56270	5.63370
1324.21875	0.54807	-2.40734	5.32157	10.47049
1328.12500	-0.65662	-5.94129	3.56470	10.47214
1332.03125	1.36213	-4.98488	3.91620	6.04153
1335.93750	3.78384	-4.31168	6.30351	12.89303
1339.84375	6.20554	-2.94163	6.46540	26.19138
1343.75000	3.79203	-0.81876	8.48725	33.44580
1347.65625	1.78148	-2.65193	7.66374	30.22402
1351.56250	0.97968	-4.52281	4.42064	26.19639
1355.46875	-3.44855	-4.74912	4.68721	28.61566
1359.37500	-1.02693	-3.43539	5.55166	21.36456
1363.28125	1.39462	-1.25679	6.40133	18.14279
1367.18750	-9.07749	-2.99619	5.70583	22.17377
1371.09375	-5.04419	-4.05359	3.72110	17.74321
1375.00000	3.01841	-2.35393	7.51965	12.10386
1378.90625	7.05173	3.32481	7.46513	9.28505
1382.81250	-0.19699	6.75555	4.70656	4.45156
1386.71875	-23.15998	4.70983	-1.50458	-4.81421
1390.62500	-34.43800	0.45065	2.62102	-10.45364
1394.53125	-31.21058	2.47135	8.75632	-14.48130
1398.43750	-34.83300	3.64097	4.55161	-26.16465
1402.34375	-52.96087	1.86384	4.61291	-38.25089
1406.25000	-48.52468	1.92997	3.76017	-54.36647
1410.15625	-46.50609	6.97352	5.14690	-52.75314
1414.06250	-81.96003	10.12967	8.79934	-61.21302
1417.96875	-107.34074	10.81157	7.69234	-91.43117
1421.87500	-104.51631	16.70633	6.52540	-102.71162
1425.78125	-117.40625	21.70340	12.23218	-114.79793
1429.68750	-145.20454	25.98938	10.89373	-132.52528
1433.59375	-144.79778	30.69403	4.02154	-141.79114
1437.50000	-141.57050	32.89688	6.41297	-137.76031
1441.40625	-149.62526	35.97319	14.07279	-139.37050
1445.31250	-150.02432	40.25652	19.47909	-149.03917
1449.21875	-144.78230	45.00555	16.63570	-151.45517
1453.12500	-139.54036	46.43510	14.56818	-145.81258
1457.03125	-129.46317	45.31961	17.23515	-127.27623
1460.93750	-116.56551	46.77194	17.58688	-117.20145
1464.84375	-107.29424	45.09811	16.23354	-113.17068
1468.75000	-93.59071	39.84470	14.71493	-95.44022
1472.65625	-77.46947	37.60890	14.65019	-79.72432
1476.56250	-58.12481	33.17316	13.16389	-66.02309
1480.46875	-44.82413	30.57008	9.41465	-45.87511
1484.37500	-34.74690	30.99035	9.34588	-33.78571
1488.28125	-19.83446	29.44310	7.14422	-24.11389
1492.18750	-7.33970	25.57013	5.47461	-6.78632
1496.09375	5.55792	23.85799	4.27321	10.13816
1500.00000	14.42617	19.60354	4.46688	19.00404
1503.90625	17.65339	13.64715	3.24913	25.45230
1507.81250	27.32747	12.59001	2.38296	31.90050
1511.71875	45.06004	14.74963	1.94781	46.00438
1515.62500	52.31633	12.53999	3.45743	56.07882
1519.53125	57.15499	10.24804	3.14884	57.28878
1523.43750	66.42588	10.39528	-0.44390	67.76614
1527.34375	66.02637	11.04244	-0.77902	69.37894
1531.25000	68.44736	7.96677	0.44132	70.99174
1535.15625	73.28584	7.27825	-0.56527	76.23090
1539.06250	75.30384	8.14593	-1.78995	75.42613
1542.96875	76.11309	6.32607	-3.74661	77.84473
1546.87500	79.33987	9.08365	-4.76105	80.66627
1550.78125	82.16376	11.26298	-3.07695	85.90547
1554.68750	83.77882	14.11637	-1.34855	86.30958
1558.59375	84.18516	13.70126	-0.67717	85.10195
1562.50000	76.93589	7.48364	-1.82234	82.68561
1566.40625	70.49251	7.11485	-2.71444	77.85160
1570.31250	69.28721	8.92199	-0.55064	77.85281
1574.21875	68.08195	10.08716	1.10702	71.40717
1578.12500	63.65333	8.38077	1.25109	68.58794
1582.03125	58.41884	3.79568	3.71908	68.18636
1585.93750	55.19908	1.10553	4.15119	64.15836
1589.84375	48.75593	1.34492	-0.04103	56.50415
1593.75000	45.93920	3.65189	-0.85514	47.23825
1597.65625	43.92833	3.06514	-1.64443	46.83681
1601.56250	41.11158	2.11306	-0.01406	48.45011
1605.46875	39.10074	1.12815	-0.28166	45.22823
1609.37500	37.89579	0.61781	0.06159	47.64733
1613.28125	41.52593	2.06319	2.83732	46.44015
1617.18750	46.76779	2.18842	4.74065	44.83012
1621.09375	46.36862	6.46689	4.30679	48.45816
1625.00000	43.14893	5.16768	2.52191	49.66852
1628.90625	43.95853	-0.11054	3.38135	47.25261
1632.81250	40.33588	-0.32028	4.52715	43.62784
1636.71875	33.48985	0.91717	5.49916	38.79434
1640.62500	33.09066	-0.06418	5.40188	35.57253
1644.53125	36.31786	-0.47555	4.50356	34.36539
1648.43750	36.32157	0.36702	5.88670	32.75533
1652.34375	34.71356	1.33588	7.83896	33.96571
1656.25000	35.12015	1.26736	7.07891	37.19069
1660.15625	34.72092	1.86238	6.49692	38.80400
1664.06250	33.51577	1.12141	9.29029	38.40260
1667.96875	29.08719	-1.98053	10.39618	32.76313
1671.87500	24.65860	-3.04257	6.72679	29.13824
1675.78125	25.46820	-3.20682	5.45117	29.94568
1679.68750	24.66598	-3.86876	4.77390	27.12675
1683.59375	20.23747	-4.94946	3.98934	23.90484
1687.50000	19.03235	-3.93122	4.01434	18.66828
1691.40625	20.24483	-4.18934	3.20325	11.01417
1695.31250	19.44258	-2.83408	2.63094	7.79222
1699.21875	13.40228	-1.94442	2.65266	6.18196
1703.12500	9.37660	-3.77922	2.70444	4.16875
1707.03125	12.60368	-4.27777	4.06560	4.17020
1710.93750	10.99561	-3.71771	4.51862	3.76877
1714.84375	11.80507	-3.25492	3.05032	6.59071
1718.75000	17.04676	-4.85351	4.97075	11.83032
1722.65625	16.64739	-5.44038	5.84031	10.22005
1726.56250	16.24801	-3.42433	8.53436	13.04207
1730.46875	18.66916	-3.24094	10.26782	18.28166
1734.37500	20.28448	-2.45446	5.90333	17.47724
1738.28125	15.45283	-0.90928	6.08930	17.07582
1742.18750	15.05341	0.94692	9.36952	15.06255
1746.09375	20.29500	0.23943	8.15233	15.06392
1750.00000	18.28388	0.46257	5.54007	13.05065
1753.90625	13.04925	3.19354	6.35381	10.63442
1757.81250	11.44095	3.84588	6.41302	10.23284
1761.71875	12.25030	0.47558	7.65309	3.38443
1765.62500	10.23914	-2.15184	9.36595	0.56530
1769.53125	8.22791	-0.26459	6.85308	2.58133
1773.43750	12.26063	1.60104	4.80379	5.00023
1777.34375	15.89050	-1.06250	4.33202	2.58397
1781.25000	16.29686	-2.82387	5.52835	-3.86162
1785.15625	18.31500	-0.52550	8.95148	-0.23391
1789.06250	17.10958	-0.18620	4.93705	3.39368
1792.96875	11.47191	-3.60626	4.07217	2.58911
1796.87500	5.83432	-4.35099	7.90605	5.81382
1800.78125	4.62889	-1.29419	5.41505	5.41213
1804.68750	3.42346	-1.32893	6.10320	6.62220
1808.59375	4.63563	-2.93042	7.04244	8.23519
1812.50000	11.08593	0.46468	4.96310	8.63943
1816.40625	10.28340	0.83156	4.64533	10.65535
1820.31250	7.46620	-1.38057	2.48050	10.65660
1824.21875	6.66366	-2.14481	1.22462	10.25491
1828.12500	9.48746	-2.05220	2.28817	12.27082
1832.03125	13.52006	0.51613	2.23670	15.09260
1835.93750	11.91169	-0.82518	1.80342	11.06452
1839.84375	5.87109	-1.06666	1.56219	6.63353
1843.75000	6.68029	1.86225	2.77809	8.24644
1847.65625	9.10114	0.43212	3.16331	8.65060
1851.56250	9.10442	-1.43860	2.33763	7.04012
1855.46875	7.89898	1.55869	2.60407	3.41490
1859.37500	4.67883	0.05209	0.24501	-0.21027
1863.28125	5.48797	-3.00735	-0.92019	-1.82084
1867.18750	6.29709	-3.94073	1.60757	0.59795
1871.09375	4.28570	-4.19216	2.84613	3.41963
1875.00000	5.49774	-2.49237	1.40642	5.83844
1878.90625	7.11264	-2.85755	2.15759	5.83959
1882.81250	5.50420	-5.87357	3.83112	4.63200
1886.71875	3.49283	-6.71042	2.45499	7.05084
1890.62500	1.48138	-8.95487	3.75987	6.64899
1894.53125	1.08157	-8.14285	3.04518	1.00904
1898.43750	-0.92989	-5.76429	-0.35377	-2.21328
1902.34375	-3.34426	-4.31791	1.31911	-1.40633
1906.25000	-3.74405	-4.25165	0.06333	-3.82293
1910.15625	1.09421	-6.86360	-1.37063	-3.82191
1914.06250	3.11198	-6.93075	-0.53881	-1.40330
1917.96875	1.10049	-4.63694	0.77170	-3.01401
1921.87500	1.10364	-3.98014	1.21643	-2.20705
1925.78125	-0.50491	-5.02696	1.28216	-2.60883
1929.68750	-2.11347	-6.78484	2.76410	-0.99601
1933.59375	1.11316	-5.30358	2.74162	2.63151
1937.50000	4.33983	-2.69772	3.11831	4.24435
1941.40625	3.53724	-5.26239	3.92821	4.24555
1945.31250	2.73462	-5.00823	2.48464	6.66429
1949.21875	2.73784	-2.67670	1.65581	0.21853
1953.12500	0.32351	-4.06763	1.60279	-4.21247
1957.03125	-1.28491	-7.19777	3.46385	1.02687
1960.93750	-3.69916	-8.96881	5.02428	0.22231
1964.84375	-5.30753	-5.80749	4.47668	-3.80567
1968.75000	-6.51293	-5.82285	4.56975	-5.01316
1972.65625	-8.52426	-5.23824	5.31064	-5.81765
1976.56250	-3.28277	-2.82431	6.64475	-2.99571
1980.46875	-2.07055	-3.01000	5.31301	1.03511
1984.37500	-2.06695	-2.18707	5.24410	-0.17204
1988.28125	-1.66030	-2.92860	5.45981	-3.79679
1992.18750	-0.85075	-3.57833	4.19304	-5.00392
1996.09375	-2.45869	-5.29073	4.20023	-4.59920
2000.00000	-3.66366	-6.32204	1.97618	-6.20912
2003.90625	-0.03344	-3.81728	2.77296	-4.99844
2007.81250	-0.43244	-5.27782	4.72719	-0.56424
2011.71875	-0.83152	-7.14797	5.50058	0.64653
2015.62500	2.79870	-5.32884	7.01004	1.05136
2019.53125	1.19074	-7.21840	3.47775	1.85917
2023.43750	0.79154	-7.87760	1.09371	-2.16835
2027.34375	0.79514	-4.41057	1.56429	-5.79294
2031.25000	-0.41011	-2.65155	1.17271	-2.16493
2035.15625	-1.21249	-4.54930	2.18064	-0.14865
2039.06250	-3.22377	-6.50264	2.56757	-0.95313
2042.96875	-2.01170	-7.51708	3.02840	-2.16061
2046.87500	-1.20256	-7.58040	3.22267	-0.95056
2050.78125	-2.81116	-8.22186	1.68314	-2.15821
2054.68750	-1.19628	-7.78627	4.62024	-1.75421
2058.59375	-3.61084	-8.20168	6.09745	6.30537
2062.50000	-2.80203	-9.18133	5.35510	5.09754
2066.40625	2.03604	-7.53565	4.86586	6.71021
2070.31250	4.05362	-7.34026	6.62664	15.57554
2074.21875	8.08573	-5.77226	7.07550	13.15885
2078.12500	8.49139	-5.06110	6.01075	11.14501
2082.03125	7.28528	-6.01975	4.44939	15.57797
2085.93750	7.28792	-3.87466	3.67272	15.17579
2089.84375	4.87300	-6.45575	4.31568	10.74427
2093.75000	3.26389	-8.58089	3.09861	5.10393
2097.65625	3.66948	-7.15287	3.92109	3.49294
2101.56250	4.47792	-8.10476	2.32799	3.09066
2105.46875	8.50978	-7.47782	0.04570	4.30013
2109.37500	4.88594	-6.77918	2.00062	3.89785
2113.28125	0.85916	-5.33363	2.76170	6.31599
2117.18750	2.07042	-5.20823	1.44156	8.33125
2121.09375	0.46123	-6.16767	-0.20116	4.30258
2125.00000	2.47841	-5.04908	0.43150	5.91497
2128.90625	4.49559	-5.89485	1.29090	5.91557
2132.81250	4.49809	-6.10441	1.63081	5.11028
2136.71875	4.90357	-4.46377	3.81158	2.29042
2140.62500	2.08551	-3.43029	0.89367	-2.14125
2144.53125	3.29677	-5.45314	-2.82521	0.67987
2148.43750	0.88173	-5.41623	-2.24800	0.68044
2152.34375	-5.15972	-2.83543	-1.50463	-5.36299
2156.25000	-3.94830	-1.29205	-3.47357	-9.39176
2160.15625	-3.94567	-2.71156	-3.65275	-5.36178
2164.06250	-7.97247	-3.04940	-2.87410	-5.76423
2167.96875	-5.55240	-0.51013	-5.39461	-4.15201
2171.87500	-0.31181	-0.36323	-5.43767	-2.13681
2175.78125	-2.72690	-0.12445	-5.90753	-8.98609
2179.68750	-5.14198	-1.59220	-9.40538	-10.19439
2183.59375	-1.51302	-0.25518	-7.77248	-7.77628
2187.50000	1.31001	0.36014	-6.53879	-6.96991
2191.40625	-1.50794	-3.12144	-8.96173	-10.59572
2195.31250	-1.50537	-1.76606	-10.33995	-13.81859
2199.21875	0.10887	2.34704	-11.12416	-12.20630
2203.12500	-0.29147	4.94452	-7.44604	-10.59396
2207.03125	-1.49769	3.64023	-4.87622	-9.38459
2210.93750	-2.30097	2.99149	-4.82617	-4.54875
2214.84375	-1.49258	3.05133	-1.86229	-0.92175
2218.75000	-1.08708	0.24400	-2.76251	-2.53281
2222.65625	0.12423	-0.34281	-4.31057	-0.92049
2226.56250	3.35025	1.67328	-2.82546	0.69189
2230.46875	3.35280	2.66256	-1.89792	-1.32211
2234.37500	-1.47982	3.04611	-2.63618	-1.32145
2238.28125	-2.28316	1.77082	-1.64446	1.09675
2242.18750	-1.47483	0.80656	0.82987	1.90327
2246.09375	-1.87527	0.50208	0.82132	-0.91667
2250.00000	-1.87276	2.73996	-0.98522	-0.11010
2253.90625	0.14441	4.66516	1.44018	5.12861
2257.81250	3.77334	1.69116	1.49928	4.72641
2261.71875	1.76121	0.73846	-0.88721	2.30950
2265.62500	-0.65388	4.96095	0.82551	2.71313
2269.53125	0.15446	7.25119	3.95348	0.69916
2273.43750	-5.08118	3.87870	3.91876	1.50567
2277.34375	-8.30210	2.42399	2.64101	-0.50829
2281.25000	-9.10553	4.28908	0.21077	-0.91058
2285.15625	-12.32650	4.16992	2.82789	-2.92459
2289.06250	-11.92104	4.10639	8.08072	-1.71512
2292.96875	-9.50090	5.11861	6.40980	1.10603
2296.87500	-10.30432	6.38861	4.60254	-4.53434
2300.78125	-13.12243	4.61033	3.32019	-7.75722
2304.68750	-15.94061	3.76977	4.41106	-11.38314
2308.59375	-18.35579	4.18299	6.15595	-12.59129
2312.50000	-17.95029	5.56354	3.27057	-12.99354
2316.40625	-17.94780	6.33337	4.56438	-13.39577
2320.31250	-23.58637	2.50957	3.60812	-14.60382
2324.21875	-23.58392	3.76007	1.14334	-18.63241
2328.12500	-19.55225	8.28493	2.60969	-19.84050
2332.03125	-25.19090	7.22690	1.75217	-18.63115
2335.93750	-24.78569	3.06514	1.72170	-19.43643
2339.84375	-22.76860	2.82370	2.28622	-18.22702
2343.75000	-25.58676	2.93212	-0.93034	-21.04690
2347.65625	-23.56975	0.69623	-2.15696	-21.44924
2351.56250	-21.55276	2.85495	-2.17696	-17.41930
2355.46875	-18.32701	5.04641	-3.92533	-17.01570
2359.37500	-13.08663	5.15162	-2.25523	-12.98575
2363.28125	-8.24912	5.71866	0.60882	-10.16462
2367.18750	-7.44095	7.60586	-2.50461	-10.56691
2371.09375	-6.22981	8.16035	-2.87790	-7.74582
2375.00000	-6.22746	6.63673	-1.09438	-4.52175
2378.90625	-3.80759	5.06289	-3.16388	-7.74458
2382.81250	-4.20820	4.86740	-3.10228	-10.56445
2386.71875	-3.80303	6.44822	-0.44923	-9.35509
2390.62500	-4.20363	7.42724	-0.75619	-7.74277
2394.53125	-2.99255	6.22464	-0.26220	-2.10126
2398.43750	-2.58737	4.17097	2.38260	-2.50363
2402.34375	-0.16751	6.02032	3.65244	-3.30895
2406.25000	3.05817	5.68367	3.20238	0.31793
2410.15625	0.23986	4.28046	1.76827	3.54193
2414.06250	-1.77247	3.81032	0.18233	1.93080
2417.96875	-4.59064	1.26895	2.70145	-6.12730
2421.87500	-3.37960	1.92571	5.16062	-5.72378
2425.78125	0.24896	3.29648	6.03200	-1.29095
2429.68750	-0.55465	4.35910	7.91668	-0.48455
2433.59375	1.46218	4.63165	8.29691	-2.09575
2437.50000	3.88198	1.99938	9.07646	-4.10983
2441.40625	4.69003	3.46410	8.27440	-3.30335
2445.31250	8.31864	5.73293	6.83065	0.72647
2449.21875	10.73843	4.84104	6.80753	3.14454
2453.12500	6.30849	0.62968	6.35136	3.95100
2457.03125	0.26669	1.12595	7.40635	3.95148
2460.93750	-3.35742	2.17545	6.54899	3.95193
2464.84375	-2.14636	2.91919	6.40403	3.54947
2468.75000	-5.77053	4.11269	8.51153	5.96759
2472.65625	-13.02104	3.48861	9.65515	3.55045
2476.56250	-12.61581	1.47034	7.76558	-1.28422
2480.46875	-12.21062	-5.16215	8.85114	-0.88084
2484.37500	-10.99950	-5.95082	9.99083	0.73147
2488.28125	-10.19136	-3.06593	5.37120	-0.07384
2492.18750	-7.36864	-6.93899	4.10415	-2.89401
2496.09375	-8.97821	-7.44247	4.11103	-0.87896
2500.00000	-11.79648	-6.86194	6.72183	-3.69900
2503.90625	-8.16794	-8.38629	9.93593	-4.90741
2507.81250	-7.76295	-7.02606	7.05475	-3.69824
2511.71875	-7.35782	-5.67257	7.82788	-6.11543
2515.62500	-6.54980	-5.46500	11.35166	-4.10038
2519.53125	-5.33887	-4.53386	9.83380	-4.09997
2523.43750	-6.54555	-7.20751	7.44941	-5.71126
2527.34375	-10.16984	-6.56080	5.90509	-4.50210
2531.25000	-8.95892	-4.80163	5.51317	-2.89003
2535.15625	-12.18023	-6.29635	3.29739	-3.29250
2539.06250	-14.99860	-5.42902	1.26641	-6.51551
2542.96875	-12.57888	-3.62283	3.33860	-9.33562
2546.87500	-10.96505	-2.47739	4.33837	-11.75271
2550.78125	-11.36582	-3.11881	2.79859	-16.18455
2554.68750	-12.57249	-3.08615	-0.71155	-16.98998
2558.59375	-8.54105	-3.09859	-0.04053	-13.36323
2562.50000	-6.52428	-4.48122	1.63436	-9.33351
2566.40625	-4.10457	-3.23848	-0.06400	-7.72132
2570.31250	1.13567	-2.23729	2.09936	-3.69158
2574.21875	0.73485	-3.08697	2.14493	-1.27358
2578.12500	-3.69527	-3.58464	-0.12895	-4.49669
2582.03125	-4.49895	-4.94634	1.12978	-2.48166
2585.93750	-4.49681	-6.02477	2.36736	-4.89886
2589.84375	-6.91230	-6.59129	0.59241	-6.10731
2593.75000	-7.31310	-8.31360	1.38961	-1.27176
2597.65625	-5.29639	-6.88567	2.21164	-3.68898
2601.56250	-0.86206	-3.00249	2.63291	-2.88276
2605.46875	0.34873	-1.56973	3.57372	-0.06184
2609.37500	-0.45511	-2.07996	5.12542	-1.67323
2613.28125	3.97913	-3.45500	7.09496	4.37111
2617.18750	6.39871	-5.34430	6.17741	7.99792
2621.09375	3.17725	-3.48328	6.14617	5.98369
2625.00000	3.58213	-4.37937	10.40492	7.19292
2628.90625	4.39000	-6.83690	12.06984	7.19330
2632.81250	5.60072	-7.44940	12.40940	8.40245
2636.71875	6.81149	-6.61465	13.78404	11.62631
2640.62500	5.20174	-5.98408	11.67177	7.59738
2644.53125	6.81542	-4.78357	11.17605	4.37431
2648.43750	9.23504	-5.14958	11.34997	8.80693
2652.34375	7.22239	-5.38931	9.67553	10.41899
2656.25000	6.82141	-7.06933	7.70633	8.40469
2660.15625	8.83802	-7.27994	6.31813	8.80797
2664.06250	8.84000	-8.42365	6.29058	8.80831
2667.96875	8.03610	-8.30193	6.99321	6.39106
2671.87500	7.23203	-5.73737	7.35281	4.37676
2675.78125	7.63657	-4.28975	4.06210	7.60049
2679.68750	6.02654	-4.54862	0.96692	5.58612
2683.59375	5.62530	-6.03201	3.00254	2.36299
2687.50000	8.85048	-5.81945	3.83307	6.79557
2691.40625	6.83756	-5.27161	2.61872	7.60175
2695.31250	4.42172	-5.52787	1.64324	3.57278
2699.21875	2.81169	-4.23509	2.06763	1.15548
2703.12500	2.00759	-4.86094	0.91032	3.57339
2707.03125	1.60638	-4.95638	0.25644	3.97666
2710.93750	0.80234	-3.18744	2.32087	4.37989
2714.84375	-2.82219	-5.14207	2.46400	4.78316
2718.75000	-2.82044	-6.33762	0.35478	2.36585
2722.65625	-2.81867	-4.90981	0.01525	3.57498
2726.56250	-1.60819	-2.49075	-0.11156	3.57525
2730.46875	-1.20352	-5.53063	-0.39314	3.57552
2734.37500	-3.21639	-6.35578	-0.32574	3.97879
2738.28125	-4.02049	-4.00464	-0.54309	-2.46777
2742.18750	-2.80991	-6.17755	-0.08373	-2.87045
2746.09375	-0.79348	-6.07907	-0.89840	-0.85556
2750.00000	2.43163	-2.63235	-1.09347	2.36812
2753.90625	4.85103	-2.72174	1.73456	7.60637
2757.81250	4.44997	-2.06934	2.19624	9.21828
2761.71875	4.45178	-3.42489	-0.59343	9.21845
2765.62500	-1.18746	-3.23164	-2.50742	7.60686
2769.53125	-1.58859	0.26741	-2.20025	8.81581
2773.43750	-0.37799	-2.29908	-1.02656	7.20420
2777.34375	-0.37623	-4.55955	-1.90169	3.17493
2781.25000	-1.98609	-5.11200	-0.70581	7.20438
2785.15625	-3.19307	-4.02230	-0.90954	11.63665
2789.06250	-0.37087	-4.48873	-0.89515	11.23382
2792.96875	0.43668	-5.08817	2.26881	9.21923
2796.87500	1.64724	-6.23575	-0.34460	5.59288
2800.78125	1.24606	-5.99925	-1.22436	7.20470
2804.68750	-1.16990	-4.01930	-0.93962	9.21946
2808.59375	0.84630	-3.60602	-3.22429	9.62250
2812.50000	2.45956	-3.43424	-4.09528	12.44314
2816.40625	2.46114	-2.66430	-2.80173	10.02575
2820.31250	2.46275	-3.26458	-2.14651	8.81712
2824.21875	4.07616	-3.62576	-1.38818	11.23492
2828.12500	0.45143	-4.33896	-0.72795	5.99700
2832.03125	-4.78498	-6.20279	-2.79455	-0.04676
2835.93750	-6.39497	-6.73812	-5.64579	1.16219
2839.84375	-5.18446	-5.36782	-5.88746	5.19167
2843.75000	-1.55640	-1.23007	-5.47784	7.20656
2847.65625	-1.55467	0.16048	-4.69015	4.78914
2851.56250	-0.74703	-2.91894	-5.11331	3.98345
2855.46875	0.06051	-4.75670	-6.86193	3.17777
2859.37500	-2.75828	-5.05445	-5.99803	2.37215
2863.28125	-1.95073	-5.29319	-5.55185	-1.25400
2867.18750	-0.33733	-5.01764	-4.63630	-4.47724
2871.09375	-1.14145	-5.67190	-3.39822	1.16396
2875.00000	0.06906	-5.98662	-0.80910	2.77595
2878.90625	-1.54098	-3.53108	-2.47602	0.35857
2882.81250	-3.95680	-2.11476	-3.62348	2.37342
2886.71875	-0.32872	-3.35440	-3.79131	-1.25271
2890.62500	2.49351	-4.79279	-3.69567	-0.44668
2894.53125	-1.13113	-7.20410	-4.81366	1.56812
2898.43750	-4.35289	-5.63129	-4.58670	0.35947
2902.34375	0.48395	-3.78186	-4.12308	4.79188
2906.25000	2.09739	-4.11847	-3.36465	3.98617
2910.15625	-2.73609	-4.31276	-1.97852	1.16569
2914.06250	-4.74917	-5.99163	-3.96774	0.35993
2917.96875	-4.74753	-6.11538	-1.85187	0.36003
2921.87500	-8.37224	-5.86141	-0.19887	-4.87795
2925.78125	-13.20576	-8.11698	-2.95422	-9.71297
2929.68750	-13.20418	-9.87479	-4.69619	-8.50407
2933.59375	-9.17328	-8.79638	-3.91336	-5.68347
2937.50000	-5.94822	-7.39922	-3.94008	-1.65405
2941.40625	-4.73789	-8.75498	-3.93658	-2.86266
2945.31250	-6.75094	-8.90362	-2.15723	-3.66830
2949.21875	-3.12294	-6.97496	-3.38958	1.16706
2953.12500	-0.70372	-7.15696	-5.45769	-4.87668
2957.03125	-1.50801	-7.86936	-3.59714	-7.69695
2960.93750	-4.32688	-9.23740	-2.84309	-4.87625
2964.84375	-3.92231	-10.10528	-2.58536	-8.50243
2968.75000	0.91439	-8.50884	-2.49277	-4.07011
2972.65625	-2.30750	-6.71525	-2.55820	0.36228
2976.56250	-5.52943	-7.92757	-1.62756	-2.05517
2980.46875	-5.12502	-8.51602	-2.15396	-8.09898
2984.37500	-3.91475	-6.08116	-1.41749	-8.09883
2988.28125	2.13066	-4.00206	-0.79932	-0.04005
2992.18750	1.72913	-3.03993	-3.27539	-1.65172
2996.09375	-1.49292	-2.33454	-3.26870	-2.45748
