 	TP9	AF7	AF8	TP10	
-1000.00000	0.51287	-2.45444	5.08297	5.29527
-996.09375	3.73711	-1.64782	5.48521	5.08118
-992.18750	6.15550	1.97934	5.08152	11.98341
-988.28125	7.36513	-2.85511	3.87196	7.78292
-984.37500	6.56014	-3.25724	3.87119	14.30739
-980.46875	11.39628	2.38453	3.46754	9.94107
-976.56250	14.21777	4.39998	3.06380	10.16197
-972.65625	8.98076	4.40078	4.27181	14.79972
-968.75000	10.59347	3.19285	4.67396	9.46189
-964.84375	10.59458	-1.23853	7.09066	3.79365
-960.93750	5.35782	-3.25232	9.91036	1.30020
-957.03125	2.13578	-3.65442	6.68604	-0.08116
-953.12500	3.74880	-5.66816	6.68516	-4.15925
-949.21875	5.36183	-8.89070	8.29596	-4.16809
-945.31250	-4.30706	-8.88983	7.08626	-9.92314
-941.40625	-15.18475	-5.26255	5.87658	-10.55104
-937.50000	-11.55690	-1.23239	5.47283	-12.34856
-933.59375	-9.94381	0.38015	1.44268	-13.06293
-929.68750	-8.73369	-5.66293	0.63593	-8.93443
-925.78125	-1.88269	-3.24450	1.84391	-10.72786
-921.87500	3.35660	6.42668	4.66367	-9.09173
-917.96875	8.19290	6.83040	5.06578	-8.10484
-914.06250	8.19390	4.81656	0.63277	-11.51068
-910.15625	7.38907	2.80271	1.84086	-6.85662
-906.25000	6.58410	0.78887	3.45191	-13.12901
-902.34375	0.54107	1.59554	1.43657	-14.06514
-898.43750	1.75073	3.20810	1.83881	-3.86862
-894.53125	11.01886	1.19428	3.44995	0.09337
-890.62500	9.40777	-1.22250	1.43471	6.49413
-886.71875	2.96142	-0.81874	0.62823	5.43512
-882.81250	8.60288	-1.22091	3.04526	5.55565
-878.90625	17.06476	-0.01132	4.25348	11.64443
-875.00000	18.27383	2.40696	4.25292	10.87012
-871.09375	18.27412	3.21359	3.84941	10.96836
-867.18750	17.87147	2.40845	3.84887	7.48974
-863.28125	5.38088	5.22983	2.23664	7.46409
-859.37500	-1.46875	1.60428	1.43026	7.41210
-855.46875	-2.67742	-5.24462	0.62382	5.91254
-851.56250	-2.27436	0.39722	-0.58546	-3.10583
-847.65625	2.15799	5.23324	-0.18309	-6.16068
-843.75000	-1.06537	3.62230	0.62226	-7.12922
-839.84375	-4.28876	5.23488	3.84522	-8.10044
-835.93750	-2.27403	2.01224	4.65063	-3.49551
-832.03125	0.14362	-0.00160	1.42668	-2.68949
-828.12500	2.96408	3.22265	3.84369	1.55151
-824.21875	8.20209	4.02926	7.46957	2.47248
-820.31250	3.76974	0.80656	7.06611	4.19421
-816.40625	1.35208	1.21028	7.46855	-0.42931
-812.50000	3.36662	6.85204	7.87092	-5.91648
-808.59375	2.56077	8.46457	7.06454	-4.02873
-804.68750	4.57547	1.21262	7.06401	-0.39753
-800.78125	6.59013	-0.80125	6.25765	-10.49950
-796.87500	8.20201	6.85515	3.83954	-11.88257
-792.96875	4.97867	7.66178	1.82441	-18.02525
-789.06250	2.56112	4.84204	3.83859	-22.49985
-785.15625	2.56115	2.82813	3.43524	-16.54430
-781.25000	2.96414	-1.20040	4.64358	-12.69081
-777.34375	-3.07979	0.41203	7.06065	-15.28854
-773.43750	-7.51202	2.02454	4.64261	-14.03518
-769.53125	-2.67682	1.62232	3.43330	-10.75161
-765.62500	2.56132	3.23478	1.82103	-12.52592
-761.71875	0.94966	9.68233	2.22348	-12.45124
-757.81250	6.99367	12.10067	2.22294	-17.89790
-753.90625	5.78485	4.04284	1.41654	-20.13776
-750.00000	-5.90008	0.41717	1.01303	-15.12426
-746.09375	-2.27353	2.83546	2.62422	-16.54931
-742.18750	-4.69102	0.01569	3.83240	-14.61439
-738.28125	-3.07910	-0.38652	4.63774	-8.02352
-734.37500	4.17378	3.24061	4.63717	-6.91946
-730.46875	2.96510	0.01788	3.42781	-6.60960
-726.56250	2.56228	0.82444	3.83015	-5.24582
-722.65625	-0.25807	6.86911	0.60615	-3.46371
-718.75000	-0.25793	6.46693	-2.21492	-6.21139
-714.84375	0.95109	-0.78513	-0.60373	-5.40512
-710.93750	3.77184	-1.18737	-1.00726	-4.55009
-707.03125	7.39849	-0.78370	-2.21663	-8.83643
-703.12500	11.42802	0.02288	2.21506	-1.96433
-699.21875	17.87510	3.24707	5.03499	-0.77324
-695.31250	13.44312	3.65068	1.40808	-0.68574
-691.40625	1.75835	3.24848	-0.60715	-2.90490
-687.50000	-5.49410	7.68140	-1.01068	-4.76021
-683.59375	-7.10550	8.08512	2.21220	-8.90745
-679.68750	-3.47890	2.84779	3.42043	-12.25655
-675.78125	0.14775	2.04269	1.80809	-11.29561
-671.87500	-3.47842	0.02875	2.21045	-8.52614
-667.96875	-3.07523	1.23823	1.80689	-5.51041
-664.06250	5.38649	5.67112	1.40341	-5.35468
-660.15625	5.78970	2.85133	0.59692	-6.40902
-656.25000	3.77534	-1.98310	0.19343	-4.59566
-652.34375	4.98441	1.24110	-1.01599	-0.86595
-648.43750	15.05791	4.86819	-0.61364	3.41619
-644.53125	10.22303	8.49531	-0.21137	-5.00504
-640.62500	-1.05874	8.09311	0.99681	-8.61235
-636.71875	2.16496	4.06461	0.99621	-7.17768
-632.81250	-1.86413	6.08000	-0.21318	-10.14610
-628.90625	-7.90782	11.31882	-1.01962	-10.21832
-625.00000	-11.53393	12.52834	-1.02019	-9.87447
-621.09375	-11.13078	3.66456	0.18803	-8.38847
-617.18750	-5.89240	-1.97572	0.99327	-0.90814
-613.28125	-2.26563	-2.78091	1.79852	1.10447
-609.37500	4.98751	-0.76550	0.58915	0.72594
-605.46875	4.98786	2.86157	-1.82897	-4.65196
-601.56250	6.59991	6.48871	-0.21787	-6.54045
-597.65625	14.65892	4.87769	0.18447	-3.51334
-593.75000	7.40650	3.26674	0.98970	0.65087
-589.84375	-2.66648	4.07336	0.18323	-0.42041
-585.93750	0.55726	4.07416	-0.62324	-6.66489
-582.03125	8.21321	5.28369	0.18198	-4.27531
-578.12500	13.85446	-0.35667	0.98717	-0.88839
-574.21875	15.06353	-7.20574	1.79239	2.19213
-570.31250	14.25796	-4.78748	2.59767	-3.58670
-566.40625	15.46703	8.91288	2.59704	-7.85550
-562.50000	12.24385	13.34588	-0.62704	-5.21653
-558.59375	7.81192	7.70560	0.58107	-4.71450
-554.68750	0.15659	5.69172	1.38633	-5.14994
-550.78125	-6.69293	4.48365	0.57978	-10.38696
-546.87500	-1.85739	4.08147	0.57913	-2.98752
-542.96875	2.17233	3.67919	0.98145	2.32176
-539.06250	4.59024	6.90329	2.18962	-0.08105
-535.15625	4.99359	6.90392	0.98019	0.38272
-531.25000	4.18819	2.47232	0.17372	5.36614
-527.34375	5.80031	0.86127	1.38192	-5.76332
-523.43750	-2.66093	1.26489	3.39597	-11.07345
-519.53125	-12.73383	2.47433	2.99240	-11.16102
-515.62500	-17.16571	2.87800	2.99177	-12.63764
-511.71875	-18.37415	1.26697	3.39407	-12.33688
-507.81250	-10.71809	1.67052	2.58757	-11.35000
-503.90625	-1.85338	3.28298	3.39276	-10.74946
-500.00000	-1.04723	2.88073	1.78035	-8.13484
-496.09375	2.57936	5.29900	1.37680	-9.15490
-492.18750	4.59431	8.12015	1.77903	-11.92317
-488.28125	5.80346	6.50913	2.18133	-11.69169
-484.37500	12.25078	2.48042	1.77774	-9.19679
-480.46875	13.05707	5.30161	2.98588	-11.14580
-476.56250	14.66916	2.48173	1.37351	-18.58096
-472.65625	14.66955	-1.94977	-2.25355	-24.41969
-468.75000	10.23771	6.10948	-1.44836	-19.68467
-464.84375	11.84978	7.31896	-1.04606	-18.50352
-460.93750	8.22380	4.49916	-1.44967	-17.37110
-457.03125	4.59776	6.51466	0.96726	-17.14126
-453.12500	9.03031	6.91830	4.59298	-12.35568
-449.21875	7.01597	4.09849	3.78638	-9.54483
-445.31250	9.83675	4.09917	3.38281	-6.03328
-441.40625	15.88095	8.12913	5.79967	-1.42390
-437.50000	9.83730	5.71223	6.20196	-13.29563
-433.59375	2.58489	-1.53982	3.38080	-20.45773
-429.68750	2.18237	-4.76261	0.96252	-14.71846
-425.78125	2.98859	-4.76192	0.55888	-15.30385
-421.87500	0.57135	-2.74655	1.36411	-15.28019
-417.96875	3.39224	1.28354	2.57225	-13.48813
-414.06250	10.64542	1.68721	2.57159	-8.43314
-410.15625	15.48101	-0.32666	0.95918	-6.19733
-406.25000	6.61685	-2.74352	0.55557	-5.21747
-402.34375	6.61722	1.28655	3.77833	-4.54222
-398.43750	8.22931	7.73412	5.38942	-10.06042
-394.53125	2.99153	3.70553	6.19461	-9.32208
-390.62500	5.00654	-4.35234	4.58225	-11.78596
-386.71875	4.20108	-4.35163	4.58159	-14.85961
-382.81250	4.60439	2.09598	6.59558	-17.96243
-378.90625	-0.23027	1.29085	3.77437	-25.17016
-375.00000	1.78481	1.69446	2.96786	-18.69146
-371.09375	5.81451	2.90399	4.57898	-10.13145
-367.18750	6.21787	0.89011	5.38417	-11.99802
-363.28125	7.82994	4.11432	4.57764	-17.26139
-359.37500	3.80104	4.51796	2.56229	-13.68670
-355.46875	10.24841	4.92164	2.56159	-10.75368
-351.56250	7.02545	5.72827	2.15795	-16.14519
-347.65625	0.17610	4.11736	1.35140	-16.78199
-343.75000	3.80287	2.90931	1.75358	-22.98822
-339.84375	0.98279	4.11885	2.96168	-23.95899
-335.93750	1.78905	8.14887	4.16974	-18.95073
-332.03125	0.98360	9.76127	3.36315	-16.93547
-328.12500	-3.44828	1.70337	5.37709	-13.49980
-324.21875	-8.68599	-2.32521	6.58519	-9.75776
-320.31250	-7.47676	2.51072	5.77858	-1.58849
-316.40625	-1.83530	-0.30899	4.16617	5.87660
-312.50000	-1.43186	0.49763	2.55375	7.23983
-308.59375	-6.26650	4.52766	4.16473	1.47264
-304.68750	3.00143	-1.11257	7.38749	12.35724
-300.78125	10.65756	-1.11182	3.35749	21.99947
-296.87500	1.79355	6.94750	-2.28427	9.33486
-292.96875	-1.02654	10.57461	-4.29962	-0.83665
-289.06250	1.79437	10.17237	-7.12080	-1.68427
-285.15625	3.80944	10.97890	-8.33030	-4.99548
-281.25000	1.79525	14.60598	-10.34566	-6.78245
-277.34375	3.40745	14.20375	-6.72000	3.91712
-273.43750	-5.45651	10.98104	-3.49725	3.15638
-269.53125	-7.87364	11.78762	-4.70670	-0.00632
-265.62500	3.81190	12.19130	-1.48400	5.47269
-261.71875	2.60359	9.77443	0.93292	14.81548
-257.81250	6.23043	6.95468	-0.27657	21.86028
-253.90625	7.43968	7.35836	0.12568	22.44164
-250.00000	6.63424	6.95614	0.93082	17.78548
-246.09375	12.27580	2.12175	1.33307	13.13765
-242.18750	13.88798	-1.50390	0.12357	9.43225
-238.28125	11.47083	-1.90606	2.13751	8.36808
-234.37500	11.06825	2.52687	4.15143	10.27859
-230.46875	9.45697	4.94518	0.92725	15.42429
-226.56250	4.21929	2.93121	-0.28227	16.38572
-222.65625	2.60795	4.54362	-1.49176	15.75081
-218.75000	10.66696	9.37956	-1.08949	17.83890
-214.84375	7.44399	14.21539	2.13326	18.64572
-210.93750	0.59467	11.39558	4.55018	20.30721
-207.03125	7.44507	-0.69160	1.72895	24.48307
-203.12500	6.63968	-2.30265	-1.49518	22.08843
-199.21875	4.62550	7.77127	-0.28705	20.86259
-195.31250	4.62586	11.39835	-0.28772	12.48916
-191.40625	6.64088	7.77267	-1.09426	6.24127
-187.50000	6.23843	7.77341	0.91969	10.83338
-183.59375	4.62704	12.60933	-0.28982	8.70130
-179.68750	7.44784	12.20709	-3.11105	8.17315
-175.78125	7.85099	10.19317	-2.30593	7.52281
-171.87500	8.65714	4.95576	-1.50079	7.47218
-167.96875	9.86624	1.33006	-1.09853	4.04139
-164.06250	11.07529	4.15124	0.10956	2.58575
-160.15625	9.86674	3.34611	1.31763	5.56086
-156.25000	6.24071	1.33214	0.91394	-0.68417
-152.34375	11.88209	10.60020	-1.10145	15.93966
-148.43750	11.88247	17.04770	-1.50513	68.57366
-144.53125	2.61538	8.18391	-0.29707	110.11600
-140.62500	-1.41364	3.34944	1.71684	130.68480
-136.71875	-2.62217	4.96182	0.50728	143.80470
-132.81250	4.63085	4.55957	0.90945	156.14781
-128.90625	13.89858	3.35155	4.13212	164.53734
-125.00000	20.34576	2.94925	5.34015	176.16345
-121.09375	20.34602	3.75579	6.14523	182.88776
-117.18750	17.12296	4.96532	6.95030	183.11562
-113.28125	12.28824	2.54844	6.14370	185.12856
-109.37500	4.63292	-1.88307	4.53127	177.49765
-105.46875	1.00695	1.74395	6.54518	176.95538
-101.56250	3.42487	2.55045	6.94736	168.62041
-97.65625	10.27508	0.93942	3.72320	166.40987
-93.75000	2.21681	-1.47752	3.72247	161.30717
-89.84375	-8.66201	-3.49146	1.30421	148.55151
-85.93750	-13.49681	-0.67015	-0.71118	144.72517
-82.03125	-14.30235	1.74809	2.10857	139.86249
-78.12500	-5.43744	-4.29517	2.10782	137.60889
-74.21875	-3.42237	-5.90617	-0.71344	136.25754
-70.31250	-4.63071	5.77948	-2.72887	129.27036
-66.40625	2.62251	9.40659	-0.71501	131.04591
-62.50000	0.60832	5.37797	4.11938	128.04422
-58.59375	-8.25571	2.55810	3.71568	116.86162
-54.68750	-9.06121	6.58813	2.90907	109.57671
-50.78125	-5.83733	9.40934	0.89365	105.14589
-46.87500	-3.01637	2.96318	1.29588	95.21973
-42.96875	1.41628	1.35222	2.10097	87.23271
-39.06250	6.25198	1.35295	2.90604	83.62155
-35.15625	4.64073	0.95068	5.72577	88.11507
-31.25000	-6.64087	-1.46625	7.73965	88.26371
-27.34375	-12.68437	-1.86846	9.75359	86.40213
-23.43750	-15.10138	-2.27070	10.55869	85.12182
-19.53125	-13.08614	-3.07577	9.75211	83.02004
-15.62500	-12.27974	-2.26918	9.75136	81.54386
-11.71875	-11.07047	-2.67142	7.33297	76.20401
-7.81250	-2.20543	1.35866	9.34684	78.80302
-3.90625	0.21272	-1.05825	8.54022	76.58354
0.00000	-0.99553	-7.90735	4.10720	71.14004
3.90625	3.43718	-5.08612	4.10642	72.13503
7.81250	3.03484	2.16738	2.89686	74.20232
11.71875	7.87059	6.19738	3.70197	72.01671
15.62500	12.70628	6.60101	6.11885	66.85638
19.53125	10.28924	3.78116	4.50641	70.54881
23.43750	13.11019	-0.24743	2.89389	65.53167
27.34375	10.69309	-1.05259	3.69896	64.52842
31.25000	4.64973	-0.64895	4.10116	61.60811
35.15625	5.05323	6.60451	2.08574	59.96913
39.06250	1.83027	8.21692	0.47319	63.92238
42.96875	3.03963	4.59121	0.87537	66.16721
46.87500	4.65195	9.02415	0.06872	61.68582
50.78125	12.71114	10.63661	-1.54382	51.60339
54.68750	8.68242	8.62265	-1.54458	50.68317
58.59375	4.25080	6.60870	-2.35119	54.48717
62.50000	4.25137	5.40064	-3.15781	47.45119
66.40625	3.04314	5.80427	-3.15860	44.72175
70.31250	3.04365	6.20788	-3.56235	39.98529
74.21875	-2.59702	7.82019	-2.75723	38.59443
78.12500	1.43271	9.02970	-1.14633	37.00678
82.03125	7.07419	0.97182	0.06168	35.97872
85.93750	-3.80459	-7.08612	1.67260	35.79604
89.84375	-9.84809	-2.65329	0.06013	30.77954
93.75000	-8.63878	2.98844	-0.34359	30.95401
97.65625	-2.19138	2.98911	1.67033	33.64434
101.56250	3.45007	0.57220	0.46076	32.15584
105.46875	2.24184	-1.03877	-0.34589	24.83601
109.37500	4.25714	-3.85856	2.87678	28.81957
113.28125	1.03442	-5.87252	3.68183	30.17876
117.18750	-5.81463	-1.43960	4.48693	26.67367
121.09375	-2.59031	0.57581	3.27731	24.70463
125.00000	-5.00693	-0.22924	0.05302	21.91659
128.90625	-6.61780	-1.84011	0.45505	23.22457
132.81250	-2.58756	-3.85398	2.46891	26.19401
136.71875	10.71010	-2.24150	2.46807	26.97538
140.62500	15.94908	1.38573	1.25843	26.92456
144.53125	-1.37604	4.20702	1.66048	27.03784
148.43750	-1.37519	-2.64207	0.45085	25.67635
152.34375	3.46070	-7.07348	0.45002	23.02563
156.25000	2.65558	2.19474	2.86680	21.25237
160.15625	1.44756	5.01605	1.65718	20.28226
164.06250	-2.17807	0.98749	-0.35831	14.41220
167.96875	0.24019	-1.02642	-1.97085	11.59305
171.87500	3.06134	-0.21982	-1.16582	7.77658
175.78125	-1.77324	3.81019	0.44506	8.69886
179.68750	-8.62237	4.61676	0.04135	9.21309
183.59375	-7.00995	7.43809	-0.36241	7.00847
187.50000	-3.78591	7.43884	-0.76609	11.59585
191.40625	-11.03800	7.03659	-1.16983	11.47025
195.31250	-4.18750	3.81384	-3.58822	7.84989
199.21875	-2.97810	-3.43822	-3.18606	9.03109
203.12500	-14.66257	-1.82575	0.03659	15.70765
207.03125	-15.06503	1.39842	-0.36718	15.60996
210.93750	-9.42345	-0.21265	0.84079	13.95697
214.84375	-3.78187	-2.22664	2.04875	10.64620
218.75000	-2.57249	-1.42008	2.85378	6.44216
222.65625	-3.78069	-2.22521	3.25593	3.44267
226.56250	-5.39172	-0.61274	3.25510	4.29418
230.46875	-5.79401	-0.61200	2.85130	5.56417
234.37500	-5.79339	-6.65532	0.43289	0.56751
238.28125	-9.01627	-9.07221	1.23798	-2.58019
242.18750	-8.20982	-7.86276	3.25182	-5.20527
246.09375	-8.61215	-7.86208	3.65390	4.64397
250.00000	-7.80567	-11.48782	3.25018	8.44982
253.90625	-4.98451	-11.08420	1.23472	5.41421
257.81250	-9.01330	-1.01030	2.84561	6.94731
261.71875	-6.19219	2.21384	2.03893	4.27185
265.62500	-1.75943	0.60279	-0.37952	4.57103
269.53125	1.86753	1.00644	-2.39499	8.50830
273.43750	-0.14658	2.61884	-1.99285	5.44079
277.34375	3.07739	1.81367	-0.78485	6.41796
281.25000	7.51015	3.02314	0.82605	13.74444
285.15625	3.88429	3.42678	0.82526	12.93978
289.06250	2.27315	2.62152	-1.59315	8.96053
292.96875	9.92937	2.21927	-0.78807	17.16592
296.87500	9.52707	2.62290	1.22576	20.41249
300.78125	-6.18667	-0.59977	1.22495	9.11364
304.68750	-6.58905	1.81845	2.43293	5.57569
308.59375	-2.96210	5.04256	2.83499	8.99848
312.50000	-2.15576	-1.40365	0.81953	-0.10874
316.40625	-2.15524	-2.61178	0.01285	0.58005
320.31250	-0.54298	-0.59643	0.01199	4.08165
324.21875	-1.34823	-2.20751	1.21996	6.65526
328.12500	-7.79462	-0.99802	-0.39261	9.02274
332.03125	-2.55601	0.61434	-2.00512	8.01012
335.93750	-0.13777	3.03261	-2.81178	11.79320
339.84375	-0.94293	2.22742	-2.81258	14.36619
343.75000	-2.55396	-1.39834	-2.41050	11.74835
347.65625	-4.16494	-1.39768	-2.41131	13.46442
351.56250	1.07382	1.02058	0.40837	18.15053
355.46875	7.11841	1.02122	2.42226	16.58015
359.37500	5.91026	-1.79863	0.40672	14.58564
363.28125	0.67274	1.42549	1.61470	17.23020
367.18750	0.27038	3.03786	3.62853	21.11272
371.09375	3.09142	-3.81129	2.01599	14.59466
375.00000	0.67436	-4.61655	1.20928	14.93973
378.90625	-2.14559	-2.60123	3.22306	12.80051
382.81250	5.91353	-4.21229	1.61046	13.83510
386.71875	-3.35336	-1.39117	-3.22552	7.79028
390.62500	-12.21726	-1.39054	-4.43519	1.36896
394.53125	-1.33765	-2.19572	-0.40676	1.63328
398.43750	4.70679	3.04306	0.80118	-5.89510
402.34375	4.70737	6.26718	-2.02018	-8.91063
406.25000	1.88749	3.44738	-2.42400	-11.19198
410.15625	7.12617	1.83630	-2.02193	-13.87366
414.06250	7.12677	7.07506	-2.42577	-19.71387
417.96875	0.68049	7.88158	-2.02367	-13.69660
421.87500	5.91918	3.45008	-2.42748	-11.51719
425.78125	4.30810	6.67420	-3.63712	-17.70281
429.68750	7.93511	6.67483	-7.26428	-10.58660
433.59375	8.33874	2.64614	-7.26512	-3.16914
437.50000	-1.33094	3.45272	-4.84840	-8.18473
441.40625	-1.73322	3.85631	-0.41710	-9.29318
445.31250	4.31147	3.45410	1.19378	-2.07164
449.21875	12.77365	6.67825	-2.03053	3.97467
453.12500	18.01245	8.29066	-0.41967	4.92847
457.03125	20.02776	3.85910	0.78829	5.80682
460.93750	11.56687	0.63634	1.99625	7.03162
464.84375	8.74697	4.66633	2.80125	4.67613
468.75000	13.17990	1.84653	1.59160	5.22868
472.65625	5.52485	-0.57033	0.78493	4.57665
476.56250	2.30210	3.05667	0.38117	5.71475
480.46875	3.10862	1.84852	-2.03718	2.00203
484.37500	-0.92008	2.65503	-2.84385	0.52664
488.28125	4.72156	4.26744	-4.05351	-4.40944
492.18750	4.31935	3.46224	-4.86022	-9.86819
496.09375	1.90244	1.85111	-2.84643	-4.83409
500.00000	3.51486	4.67225	-1.23560	3.01990
503.90625	-0.91660	6.68760	-1.63943	10.05963
507.81250	-4.54227	-2.57920	-0.02854	12.93359
511.71875	-3.33273	-11.03999	1.17939	19.21027
515.62500	3.51777	-6.60712	4.40196	21.30344
519.53125	4.32440	3.46690	5.20692	18.95259
523.43750	-0.10719	3.46760	0.37083	11.51872
527.34375	11.17545	1.85653	-0.43588	16.15734
531.25000	5.53497	1.45432	1.17502	13.64092
535.15625	-7.76116	4.27546	2.38298	7.97350
539.06250	-2.92546	1.45560	0.36743	5.88379
542.96875	-0.50739	-1.76722	1.17252	7.72660
546.87500	-3.32723	3.87444	1.17171	3.64902
550.78125	-0.50610	3.06923	-2.45553	3.64071
554.68750	0.30032	0.65226	-2.45638	-0.50207
558.59375	-0.90795	2.26470	-2.05428	-8.78515
562.50000	-0.50446	3.47421	-2.45808	-4.13538
566.40625	-0.50379	1.05730	-2.45894	-5.25219
570.31250	-3.72658	-2.97133	-2.45983	-5.55554
574.21875	-6.14348	1.46157	0.35977	-12.58648
578.12500	-8.96342	3.87975	2.37359	-12.56151
582.03125	-12.18620	-2.56648	2.77559	-15.20027
585.93750	-15.81193	-3.77460	3.58055	-14.97901
589.84375	-19.43758	-3.77399	3.57968	-19.59147
593.75000	-15.40762	-3.77331	3.98180	-18.61011
597.65625	-17.82451	-4.57857	2.77215	-11.08357
601.56250	-15.00329	-6.18961	2.36841	-8.94463
605.46875	-10.57032	-4.98013	1.56167	1.86836
609.37500	-6.94317	-3.36776	-0.85670	6.65858
613.28125	-0.09262	-2.56128	-2.46929	4.39208
617.18750	-2.91238	2.67744	-3.27597	-8.78268
621.09375	-4.12053	9.93081	-4.88850	-6.72171
625.00000	-2.50824	7.91679	-6.50111	-6.28570
628.90625	-2.10468	2.67930	-7.71076	-6.99183
632.81250	-2.10407	-0.14058	-8.11450	-11.67766
636.71875	-4.92400	-2.55759	-8.92127	-14.52212
640.62500	-7.34103	1.47237	-8.11623	-10.14023
644.53125	-6.53464	5.09940	-6.10246	-18.48787
648.43750	-1.29592	3.08546	-6.10335	-11.38718
652.34375	0.71939	-0.94316	-6.50719	-15.24610
656.25000	-0.08591	-2.55425	-3.68758	-12.18355
660.15625	6.76443	0.66983	-2.47966	-5.49721
664.06250	3.94453	4.29686	-5.30103	-10.96375
667.96875	-8.54573	0.67103	-8.12243	-18.21453
671.87500	-10.15682	-5.77522	-9.33213	-21.22445
675.78125	-8.54447	-4.96875	-8.52717	-21.10741
679.68750	-11.76726	-2.95342	-8.52803	-18.17490
683.59375	-17.00473	-6.17619	-7.32010	-18.36418
687.50000	-17.80995	-5.77259	-2.88874	-18.61130
691.40625	-10.55655	-3.35439	-1.68088	-13.09511
695.31250	-2.49733	-1.74199	-2.48762	-5.43270
699.21875	-1.28789	-4.96480	-0.07095	-3.04196
703.12500	0.72741	-4.96419	1.94278	0.00907
707.03125	5.56322	0.27453	0.73307	0.71806
710.93750	7.17574	-1.73949	-1.68544	5.10991
714.84375	6.77351	-2.54478	-5.71561	10.66447
718.75000	9.99752	-3.34999	-6.52230	12.10222
722.65625	12.01269	-4.55813	-5.71730	12.72980
726.56250	11.61029	1.08361	-5.31519	13.17901
730.46875	15.64010	4.30770	-5.31604	10.01735
734.37500	17.25226	2.69652	-3.70519	10.25935
738.28125	9.19407	0.27956	-1.28841	12.75322
742.18750	3.15053	0.28013	-0.08045	5.29360
746.09375	-2.08720	0.28066	0.72455	-0.57093
750.00000	-6.11614	-0.12179	0.72370	-0.79390
753.90625	-9.33918	1.08755	3.14045	-1.00840
757.81250	-15.38269	0.28227	3.94545	-8.74209
761.71875	-15.78519	-2.94059	1.92995	-10.61104
765.62500	-4.09972	-0.52242	-0.48852	-12.72871
769.53125	-6.11386	3.91032	-3.30989	-17.65505
773.43750	-18.60418	3.10511	-3.71372	-21.93052
777.34375	-13.76847	0.28532	-2.10285	-6.84996
781.25000	-6.91798	2.70353	-2.10375	-9.19298
785.15625	-0.06762	3.10706	-2.50761	2.09115
789.06250	16.85598	4.71932	-6.13484	17.05040
792.96875	26.92978	10.36099	-8.55334	20.01849
796.87500	31.76552	11.97329	-9.36011	24.07179
800.78125	36.19831	13.18272	-7.74933	31.71151
804.68750	33.37833	12.37751	-5.33264	32.60661
808.59375	27.33494	10.76640	-5.33358	28.37451
812.50000	30.96189	7.94645	0.30651	27.32686
816.40625	34.99180	5.52954	4.33497	5.04957
820.31250	24.51622	3.91839	5.13991	-17.23534
824.21875	23.30807	3.91896	9.16829	-26.74875
828.12500	23.71169	1.50202	9.16738	-24.78329
832.03125	15.25083	-0.51202	3.92839	-27.40678
835.93750	20.48966	5.12960	3.52454	-34.09901
839.84375	24.51970	5.53320	4.32955	-43.21025
843.75000	19.68530	0.29575	1.50811	-47.03616
847.65625	20.89479	5.13151	-2.92499	-48.94568
851.56250	21.29838	10.77316	-4.13470	-52.31746
855.46875	16.46391	10.77374	-4.94146	-57.51343
859.37500	14.85282	10.37137	-7.76293	-61.52187
863.28125	3.57135	9.96903	-8.56969	-60.89120
867.18750	2.76620	4.73149	-8.16764	-65.87239
871.09375	3.97565	3.12032	-6.55686	-68.76326
875.00000	-4.08235	6.74733	-4.14016	-66.80565
878.90625	0.35052	7.95669	-2.52938	-62.90018
882.81250	4.38038	1.10750	0.29021	-57.43253
886.71875	-6.09522	-6.54759	4.31867	-52.59740
890.62500	-12.13844	-8.15867	8.34706	-44.51228
894.53125	-6.49667	-8.56100	8.74902	-40.62065
898.43750	1.56263	-8.15742	6.33056	-31.22498
902.34375	1.16041	-6.54511	5.12082	-28.19572
906.25000	0.75819	-4.52982	3.10523	-25.64104
910.15625	6.80292	-0.49982	1.08964	-22.68066
914.06250	11.63893	3.93299	-0.12009	-26.10231
917.96875	14.46023	1.11314	1.49066	-24.91923
921.87500	10.83464	-3.31844	2.29561	-26.76820
925.78125	3.58272	2.72616	2.29466	-28.92358
929.68750	-4.87793	1.92098	5.92007	-33.49151
933.59375	-8.10050	-10.56915	7.53084	-37.35515
937.50000	-12.53187	-7.74789	5.91823	-35.11693
941.40625	-21.39562	-2.10626	4.70850	-37.03031
945.31250	-19.38018	-7.74662	3.90169	-39.47828
949.21875	-13.33549	-4.11964	2.69192	-41.89270
953.12500	-3.26157	3.53669	-2.54713	-42.14688
957.03125	-0.03750	5.14900	-4.15976	-33.20910
960.93750	-4.46913	6.35844	-0.93724	-27.95407
964.84375	-4.87140	7.97075	1.47939	-25.47351
968.75000	-2.45321	8.37428	1.07558	-29.75524
972.65625	-1.64662	3.94262	-4.56640	-33.62975
976.56250	0.77176	3.13740	-4.16434	-34.10250
980.46875	-0.43622	3.54098	-4.16521	-37.00840
984.37500	0.37052	-1.69651	-2.95728	-34.05046
988.28125	-0.03163	-4.11349	-0.54062	-34.55318
992.18750	1.58088	-4.91873	-2.15319	-33.96683
996.09375	3.99933	-6.52988	-1.75115	-30.94630
1000.00000	0.37383	-7.33506	1.87439	-25.91183
1003.90625	-1.64004	-6.52854	3.08231	-24.51206
1007.81250	-0.83334	-3.70737	1.06678	-18.81669
1011.71875	-0.02678	-2.09511	1.46876	-12.94205
1015.62500	-1.23489	-0.88575	1.06495	-15.28032
1019.53125	0.37759	-3.30278	-2.96527	-17.22727
1023.43750	4.00465	-2.49631	-1.75747	-19.01935
1027.34375	-1.23277	-1.68976	-1.35547	-20.42378
1031.25000	-0.42626	-2.49507	-2.96810	-17.70127
1035.15625	0.78321	-3.30034	-2.96904	-18.93555
1039.06250	-2.43957	-4.50854	-1.35827	-16.99513
1042.96875	-1.63307	-7.32841	3.87890	-16.36021
1046.87500	-4.04991	-12.16294	4.68380	-19.63102
1050.78125	-4.45208	-7.32720	3.87700	-16.81773
1054.68750	-2.03380	0.32912	3.87606	-14.10972
1058.59375	-10.49480	-0.47611	0.24874	-15.54188
1062.50000	-17.74691	1.13617	-0.55804	-20.56126
1066.40625	-11.70228	4.36020	-1.36486	-21.27406
1070.31250	-7.67233	3.95785	-2.17168	-21.17342
1074.21875	-6.86576	1.94381	-2.97851	-19.33888
1078.12500	-8.07395	-0.87605	-2.97949	-13.67180
1082.03125	-6.05862	4.36269	-2.57756	-17.92123
1085.93750	-5.65497	2.34866	-3.38437	-19.31061
1089.84375	-6.86290	-4.09757	-3.78829	-18.28104
1093.75000	-9.27963	-2.88810	-3.78926	-24.14838
1097.65625	-9.27881	-7.72263	-0.16380	-29.51449
1101.56250	-9.27792	-6.11028	1.04407	-32.61245
1105.46875	-11.69460	1.54609	-0.56864	-31.87149
1109.37500	-7.26153	-0.06504	-0.97246	-34.33281
1113.28125	-12.49880	-2.48206	-1.77928	-39.82153
1117.18750	-18.13902	-1.67560	-2.98894	-45.74228
1121.09375	-12.49720	0.74251	-2.58696	-48.91825
1125.00000	-16.12288	-4.09203	-1.78203	-45.66052
1128.90625	-19.74855	-4.89725	-1.78294	-42.33603
1132.81250	-19.34488	-0.46434	-5.00723	-44.20010
1136.71875	-11.68847	-2.47843	-3.39643	-48.25207
1140.62500	-6.44962	-4.49249	-0.97973	-41.85427
1144.53125	-9.26938	-4.49190	-2.59241	-31.66582
1148.43750	-6.04521	-4.89421	-1.78749	-27.78732
1152.34375	-8.86506	-8.92289	-0.17665	-27.21274
1156.25000	-10.47603	-8.11642	1.03122	-28.58113
1160.15625	-5.23715	-3.68358	1.83610	-29.54938
1164.06250	5.64266	-2.47427	3.04393	-30.17957
1167.96875	5.24046	-2.07072	3.04295	-32.59396
1171.87500	-9.26425	1.15334	-0.18149	-34.79673
1175.78125	-8.86059	3.57156	-2.60011	-43.94581
1179.68750	-7.24814	0.75161	-3.40696	-47.05613
1183.59375	-11.67965	2.76686	-5.82555	-43.61786
1187.50000	-8.85838	3.17043	-7.03534	-46.68438
1191.40625	-2.41073	-1.66407	-7.43921	-49.62870
1195.31250	-2.00710	-2.06639	-6.63434	-48.81506
1199.21875	-2.40937	0.75471	-5.42652	-50.45258
1203.12500	-5.22916	3.57588	-5.02455	-48.20644
1207.03125	-3.21386	5.59116	-4.21969	-40.24379
1210.93750	-1.60153	2.77121	-4.62362	-43.50680
1214.84375	-3.61557	2.36890	-5.43044	-50.84513
1218.75000	-2.40621	7.20463	-3.01381	-45.78002
1222.65625	-3.61450	7.20518	0.61154	-39.91340
1226.56250	-2.00217	3.17640	1.81937	-36.23967
1230.46875	-6.43380	-0.04651	-0.19623	-36.98254
1234.37500	-13.68600	-0.44886	-2.21182	-38.35106
1238.28125	-14.49128	-0.44835	1.01070	-34.64702
1242.18750	-7.64088	-2.46254	1.81560	-36.86726
1246.09375	1.22425	-2.46199	0.20290	-40.71582
1250.00000	-4.41613	-0.44672	1.00785	-46.57844
1253.90625	-5.62425	1.16550	0.60395	-48.80634
1257.81250	-1.59433	1.56899	1.40883	-41.63035
1261.71875	-1.99664	-2.05687	1.00498	-40.27462
1265.62500	-3.20487	-1.25044	0.60105	-41.98814
1269.53125	0.82500	3.58532	1.80887	-39.25771
1273.43750	5.25790	1.97404	-0.20674	-37.08505
1277.34375	-0.78539	-1.24893	-3.02817	-40.53799
1281.25000	-1.18774	3.98968	-1.01446	-37.64172
1285.15625	4.05096	5.19897	0.99924	-31.99743
1289.06250	-1.99235	-7.69425	0.19238	-32.75133
1292.96875	-1.99171	-8.09661	-1.82323	-33.00550
1296.87500	3.24705	0.36554	-0.21246	-34.59201
1300.78125	-0.37865	-0.84268	-0.61643	-36.21843
1304.68750	0.02502	-1.64793	-2.22915	-38.54550
1308.59375	-1.58599	1.97900	-1.82729	-41.97047
1312.50000	-8.03215	-2.04974	-3.84296	-38.58474
1316.40625	-8.43450	-2.45216	-3.84399	-38.69980
1320.31250	-6.01626	-1.24286	-3.44205	-42.04593
1324.21875	-6.01556	-2.04820	-1.83134	-44.70839
1328.12500	-6.01486	-2.85353	-2.63818	-44.75645
1332.03125	-4.80537	-0.83837	-2.63917	-40.93192
1335.93750	-7.22230	0.77386	-1.02838	-38.35564
1339.84375	-5.60992	-4.06076	-2.64110	-32.96024
1343.75000	-1.98285	-3.25441	-2.23915	-32.35277
1347.65625	-2.78799	1.98421	-2.24018	-31.44069
1351.56250	-2.38434	4.80529	-3.45001	-25.54392
1355.46875	3.25737	4.00000	-4.25682	-27.11235
1359.37500	4.86969	-0.02875	-4.66075	-31.92543
1363.28125	-4.79993	-5.26630	-5.46756	-34.91989
1367.18750	0.43886	-4.86287	-6.27434	-34.25887
1371.09375	5.27466	-1.23608	-6.67826	-35.53676
1375.00000	-1.97745	-1.23560	-7.48508	-36.39850
1378.90625	-1.97681	1.58542	-5.87435	-34.50648
1382.81250	-1.97615	0.37704	-4.66653	-32.66397
1386.71875	-0.36378	-8.08407	-5.87633	-32.25985
1390.62500	6.08382	-6.47188	-4.66851	-32.63522
1394.53125	12.12848	1.58724	-4.26652	-25.92192
1398.43750	10.11454	0.37887	-5.87925	-24.18080
1402.34375	4.07128	-0.02356	-6.28311	-28.00019
1406.25000	3.26612	-1.63468	-7.49290	-29.87665
1410.15625	2.05803	-4.05173	-7.09099	-33.76505
1414.06250	-1.56765	-2.43941	-3.86851	-34.76801
1417.96875	5.28292	-1.63291	-2.25772	-34.38965
1421.87500	8.91005	-1.22946	-2.66166	-34.22287
1425.78125	2.46402	-0.42295	-2.66265	-32.34784
1429.68750	5.68822	-4.04877	-3.06653	-30.46778
1433.59375	7.30081	-6.86867	-3.87342	-29.09227
1437.50000	4.88398	-7.27101	-7.09786	-32.49406
1441.40625	6.49649	-6.46453	-7.50175	-32.39166
1445.31250	8.10902	-2.43461	-4.68228	-33.62969
1449.21875	6.09527	-4.44860	-3.87747	-35.23707
1453.12500	2.06679	-9.68601	-3.47555	-28.64021
1457.03125	-4.37931	-7.67062	-3.47657	-27.35681
1460.93750	-8.40779	-6.05822	-5.08926	-30.96500
1464.84375	2.06916	-1.22237	-3.47856	-28.48313
1468.75000	-1.15353	1.19590	-2.67371	-27.12263
1472.65625	-9.61432	-3.23571	-3.48051	-28.17535
1476.56250	-2.36083	-2.42917	-3.88442	-27.43801
1480.46875	-1.55420	-3.63723	-5.49708	-26.31330
1484.37500	-8.40322	-6.45720	-6.70686	-23.75714
1488.28125	-7.99947	-6.05366	-5.90201	-22.64698
1492.18750	-5.17816	-3.63543	-1.47073	-20.04477
1496.09375	-4.77443	-3.63479	-1.06875	-20.24642
1500.00000	-3.16198	-5.24587	-3.08440	-21.65750
1503.90625	-3.96705	-4.03639	-1.47372	-17.43586
1507.81250	-1.54867	0.39651	-1.07179	-14.55956
1511.71875	0.46689	-4.84095	-4.69921	-23.18904
1515.62500	2.48231	-8.86962	-4.70023	-29.55512
1519.53125	-5.97844	-4.03386	-0.67196	-23.84502
1523.43750	-21.69201	-4.43619	-2.28467	-20.39763
1527.34375	-16.85616	-6.04731	-3.89744	-16.56258
1531.25000	-9.19965	-3.62920	-1.07789	-15.85337
1535.15625	-5.16957	-0.00237	-0.27303	-15.87735
1539.06250	-6.78051	-4.83697	-0.27401	-12.32366
1542.96875	-10.00317	-7.25399	0.12790	-10.88138
1546.87500	-7.58481	-0.00066	-0.27597	-11.73300
1550.78125	-4.76342	2.41756	-1.88869	-16.17094
1554.68750	-1.53914	-2.41702	-3.09841	-20.71417
1558.59375	-1.13532	-5.23690	-2.69649	-21.74193
1562.50000	-5.56677	-3.22167	-1.89162	-21.92471
1566.40625	0.47800	1.21114	-1.48963	-20.62144
1570.31250	7.32857	6.85272	-2.69941	-22.13099
1574.21875	0.88244	5.64444	-1.49159	-28.75651
1578.12500	-5.16081	-1.20484	-2.70137	-33.16125
1582.03125	-3.95125	1.21334	-3.50820	-27.73888
1585.93750	0.88473	2.82561	-0.68870	-25.50040
1589.84375	-1.12911	2.42330	-0.68971	-29.70750
1593.75000	1.69226	6.85617	-1.09361	-25.09723
1597.65625	3.70782	4.03624	-0.69173	-19.98577
1601.56250	1.69401	0.81341	0.51607	-19.05307
1605.46875	7.73884	1.61994	0.11211	-19.51955
1609.37500	8.54548	0.00878	-2.30644	-21.57659
1613.28125	7.74041	3.63574	-0.29278	-19.81113
1617.18750	8.54698	4.84502	1.72088	-18.47778
1621.09375	11.77114	2.83094	0.51111	-20.44347
1625.00000	6.53384	4.04035	2.92773	-20.40783
1628.90625	-0.71807	4.84679	4.13554	-17.08192
1632.81250	12.57945	5.65325	2.92577	-15.31810
1636.71875	6.53632	2.02742	-0.29865	-16.95105
1640.62500	1.70192	2.02801	-1.50842	-12.96930
1644.53125	-0.71480	2.83444	-1.10642	-11.24087
1648.43750	-2.32583	-1.19435	-2.71910	-6.55507
1652.34375	1.70417	0.01496	-3.52589	0.46776
1656.25000	-2.72716	0.82136	-1.91514	-0.49626
1660.15625	-5.54684	-0.78978	0.50152	-3.47751
1664.06250	-8.76938	-1.19214	0.50056	-2.89730
1667.96875	2.91667	-0.38561	0.90252	-1.68363
1671.87500	1.30609	-0.38503	1.30439	-3.07880
1675.78125	-6.34848	-0.38442	0.90048	0.26473
1679.68750	0.09960	2.43676	0.09352	3.20025
1683.59375	-0.70505	-3.60650	0.89839	2.61118
1687.50000	1.71369	-10.45569	0.89736	3.17303
1691.40625	8.56472	-4.41111	-1.52126	0.63358
1695.31250	6.55121	-1.18699	-3.93985	-1.77420
1699.21875	3.32880	1.23124	-1.52324	-7.43906
1703.12500	5.74737	4.05234	-0.31543	-10.02604
1707.03125	3.73377	3.65007	-1.12228	-4.47898
1710.93750	0.10844	4.85941	-0.72038	-5.32240
1714.84375	2.12411	2.03953	0.89039	-7.42071
1718.75000	9.78092	2.04018	0.88939	-6.78595
1722.65625	12.60255	0.42913	-1.93216	-5.34962
1726.56250	5.35112	-3.19667	-0.32140	-3.68858
1730.46875	-2.30322	-0.37556	0.08050	-4.83247
1734.37500	-4.71945	3.25135	0.48245	-5.79618
1738.28125	2.13162	4.46074	0.88441	-10.55196
1742.18750	2.93874	2.04366	2.09221	-13.17335
1746.09375	-2.29810	1.23833	0.47946	-11.78204
1750.00000	9.79108	6.07403	-3.55084	-7.97255
1753.90625	15.43325	3.65706	3.70090	1.08335
1757.81250	-9.95019	-0.77465	11.35562	-12.28830
1761.71875	-29.69264	-1.17709	12.96631	-33.09196
1765.62500	-43.39112	-9.23516	11.75652	-44.47401
1769.53125	-60.71589	-17.29321	12.96436	-58.66473
1773.43750	-74.41431	-14.87507	19.41028	-76.23392
1777.34375	-88.91866	-16.08319	25.45325	-98.62280
1781.25000	-104.22900	-24.94714	25.04931	-115.46825
1785.15625	-119.13622	-26.96125	25.45125	-126.34223
1789.06250	-128.40240	-25.34894	29.88249	-136.36154
1792.96875	-127.19247	-26.15433	32.70201	-149.50760
1796.87500	-129.20605	-27.76552	38.74499	-165.19481
1800.78125	-150.15738	-28.97383	39.54987	-172.86343
1804.68750	-165.87056	-35.82316	37.93719	-180.82962
1808.59375	-170.70457	-35.82269	42.36847	-191.10255
1812.50000	-177.95634	-32.19585	44.78503	-201.81761
1816.40625	-179.97014	-37.83636	41.15768	-207.97490
1820.31250	-172.31351	-38.23884	42.76835	-202.05194
1824.21875	-167.47754	-33.80611	39.94682	-194.63953
1828.12500	-165.86501	-31.38811	34.30471	-188.23915
1832.03125	-153.37338	-28.56708	34.70663	-179.98087
1835.93750	-145.31407	-30.98420	35.91441	-165.31519
1839.84375	-139.67229	-29.37204	32.28702	-154.68015
1843.75000	-134.03050	-24.53635	30.27138	-148.83298
1847.65625	-125.16521	-28.56517	28.65871	-140.26361
1851.56250	-103.80917	-32.59401	23.41965	-131.54468
1855.46875	-95.34685	-29.37011	22.20985	-118.20310
1859.37500	-86.07866	-24.93735	20.19424	-103.27088
1863.28125	-71.57240	-19.69883	14.14933	-88.13182
1867.18750	-56.66318	-14.05733	8.50728	-76.58995
1871.09375	-38.93341	-11.63929	3.67116	-69.80756
1875.00000	-24.42711	-5.99778	-1.97087	-51.72994
1878.90625	-17.57651	-1.96803	-4.38941	-35.73365
1882.81250	-13.14341	-6.39981	-6.40505	-27.84555
1886.71875	0.15410	-5.19053	-8.82367	-24.61936
1890.62500	16.67502	-2.36956	-10.43638	-12.90527
1894.53125	29.56959	-4.78662	-14.46674	2.67400
1898.43750	30.77913	-5.18911	-16.48238	14.08700
1902.34375	31.18291	0.45244	-16.88628	31.62446
1906.25000	42.86872	4.07926	-18.49902	36.19650
1910.15625	56.16625	6.90027	-20.11171	35.93609
1914.06250	65.83739	4.08021	-22.53032	44.20209
1917.96875	63.82351	2.87193	-24.54598	47.40252
1921.87500	63.42135	9.31936	-25.75579	45.55625
1925.78125	66.64561	8.11109	-26.15969	43.40351
1929.68750	67.85526	1.26179	-26.16070	42.86768
1933.59375	69.87074	-4.78169	-25.35585	45.45365
1937.50000	69.87160	-3.16948	-26.56563	46.48577
1941.40625	65.03728	8.11306	-28.17833	48.20156
1945.31250	66.24693	9.32230	-28.58230	51.39743
1949.21875	69.06831	4.48761	-27.37450	58.65610
1953.12500	65.84573	8.51736	-26.97260	58.40480
1957.03125	63.42899	9.32366	-26.16770	59.68980
1960.93750	63.02690	7.71243	-25.36285	64.14178
1964.84375	62.62490	8.51872	-24.96088	62.59595
1968.75000	58.59642	8.11617	-23.35019	63.95803
1972.65625	63.83536	8.92250	-22.94822	64.92152
1976.56250	71.49183	8.11707	-22.14333	65.66037
1980.46875	65.44869	5.70001	-21.74143	59.93673
1984.37500	56.98803	5.70050	-21.33948	53.22719
1988.28125	48.52735	4.49223	-22.14633	50.71254
1992.18750	47.72237	1.26932	-22.55028	46.86941
1996.09375	59.40823	6.91090	-18.92489	44.65456
2000.00000	53.36511	8.12016	-19.32887	42.84211
2003.90625	52.56000	3.68847	-23.35917	42.22995
2007.81250	51.35202	6.91242	-20.53968	46.31644
2011.71875	44.90585	8.12165	-18.12309	43.73238
2015.62500	46.92122	6.51039	-19.73587	43.81453
2019.53125	43.69841	4.09323	-20.13978	42.27327
2023.43750	42.89318	6.10834	-20.54375	35.64884
2027.34375	39.67046	8.92937	-19.33597	35.85894
2031.25000	38.05946	2.48296	-16.51649	41.00187
2035.15625	44.10422	3.69227	-15.30873	38.56155
2039.06250	45.71671	4.90154	-14.90681	34.05799
2042.96875	47.73214	3.29036	-14.10199	42.35146
2046.87500	45.31533	7.72311	-12.49133	40.69524
2050.78125	39.27217	2.48551	-13.70111	31.82621
2054.68750	39.27293	-4.76676	-14.10506	29.29892
2058.59375	35.64738	-4.36339	-13.30023	26.66070
2062.50000	30.41010	0.06935	-12.89830	27.28491
2066.40625	31.21676	3.69622	-14.10807	24.96297
2070.31250	27.59122	3.69666	-14.10902	23.05160
2074.21875	28.80076	5.71174	-11.69235	19.65069
2078.12500	30.81614	6.11506	-12.90211	10.81483
2082.03125	19.53480	3.29497	-12.90306	6.97081
2085.93750	16.71505	-1.53977	-11.69516	5.58381
2089.84375	25.98308	2.08693	-12.09901	7.01864
2093.75000	24.77487	5.31078	-10.48818	6.39145
2097.65625	14.70218	-1.53863	-10.48901	1.83326
2101.56250	14.70268	-5.16470	-8.07228	3.57250
2105.46875	16.71782	-2.34386	-9.28195	2.70366
2109.37500	13.49491	2.08876	-13.31211	2.66200
2113.28125	12.68962	2.08910	-10.49243	3.62230
2117.18750	22.36061	-1.13402	-9.28461	2.94188
2121.09375	20.74960	-2.34247	-10.09138	1.78306
2125.00000	15.51231	-2.34207	-8.88350	0.61106
2128.90625	21.55719	-3.95331	-9.69029	1.11763
2132.81250	20.34945	-3.14699	-10.09420	0.46518
2136.71875	13.50067	1.28572	-8.88636	-1.16644
2140.62500	15.11344	3.70380	-10.09614	-1.61561
2144.53125	21.15848	2.49544	-9.69418	1.32289
2148.43750	24.78593	1.28708	-6.87471	0.77204
2152.34375	24.38415	-1.13002	-5.66695	-3.48565
2156.25000	18.74421	-1.53240	-6.47384	-5.65697
2160.15625	19.95416	2.49743	-7.68371	-9.44260
2164.06250	25.19345	0.08041	-5.26719	-8.86091
2167.96875	26.80640	-8.38057	-3.25362	-10.06337
2171.87500	28.41947	-6.36536	-6.07527	-11.86007
2175.78125	29.22658	-0.72377	-6.88222	-8.51515
2179.68750	22.37806	-3.14085	-5.27154	-9.20460
2183.59375	23.58804	-2.33445	-5.67557	-8.18062
2187.50000	21.17172	-3.13974	-6.07958	-8.02034
2191.40625	23.99343	-3.94508	-7.69235	-6.93197
2195.31250	30.84438	1.29348	-7.29053	-4.90609
2199.21875	25.20452	2.09984	-5.27687	-4.52551
2203.12500	25.60857	-4.34654	-4.87500	-5.09641
2207.03125	22.38635	-7.56941	-7.29366	-9.62106
2210.93750	18.35815	-6.76304	-7.69760	-8.85122
2214.84375	19.56809	-5.55372	-8.10157	-5.70981
2218.75000	17.55453	-1.52388	-6.49084	-6.28218
2222.65625	13.92927	-1.12046	-6.49188	-8.06763
2226.56250	13.12446	-3.13462	-8.91051	-17.28421
2230.46875	14.73734	-0.31358	-10.52321	-20.03831
2234.37500	14.73842	0.89568	-10.12132	-15.76232
2238.28125	15.94823	0.49331	-8.10769	-13.66664
2242.18750	22.39610	0.49381	-9.72041	-13.46590
2246.09375	35.29078	4.12068	-10.52729	-16.10226
2250.00000	28.03890	1.30071	-9.31958	-16.32044
2253.90625	13.93717	-0.31051	-8.91765	-18.94793
2257.81250	12.72920	-0.31001	-7.30695	-21.84177
2261.71875	1.04505	-5.95054	-5.69620	-32.16763
2265.62500	-9.83320	-4.33835	-2.47375	-42.33930
2269.53125	-15.47339	-4.33785	1.15160	-40.41130
2273.43750	-21.51638	-7.15783	1.55356	-43.87630
2277.34375	-32.39452	-8.36613	3.56723	-56.19033
2281.25000	-34.81104	-9.57439	8.80434	-64.57269
2285.15625	-43.27155	-9.97668	10.01214	-75.04221
2289.06250	-48.91159	-13.60251	11.21993	-85.46307
2292.96875	-56.16339	-20.85473	15.24818	-99.41355
2296.87500	-83.96471	-17.22783	16.05296	-107.84665
2300.78125	-96.05179	-15.21268	16.45488	-115.51389
2304.68750	-100.88615	-22.06201	19.67724	-130.32863
2308.59375	-108.54099	-25.28485	22.49674	-143.42067
2312.50000	-110.55482	-24.88139	22.49571	-151.31364
2316.40625	-114.58324	-13.59883	24.91224	-162.30443
2320.31250	-120.22342	-8.36024	28.94059	-169.67648
2324.21875	-126.66947	-13.19490	26.92488	-168.30630
2328.12500	-129.08617	-13.59734	24.50635	-168.75389
2332.03125	-119.81795	-11.17919	24.10242	-166.13481
2335.93750	-113.37034	-5.94058	24.50441	-164.76398
2339.84375	-109.74313	-6.34307	24.10046	-162.18573
2343.75000	-98.46028	-14.40121	21.68185	-148.27826
2347.65625	-96.84781	-9.96851	20.06915	-133.66322
2351.56250	-89.19131	-9.96805	21.27694	-118.89870
2355.46875	-74.68502	-13.59395	18.45543	-112.80831
2359.37500	-59.77577	-9.56415	12.81336	-103.91853
2363.28125	-39.22547	-4.72848	8.78303	-84.74854
2367.18750	-26.73370	3.33059	5.96148	-72.39922
2371.09375	-12.63028	2.52529	2.33403	-63.19762
2375.00000	-9.80888	2.92874	-1.29334	-53.57975
2378.90625	-4.56992	7.76448	-4.92079	-37.98463
2382.81250	13.96572	9.37668	-6.93648	-20.42444
2386.71875	21.62217	3.33323	-6.93751	-10.34670
2390.62500	34.11381	-0.69555	-10.96783	-1.85426
2394.53125	47.81427	2.93132	-14.19231	8.48869
2398.43750	50.63559	1.32012	-12.58165	22.72410
2402.34375	51.03938	0.91766	-12.98556	30.19021
2406.25000	55.06954	5.35041	-16.61299	35.97292
2410.15625	66.35249	7.76853	-17.01691	41.75824
2414.06250	78.84431	8.57488	-17.01795	45.59385
2417.96875	76.42770	3.74025	-18.63076	47.58725
2421.87500	69.98165	-1.09442	-19.43765	51.78676
2425.78125	72.40012	4.95005	-20.24453	58.09743
2429.68750	75.62453	4.54767	-18.63389	54.74290
2433.59375	78.84894	3.74236	-18.23199	50.48081
2437.50000	79.65571	5.75754	-19.44183	55.94697
2441.40625	83.28298	4.54925	-19.84582	62.90257
2445.31250	78.85159	8.17610	-19.84685	64.08554
2449.21875	69.58503	11.80302	-21.45957	59.25822
2453.12500	74.42102	12.20641	-22.26643	56.59112
2457.03125	74.42188	11.40103	-19.84990	57.87796
2460.93750	68.78168	9.78983	-18.23913	57.89951
2464.84375	67.17074	6.96980	-19.04597	56.75834
2468.75000	62.73939	9.38784	-18.24113	48.45190
2472.65625	61.12840	5.35907	-18.24214	44.98492
2476.56250	59.11455	-4.31080	-17.43731	49.75491
2480.46875	55.48909	-2.69859	-18.24417	45.24193
2484.37500	51.05772	2.94289	-21.06569	41.35462
2488.28125	51.05868	6.56982	-20.66381	37.23003
2492.18750	63.95346	10.19668	-19.05306	37.01501
2496.09375	57.10454	8.18254	-19.45701	40.44294
2500.00000	43.00289	5.76550	-19.45799	35.00586
2503.90625	46.63010	2.94541	-15.83259	28.35166
2507.81250	45.42220	3.75176	-13.81894	27.60478
2511.71875	42.19969	-1.08298	-11.40239	27.44022
2515.62500	36.55956	-5.11180	-10.19456	23.09207
2519.53125	34.94880	5.76780	-11.80724	23.16450
2523.43750	36.56133	6.57416	-11.40534	22.98905
2527.34375	36.15928	0.93366	-9.79457	22.39525
2531.25000	33.33976	-0.67750	-11.00437	26.73431
2535.15625	32.93774	-1.07993	-14.63179	26.31072
2539.06250	39.38553	5.77041	-14.63283	27.04712
2542.96875	40.19229	5.77090	-16.24557	23.65741
2546.87500	31.73168	0.53332	-16.24663	19.58543
2550.78125	29.31489	-1.48081	-11.81544	25.62671
2554.68750	40.19480	-1.07739	-12.62240	25.51886
2558.59375	41.80736	0.13195	-13.83219	20.06195
2562.50000	35.36124	1.74420	-11.41569	15.04717
2566.40625	26.90051	0.53588	-11.81963	13.53316
2570.31250	28.51319	-0.26950	-12.22364	13.63861
2574.21875	27.30534	-1.88079	-12.62764	9.83706
2578.12500	22.47104	0.94016	-9.80810	11.07684
2582.03125	18.84552	3.76117	-8.60029	10.86163
2585.93750	14.01131	-0.67063	-7.79544	-0.19311
2589.84375	17.23568	-3.89362	-7.39355	-2.38196
2593.75000	13.20721	-8.72829	-6.58862	14.72257
2597.65625	9.17875	-5.10145	-4.57497	32.32833
2601.56250	12.40300	-1.07168	-6.59065	48.97876
2605.46875	8.37456	0.54054	-10.62100	81.15312
2609.37500	10.79306	0.54103	-8.60740	121.00430
2613.28125	12.40570	-5.09955	-4.98211	160.64859
2617.18750	4.75097	-0.66679	-6.99782	184.54944
2621.09375	5.55765	2.55717	-6.99888	193.06332
2625.00000	11.60246	3.76644	-4.98527	207.60805
2628.90625	18.45314	3.76691	-4.98631	214.96666
2632.81250	22.88623	2.55857	-5.39024	215.92801
2636.71875	24.09587	4.57365	-7.40597	213.89557
2640.62500	22.08209	-2.67863	-8.21284	212.23964
2644.53125	14.83024	-4.28991	-8.21389	207.92508
2648.43750	8.38424	1.75455	-7.81199	204.29268
2652.34375	9.59391	-0.66259	-4.18672	201.06326
2656.25000	11.20649	-0.66206	-0.56139	192.19273
2660.15625	8.38686	-1.06451	1.04922	186.94855
2664.06250	6.37305	2.15941	0.64525	184.92786
2667.96875	4.76221	3.77165	-0.96758	181.29544
2671.87500	2.74842	-5.89822	-2.98326	171.61909
2675.78125	-1.68303	-2.27145	-6.20775	157.91341
2679.68750	3.95866	1.35536	-7.01463	149.44577
2683.59375	7.18276	-1.86769	-4.19518	145.81331
2687.50000	6.37766	0.14738	-5.80792	142.18095
2691.40625	9.60189	-3.88150	-6.61480	139.75735
2695.31250	11.21438	-6.29868	-5.40706	138.13968
2699.21875	13.22983	-1.06012	-5.00525	135.71616
2703.12500	4.36615	0.14909	-3.39455	135.71025
2707.03125	9.60505	-3.87984	-2.58974	137.31607
2710.93750	14.84397	-4.28241	1.43853	137.31018
2714.84375	13.23304	-4.28205	2.64631	130.85738
2718.75000	7.59290	-7.10216	-0.98113	118.36066
2722.65625	0.74397	-9.11642	-0.98216	111.50495
2726.56250	3.56531	-10.72768	-0.98321	108.27562
2730.46875	7.59546	-6.29505	-2.19304	97.79362
2734.37500	1.95529	0.15227	-2.59698	92.14670
2738.28125	5.98547	-4.27952	-2.19513	94.15551
2742.18750	10.41857	-5.48781	0.22144	94.55271
2746.09375	3.97249	-2.66688	2.63800	95.75576
2750.00000	7.19683	-1.86057	2.23401	92.12363
2753.90625	5.58605	-8.30697	1.42712	86.47690
2757.81250	-0.85996	-13.14162	1.42605	87.27712
2761.71875	3.57317	-10.32068	0.21619	83.24213
2765.62500	12.43855	-7.09680	-0.99367	80.81885
2769.53125	14.85708	-2.26122	-0.18889	75.57504
2773.43750	11.23155	0.55979	-1.80164	66.30193
2777.34375	5.18844	-1.45444	-4.22032	65.08744
2781.25000	3.17458	-1.85701	-2.60963	59.44065
2785.15625	9.62229	2.17273	-3.81948	55.00271
2789.06250	2.37041	0.15854	-7.44693	50.56472
2792.96875	-2.06098	-8.30257	-5.03038	43.70921
2796.87500	1.56629	-6.28751	-1.40503	43.30053
2800.78125	3.17877	-3.86950	-1.00319	46.51826
2804.68750	6.40301	-4.27203	-0.19839	40.06569
2808.59375	2.77749	-4.27161	0.20351	29.98677
2812.50000	1.16657	-3.46523	-0.60339	29.57814
2816.40625	8.42014	0.16160	-0.20153	26.34907
2820.31250	16.88249	1.77375	-0.60546	23.11999
2824.21875	14.86866	-0.24050	-0.20361	20.69683
2828.12500	12.45186	-4.67237	2.21294	16.25898
2832.03125	17.69077	-6.28372	2.61485	17.86512
2835.93750	18.09458	-5.47735	-1.01260	17.85960
2839.84375	12.85740	-4.26815	-1.01365	13.42189
2843.75000	15.67881	-2.65592	1.40290	10.59587
2847.65625	18.90318	-3.05838	-0.20992	13.81390
2851.56250	3.59270	-8.29603	-2.22563	9.77919
2855.46875	-8.09141	-9.50439	-2.62958	0.10345
2859.37500	-7.68755	-4.26587	-3.83944	-2.72255
2863.28125	-10.10434	-6.28015	-3.03466	-1.11627
2867.18750	-10.10353	-4.66802	-1.42400	2.10166
2871.09375	-1.23819	2.98809	-1.02221	3.30490
2875.00000	-4.05779	1.37689	0.58844	4.10532
2878.90625	-9.29501	-3.45780	-0.62146	3.69693
2882.81250	-10.90580	-7.48663	-2.63722	-0.33776
2886.71875	-8.48734	-6.27742	-3.84712	-0.74607
2890.62500	-7.27759	-1.44176	-4.25118	-1.55722
2894.53125	-1.23267	-4.26184	-0.62585	-3.17415
2898.43750	6.02093	-3.85848	2.19362	-3.58235
2902.34375	0.38068	-0.23171	-1.03086	-8.82569
2906.25000	-1.63320	1.78326	-4.25535	-8.83089
2910.15625	4.41156	3.39526	-3.04759	-1.58338
2914.06250	12.87385	6.21610	-0.63104	3.24648
2917.96875	11.26280	2.18717	-0.22918	2.43536
2921.87500	4.01079	-4.25936	-1.03606	1.62425
2925.78125	7.23496	-4.25902	0.97758	6.45415
2929.68750	4.41511	-4.25870	5.40883	10.88119
2933.59375	6.43036	-3.85541	5.81078	9.26426
2937.50000	13.68366	-2.24341	5.80976	4.02090
2941.40625	10.05791	0.57746	5.40576	2.40389
2945.31250	0.79117	5.00997	3.79301	5.21921
2949.21875	0.38880	3.39855	2.98605	6.82564
2953.12500	2.40404	-1.03342	1.37327	5.20871
2957.03125	4.01639	2.59332	3.78980	0.77122
2960.93750	3.61413	1.78782	5.80338	-3.66627
2964.84375	3.21182	-4.65873	2.57884	-4.88025
2968.75000	3.21253	-0.62907	2.57775	-2.46779
2972.65625	3.61619	2.59476	3.38249	-4.48757
2976.56250	7.24320	0.58049	3.78432	-12.14839
2980.46875	-2.82931	-1.43379	3.38024	-14.16814
2984.37500	-6.45493	-2.64223	2.57327	-17.79958
2988.28125	1.20143	5.41676	0.96040	-22.23690
2992.18750	0.39631	8.64058	0.15344	-21.83901
2996.09375	-3.22937	0.58233	1.36111	-27.08218
