 	TP9	AF7	AF8	TP10	
-1000.00000	2.97451	-4.74160	1.44531	7.99577
-996.09375	-3.48215	-6.84655	3.32351	4.47967
-992.18750	-2.08999	-7.81289	6.08545	5.18463
-988.28125	3.31096	-6.90331	3.50188	3.33597
-984.37500	3.61827	-0.37597	0.49648	-0.54788
-980.46875	9.83927	2.26231	0.26637	-0.86870
-976.56250	12.62782	2.47791	1.63634	5.56696
-972.65625	4.34367	-0.27924	4.39253	8.60516
-968.75000	3.20174	-0.73351	8.35727	8.44145
-964.84375	1.29559	1.43622	8.64954	7.77470
-960.93750	-0.73725	-2.03560	-0.09368	7.49919
-957.03125	-1.91927	-1.93919	-3.66773	8.05923
-953.12500	-1.08693	-0.81258	-1.73921	4.32428
-949.21875	4.21492	1.44327	-3.72426	-0.78274
-945.31250	7.02117	1.66958	-3.34681	-4.69106
-941.40625	5.96029	-1.10952	-2.85930	-3.13614
-937.50000	0.43192	-1.56349	-4.52871	-1.74493
-933.59375	-5.14227	-3.37519	-3.04059	-4.86707
-929.68750	-3.36840	-2.39140	-1.31449	-5.41715
-925.78125	-1.34195	0.73044	0.36631	-5.29063
-921.87500	7.02929	2.22587	2.04157	1.50435
-917.96875	10.03038	1.59060	-1.34833	1.13960
-914.06250	-7.06773	-1.12285	-3.94167	-8.52002
-910.15625	-11.13993	-0.15391	-2.94789	-6.69211
-906.25000	-6.45217	0.23335	-2.37404	-1.66654
-902.34375	-0.68935	-1.29044	-1.50967	2.11052
-898.43750	4.74262	-4.56311	0.63636	3.02060
-894.53125	-1.26785	-4.93979	1.20062	1.39863
-890.62500	-6.66735	-5.95152	1.85229	3.82936
-886.71875	-7.49742	-7.87814	0.92114	-0.65972
-882.81250	-7.46283	-7.62291	-1.42672	-5.31649
-878.90625	-2.90436	-13.17272	-0.99171	-2.13450
-875.00000	-3.09217	-9.99572	1.10626	-1.72770
-871.09375	-3.71224	-5.28440	-1.01598	-3.69694
-867.18750	-3.27262	-5.06844	-3.85227	-2.26597
-863.28125	-2.75556	-1.05114	-4.96424	2.62329
-859.37500	-1.18223	-2.47667	-2.20294	4.22500
-855.46875	-5.31835	-3.40074	0.20933	3.43700
-851.56250	-5.15911	-4.60518	-2.28418	3.74050
-847.65625	-4.66982	-7.85745	-4.60773	-0.84417
-843.75000	-4.64432	-7.35686	-2.85674	-5.06704
-839.84375	0.28861	-6.31765	-0.57954	-5.28086
-835.93750	0.49363	-4.09615	-0.68204	-9.71635
-832.03125	2.62717	-1.90540	0.46657	-5.71986
-828.12500	6.01801	2.28864	5.50356	1.18377
-824.21875	3.03786	1.67060	4.49095	-1.36374
-820.31250	-0.45082	-4.54441	1.05763	2.00835
-816.40625	-2.59147	-3.21992	-0.76028	5.13767
-812.50000	-2.17534	-1.22051	-4.04434	-0.27691
-808.59375	-0.25065	0.78962	-1.72446	-0.62341
-804.68750	-3.43859	1.05478	0.15344	6.90775
-800.78125	-1.72900	-1.58396	0.29029	6.77726
-796.87500	-3.69739	1.24122	0.37912	2.46032
-792.96875	-5.12270	2.68150	-0.50382	-0.91360
-789.06250	-0.14441	0.53675	1.10703	-3.05522
-785.15625	3.76421	-3.15581	1.85793	-2.79492
-781.25000	-3.08037	-0.65416	-2.88210	-7.86939
-777.34375	-13.69655	2.83943	-6.93248	-15.73657
-773.43750	-10.30245	1.73578	-3.81847	-10.88323
-769.53125	-5.39422	1.52649	-1.71661	-6.12894
-765.62500	-4.33765	-1.28719	-1.67991	-8.29245
-761.71875	2.40898	0.26555	0.80649	-1.60943
-757.81250	3.28759	2.38100	-0.53279	1.72047
-753.90625	1.16951	2.78655	-0.28673	4.03507
-750.00000	2.07976	-0.67721	3.90734	3.02875
-746.09375	-0.72923	-3.81236	3.23771	-1.91472
-742.18750	0.70101	-5.26562	0.47555	-1.40891
-738.28125	0.94296	-7.38603	0.23843	0.44174
-734.37500	-0.97425	-5.85675	-0.78564	3.11890
-730.46875	-1.14944	-4.87058	-1.76451	3.84464
-726.56250	-3.93621	-7.10282	-1.52285	-0.97739
-722.65625	0.72332	-3.54181	-1.05571	-1.59602
-718.75000	5.89637	0.93979	-0.58841	4.61364
-714.84375	-2.26894	0.78276	-0.07493	2.05898
-710.93750	-8.69577	-0.98549	-2.21102	-0.88704
-707.03125	0.14376	-1.08385	-1.05475	5.00177
-703.12500	6.16303	0.60816	-0.56582	4.30651
-699.21875	-2.36029	-0.03797	-0.99850	4.58035
-695.31250	-1.94137	-1.07207	-1.77913	7.28183
-691.40625	4.76229	-2.72715	-1.05807	7.34048
-687.50000	-4.61601	-1.46920	-0.59760	4.33944
-683.59375	-8.30740	-0.46529	-1.28007	1.41960
-679.68750	-2.82665	-0.24217	-1.79755	1.56868
-675.78125	-4.85117	-0.54544	-1.46391	5.07049
-671.87500	-2.34150	-0.83400	-2.33347	3.11266
-667.96875	0.70324	0.60517	-2.16720	5.89698
-664.06250	-1.53755	1.30205	-1.18574	11.52925
-660.15625	2.93940	3.95752	-2.58260	8.09161
-656.25000	0.67101	4.37422	-1.14191	5.88848
-652.34375	3.77443	4.28429	-0.79771	6.94855
-648.43750	5.19404	6.34619	-4.15266	1.20529
-644.53125	1.53599	4.30340	-0.68779	2.82917
-640.62500	5.32552	7.32782	1.07791	3.62375
-636.71875	0.51631	6.43195	-0.40869	-3.97321
-632.81250	-1.93422	-0.27223	0.73017	-0.52344
-628.90625	-0.84993	-0.76846	-0.51088	-0.88302
-625.00000	-1.86915	0.88777	-0.99729	-1.69090
-621.09375	0.76722	0.60673	-2.09877	-1.73452
-617.18750	-4.10298	-1.62586	-0.47142	-1.95495
-613.28125	-3.40955	2.81633	6.28141	1.21620
-609.37500	3.07745	7.46332	5.53445	0.42212
-605.46875	3.58881	0.72975	2.31612	5.64410
-601.56250	5.44588	2.73803	1.98899	12.19220
-597.65625	7.37574	2.36193	1.49176	7.51113
-593.75000	15.41051	-2.17005	1.75523	7.70642
-589.84375	8.46455	2.42979	1.89546	7.11614
-585.93750	-5.84139	2.22092	-0.01692	2.28595
-582.03125	2.50289	4.05747	0.84901	5.14099
-578.12500	4.35170	5.09952	4.27332	3.07433
-574.21875	-2.73979	4.10379	1.65943	-1.22622
-570.31250	-1.66708	4.27281	-3.77191	1.44736
-566.40625	0.07231	1.73754	-2.76000	0.33441
-562.50000	3.28416	1.34777	-0.28198	-2.71085
-558.59375	5.39038	2.55903	-1.39328	-3.97439
-554.68750	0.11843	4.70945	-2.86842	-1.43051
-550.78125	2.84272	1.30217	-1.39377	3.13387
-546.87500	0.78334	-1.52497	-0.67691	3.02026
-542.96875	-2.22198	0.65910	-1.40582	1.96376
-539.06250	2.87467	-1.22747	2.62416	5.31594
-535.15625	-2.64403	1.65718	1.87309	0.62513
-531.25000	-0.23010	1.16806	-1.84863	-2.76024
-527.34375	2.73196	-0.71581	-0.21598	1.88515
-523.43750	1.75706	0.38584	1.50497	3.07743
-519.53125	3.70030	-1.01866	2.62636	0.74245
-515.62500	0.63059	5.01651	1.38069	0.49007
-511.71875	3.15296	8.29694	0.50588	0.65859
-507.81250	7.91701	7.38828	0.23320	-1.86383
-503.90625	0.36632	5.77184	-0.81895	-5.38558
-500.00000	0.66644	6.01020	-1.38683	-6.39227
-496.09375	-0.14945	7.12868	-0.71747	-6.28243
-492.18750	-10.84557	5.35644	-1.58190	-5.57780
-488.28125	-2.22151	3.84843	0.26668	4.25810
-484.37500	10.57638	2.31708	0.48474	1.98556
-480.46875	0.67982	5.76105	-2.16301	-1.96195
-476.56250	-12.64918	7.99128	-0.39017	-2.77948
-472.65625	-11.66615	6.84588	-0.05164	-4.57682
-468.75000	-7.97323	6.39158	-1.72795	-4.33797
-464.84375	-4.64156	5.74075	-1.03279	-2.18462
-460.93750	1.38389	5.49228	-1.71740	-1.25161
-457.03125	1.41029	4.37991	-2.87399	-5.52714
-453.12500	-0.57812	5.10349	-3.36314	-3.62146
-449.21875	0.69406	3.33001	-4.13937	-2.68481
-445.31250	0.67960	-1.27884	2.28204	-0.54954
-441.40625	1.63312	-1.23747	5.18710	1.40796
-437.50000	4.16310	0.32319	-0.91459	-0.82761
-433.59375	-0.60552	-1.08557	-3.05286	0.48212
-429.68750	-4.87590	-1.71354	-0.11801	-0.06836
-425.78125	-2.84980	-1.81516	-0.04899	-4.77744
-421.87500	2.70072	0.88906	-2.00018	0.00255
-417.96875	4.49263	1.86551	-1.36076	-0.36262
-414.06250	-0.11488	3.18131	-1.53662	-3.17286
-410.15625	-0.15809	-0.68494	-0.54282	1.47514
-406.25000	1.30588	-1.10367	0.43388	0.85929
-402.34375	1.83027	1.40178	-1.11938	1.81537
-398.43750	1.21796	-0.66213	-0.18228	3.93373
-394.53125	3.66870	2.18458	4.00832	7.14648
-390.62500	5.52160	1.97862	5.06287	7.15930
-386.71875	6.70587	-1.96269	-0.30055	0.65521
-382.81250	26.48372	-2.51327	-1.43970	11.71237
-378.90625	33.05650	-3.22788	0.20409	24.96723
-375.00000	9.09546	-0.05094	-0.92144	16.50914
-371.09375	0.81943	6.67491	-1.02904	6.48093
-367.18750	12.13781	10.92018	2.98451	14.35841
-363.28125	19.50441	13.72861	-1.35100	21.26192
-359.37500	35.98580	16.73523	-11.08056	29.71309
-355.46875	43.13139	21.04926	-10.28006	40.20677
-351.56250	36.84348	25.48585	-5.52093	35.27175
-347.65625	47.00282	29.08337	-7.03871	45.59520
-343.75000	62.33929	28.37524	-6.09362	58.29497
-339.84375	58.00460	25.78805	-1.80183	50.82801
-335.93750	59.41806	24.38313	0.11025	56.46536
-332.03125	67.19230	25.76802	-0.35289	62.47617
-328.12500	54.46575	23.51523	-2.16571	52.85918
-324.21875	53.90289	16.04730	3.67138	55.54939
-320.31250	63.30775	17.08505	0.23805	58.92109
-316.40625	59.15213	14.38025	-7.62385	54.79725
-312.50000	53.92700	11.54443	-4.46104	51.79989
-308.59375	54.23970	15.97218	-3.34996	51.05004
-304.68750	46.61919	14.62558	-5.09848	47.70169
-300.78125	40.67279	9.97222	-1.73819	43.13861
-296.87500	41.12183	3.93286	-2.45526	35.59796
-292.96875	38.08467	2.14967	-2.93536	33.02967
-289.06250	35.80993	1.21376	0.28723	38.14036
-285.15625	33.67426	0.74470	1.03810	36.38568
-281.25000	32.47052	4.45522	-1.28435	34.53436
-277.34375	28.70409	5.53132	-0.90254	32.71100
-273.43750	29.27757	6.84523	3.01728	31.52028
-269.53125	28.54462	7.84478	3.91034	32.64809
-265.62500	23.15420	8.25453	0.72349	26.45518
-261.71875	25.06563	8.59857	1.19522	24.27361
-257.81250	25.13839	7.08768	1.87060	26.39466
-253.90625	23.02036	7.89627	-0.30098	23.47113
-250.00000	24.73645	9.67072	-2.55382	25.28532
-246.09375	28.37437	7.34150	-4.02928	27.59458
-242.18750	27.38705	1.85901	-2.35915	27.29452
-238.28125	21.98799	0.14159	-1.79044	27.13045
-234.37500	25.30877	3.68553	-5.23214	20.54006
-230.46875	22.31303	3.05997	-5.00225	17.23645
-226.56250	11.87055	0.42487	-2.34307	17.65245
-222.65625	14.91824	-2.05805	-3.08480	15.01906
-218.75000	12.83853	-3.21751	-3.82634	11.55824
-214.84375	12.32880	0.65475	-1.70121	13.03273
-210.93750	15.57219	0.09531	-2.22558	14.51888
-207.03125	10.30910	-1.61479	-3.48689	12.34888
-203.12500	13.10481	-4.35509	-3.40099	10.44459
-199.21875	14.25157	-3.38958	-1.81910	13.94158
-195.31250	9.43224	3.23188	-0.18214	15.83696
-191.40625	12.10648	3.99438	-3.49038	16.70135
-187.50000	12.39834	0.81993	-3.43288	17.32650
-183.59375	12.33309	0.61492	-0.08606	16.82403
-179.68750	13.78431	3.25554	4.63457	19.39051
-175.78125	9.34193	-1.07709	1.74476	14.02763
-171.87500	8.62794	-2.97752	0.06929	7.23428
-167.96875	8.04601	-0.32968	-0.97328	6.39193
-164.06250	5.80501	0.36709	-1.60360	8.80037
-160.15625	9.87879	3.82834	4.25220	9.79463
-156.25000	5.59546	1.42440	3.27525	5.57652
-152.34375	3.86345	2.94616	-0.00694	7.03922
-148.43750	6.89459	4.60514	-0.94435	10.56303
-144.53125	1.62458	0.95053	-1.50876	6.94854
-140.62500	5.41390	7.60125	-2.16062	6.93699
-136.71875	3.02203	9.92880	0.38201	6.99537
-132.81250	-0.23448	5.23924	3.13260	8.02730
-128.90625	6.89356	1.51959	1.89150	12.90553
-125.00000	0.63596	3.17571	-0.20669	8.87388
-121.09375	-2.36887	2.89470	0.70651	7.62124
-117.18750	-3.20990	-2.56139	1.52791	6.99758
-113.28125	0.70669	0.67205	1.83379	4.52745
-109.37500	5.98465	2.90146	-0.52486	3.33021
-105.46875	8.10757	5.43519	-2.53439	0.89616
-101.56250	12.78492	8.65226	-0.04110	4.62347
-97.65625	3.83546	5.45564	-0.53826	1.95682
-93.75000	-2.23260	4.14706	0.93401	-1.87754
-89.84375	3.31205	5.52331	2.28295	3.57579
-85.93750	0.69088	2.09098	1.57939	2.37168
-82.03125	2.99099	0.30110	1.23644	1.19711
-78.12500	2.01904	1.34299	-2.99490	2.75656
-74.21875	-4.26681	-0.86155	-3.99707	1.67910
-70.31250	-1.17963	-1.90137	-1.77280	0.72600
-66.40625	0.55946	2.81597	0.85073	1.22451
-62.50000	4.57687	3.63505	2.92582	4.22288
-58.59375	5.07112	0.81700	-0.20023	0.94446
-54.68750	3.42526	-1.46487	-1.27246	2.27917
-50.78125	3.73170	-2.45459	2.61978	4.82866
-46.87500	2.07502	0.35923	0.91899	2.29712
-42.96875	7.93391	1.33448	-1.42165	4.06075
-39.06250	11.82153	4.68601	0.59368	4.59202
-35.15625	4.28790	1.12375	1.05140	1.10963
-31.25000	8.71619	-0.57414	0.15013	-0.66435
-27.34375	6.84284	2.78000	-2.64952	-1.25739
-23.43750	1.03253	3.47870	-3.34616	1.54619
-19.53125	5.39302	4.08882	-2.22489	4.44891
-15.62500	6.35236	-2.76985	-0.24710	7.41961
-11.71875	4.03922	-3.92167	0.08680	10.81117
-7.81250	2.35605	1.21360	-3.81224	6.27382
-3.90625	6.89300	-0.80576	-2.84976	1.54290
0.00000	6.78988	0.23841	0.61162	1.34168
3.90625	-2.89074	0.14803	-1.53952	0.64532
7.81250	-2.30512	1.19624	-4.82157	0.14074
11.71875	1.88638	-0.31186	-2.57011	2.72351
15.62500	-5.86556	1.78317	-1.14331	0.04762
19.53125	-6.49501	4.82423	-2.98526	-1.07985
23.43750	-4.10999	-1.00419	-2.42127	-2.70364
27.34375	0.90204	-0.13506	1.54361	-3.29259
31.25000	2.57998	4.24582	2.68775	-2.24830
35.15625	0.67321	1.58034	-0.64645	-1.70708
39.06250	4.28071	-1.08569	-1.73405	4.86646
42.96875	3.50094	-0.58648	-0.07013	3.41107
46.87500	4.33271	1.74882	-1.36516	1.28707
50.78125	2.78410	-0.42759	-0.93270	1.01451
54.68750	-2.87168	0.20155	1.05649	-3.29749
58.59375	-1.91844	-4.99523	-1.27653	-2.54915
62.50000	-0.19459	-8.26979	-1.73727	-2.77042
66.40625	0.27460	0.79758	0.55660	-2.66985
70.31250	0.43617	4.19890	1.47678	1.61442
74.21875	1.25315	1.27667	3.96337	0.53137
78.12500	5.59466	-4.07780	3.22095	2.08764
82.03125	1.74553	-0.68383	1.03980	-0.29236
85.93750	-4.07097	3.04961	2.07279	-3.10295
89.84375	2.73516	-1.62255	2.26067	2.35036
93.75000	2.18399	-4.86174	-0.79196	2.13683
97.65625	-2.93321	-3.96809	-0.73355	-2.95164
101.56250	-0.32266	-3.61457	-1.00521	-3.65446
105.46875	0.11281	-3.99138	-2.05276	-5.27764
109.37500	1.15924	-1.37690	1.01633	-3.65397
113.28125	-2.49242	-0.08021	0.89095	1.12313
117.18750	-4.87641	-1.43679	-1.05407	-1.52018
121.09375	-3.13951	0.66896	0.58966	-5.18928
125.00000	-4.94011	3.44283	1.47871	-8.00711
128.90625	-3.94941	3.31878	-0.64350	-1.91888
132.81250	4.95084	-0.49471	1.35529	6.76380
136.71875	6.67581	0.70196	6.69006	9.63732
140.62500	-1.01911	3.30563	8.24254	4.79110
144.53125	-2.73850	1.17268	2.99911	-0.83301
148.43750	0.24047	3.59452	-0.70336	3.49876
152.34375	-1.68856	1.55092	1.40522	2.53953
156.25000	-4.08146	-1.17204	0.73853	1.13628
160.15625	0.44786	0.67293	3.01567	1.72738
164.06250	2.26384	0.47677	4.52486	0.91725
167.96875	-0.84141	1.05577	0.83817	-3.54867
171.87500	2.54882	-1.19714	-0.57172	-3.49584
175.78125	6.41778	-1.41230	-0.77854	-1.20903
179.68750	4.94307	-1.98626	-0.18264	-0.25541
183.59375	1.19001	-8.31747	2.02876	-2.76799
187.50000	2.41138	-6.72105	0.75924	-2.54229
191.40625	-0.90267	-2.29342	-0.14429	-1.27793
195.31250	-2.88244	2.00105	1.73354	-3.41797
199.21875	1.64699	1.77987	2.27328	-3.14632
203.12500	-1.93372	0.97859	2.36202	-3.43477
207.03125	-1.34500	2.01586	-0.53564	-0.76559
210.93750	0.40920	-2.94943	-0.93952	-0.08754
214.84375	-0.11508	-3.01568	1.02006	-4.66320
218.75000	5.93352	-3.73742	5.14437	-1.67989
222.65625	-1.45982	-4.27316	3.51153	-4.30974
226.56250	-5.31913	-3.76517	-4.65660	-4.69530
230.46875	0.39431	-2.76572	-4.56946	2.07283
234.37500	0.64440	2.88204	-4.12994	-1.30026
238.28125	7.39043	3.62897	-2.44951	-0.25898
242.18750	9.07428	0.50623	-2.58008	0.65259
246.09375	-1.50593	-2.31163	-1.93110	0.14597
250.00000	-5.02839	-0.94025	-1.76644	0.34773
253.90625	-5.01741	1.16270	-3.24198	-4.99941
257.81250	-3.58765	-2.30520	5.27790	-6.10598
261.71875	-2.54031	-4.02268	-2.61485	-4.25599
265.62500	-3.24924	-4.91094	-9.68298	-4.40008
269.53125	0.20144	-4.32774	-5.82670	-6.49550
273.43750	-4.19764	-3.73941	-5.98806	-3.66251
277.34375	-1.95619	-2.99894	-5.92399	-1.05840
281.25000	1.20170	-0.93493	-1.42740	3.53880
285.15625	-6.15828	-3.50954	1.50355	4.60979
289.06250	-7.75046	-3.66609	-1.84141	-1.56031
292.96875	-5.76128	-3.76452	2.94128	1.10437
296.87500	-0.95135	-2.07262	1.81838	1.61717
300.78125	3.82139	-1.10710	-5.86713	-0.52741
304.68750	2.62806	-6.57348	-3.42434	3.78509
308.59375	4.89895	-2.58762	-1.09163	4.64901
312.50000	9.21969	3.90829	-2.64584	2.45310
316.40625	3.11010	1.28572	-0.10487	6.38237
320.31250	1.33749	-1.31187	1.79520	6.12786
324.21875	4.14747	-0.80938	2.53167	4.79376
328.12500	0.20966	1.31945	4.88551	7.26733
332.03125	-2.38726	-1.67370	3.43996	5.21574
335.93750	-3.82271	-1.37989	4.42141	1.57981
339.84375	-3.37565	-2.75380	3.83032	1.76782
343.75000	-4.03288	-6.76954	-4.39937	-4.06240
347.65625	1.08471	-0.41263	-7.27866	-4.21187
351.56250	2.90673	5.27562	-6.20147	-1.89727
355.46875	2.47152	5.65026	-4.75127	-3.49753
359.37500	7.06638	5.04824	-3.79146	-1.09195
363.28125	1.85373	6.16695	-3.26345	-0.22807
367.18750	1.41745	5.50667	-1.72170	-0.40538
371.09375	4.91890	4.20454	1.46937	-1.57151
375.00000	5.10795	2.63726	2.19173	0.03749
378.90625	4.11747	1.14733	-0.92445	4.02249
382.81250	2.47023	2.54101	-3.32645	0.17503
386.71875	7.59540	1.74509	-3.02059	-2.69844
390.62500	1.99397	2.76566	-1.75291	1.74492
394.53125	-3.94196	0.86708	1.07267	3.74279
398.43750	1.54098	-4.37749	2.35720	5.45500
402.34375	-0.15601	2.90205	-1.36341	1.17621
406.25000	-3.80675	7.23453	-0.69703	-2.25548
410.15625	-1.08290	4.17858	-0.95987	4.40631
414.06250	1.53377	4.77547	-3.27519	2.39596
417.96875	1.01310	2.98558	2.02297	-6.03170
421.87500	2.05549	2.41577	2.62675	-5.68142
425.78125	-1.00723	1.01706	-3.21067	-8.37095
429.68750	-3.96430	0.38011	-0.98645	-8.51860
433.59375	-7.46354	-0.54352	2.84591	-3.99114
437.50000	-5.05803	4.30487	0.48867	-4.21655
441.40625	3.49457	6.72495	-3.44321	-5.07773
445.31250	3.46026	2.83134	1.12550	-1.32574
449.21875	-1.06870	2.24455	3.80890	4.44679
453.12500	-0.71105	-0.98561	-1.51826	0.70613
457.03125	3.53593	-0.01041	0.17032	0.85762
460.93750	4.60271	3.74404	0.97679	5.01497
464.84375	-2.52819	2.59939	-0.98311	-1.28822
468.75000	0.69110	-0.30730	-1.48143	-0.24202
472.65625	2.44383	-0.17666	-1.05771	-2.04423
476.56250	-3.76970	4.55132	-2.56025	-5.68780
480.46875	-3.03575	2.34094	-2.64776	0.03511
484.37500	-10.13517	1.12327	0.53874	-1.02382
488.28125	4.47459	2.38898	-5.97718	5.59090
492.18750	36.63738	1.07736	-9.07037	30.46705
496.09375	15.78951	1.47552	1.15949	17.27433
500.00000	-26.21856	-3.52428	1.39740	-26.44373
503.90625	-41.54045	-8.04696	1.26086	-48.49566
507.81250	-50.62527	-13.44558	3.61983	-63.50600
511.71875	-59.32772	-20.19178	-2.59023	-74.22015
515.62500	-71.51205	-22.52902	-2.37225	-82.94033
519.53125	-83.42377	-27.94947	1.82982	-92.52959
523.43750	-90.70921	-29.34572	-0.02383	-94.55649
527.34375	-84.89153	-29.28248	3.94110	-85.07243
531.25000	-78.78154	-30.94563	1.86190	-79.59623
535.15625	-68.19772	-27.16437	0.13937	-76.63770
539.06250	-50.89077	-20.56308	3.88694	-65.22932
542.96875	-52.47660	-18.45215	-0.09023	-59.43225
546.87500	-52.45086	-22.16084	0.22648	-55.51258
550.78125	-49.16455	-21.91977	-0.14693	-49.74140
554.68750	-45.55320	-18.87307	3.05097	-43.17458
558.59375	-36.94448	-16.41416	5.55309	-35.97959
562.50000	-37.63844	-19.28583	-2.16037	-31.76885
566.40625	-39.98992	-22.70924	-1.88107	-32.07150
570.31250	-34.18755	-15.68158	0.65080	-34.23434
574.21875	-30.14725	-14.97746	0.31689	-33.30302
578.12500	-19.35919	-15.49669	-1.63430	-30.53838
582.03125	-17.16481	-11.69977	-2.20375	-29.29243
585.93750	-22.98162	-8.77232	-0.76783	-25.65644
589.84375	-16.17553	-2.96825	1.03167	-21.81496
593.75000	-16.72669	-1.77523	2.00830	-17.59641
597.65625	-16.20281	-5.71673	0.45501	-14.62627
601.56250	-13.99507	-6.16900	-0.21961	-11.29970
605.46875	-13.55952	-4.12817	4.37391	-10.10224
609.37500	-7.67775	-3.12532	4.21955	-12.50768
613.28125	-3.67348	-5.05197	-0.74097	-13.37141
617.18750	1.19550	-3.99088	1.74625	-11.58226
621.09375	-2.30550	-6.72018	0.97239	-9.20712
625.00000	-6.92639	-7.97555	-0.95904	-10.81597
628.90625	-6.74135	-0.04092	-3.48422	-10.36864
632.81250	-10.73480	2.59256	-5.11185	-10.55028
636.71875	-8.20386	0.56582	-0.58293	-4.05032
640.62500	-0.18441	-3.27743	1.37249	0.37089
644.53125	1.31969	-2.58984	-0.64759	-4.44739
648.43750	1.07527	1.44374	-1.93244	-0.92145
652.34375	-0.85372	3.02654	-0.22672	0.13398
656.25000	-2.84362	1.51245	0.31533	-2.47809
660.15625	-0.73189	2.55160	-3.45144	-8.73682
664.06250	-1.73637	9.20531	-4.35988	-9.54692
667.96875	2.00816	11.79892	4.04130	-0.31329
671.87500	4.99541	13.17245	4.24306	-1.06637
675.78125	1.20863	11.74853	-1.20193	-2.00320
679.68750	-1.07194	5.93645	-0.60603	2.57678
683.59375	-4.82507	4.44037	-1.21522	-0.74183
687.50000	1.63425	3.61927	2.75341	2.70718
691.40625	13.63152	1.19710	6.68494	16.46225
695.31250	7.62228	5.89445	1.31002	5.86049
699.21875	3.28717	9.29962	-1.77667	-4.34424
703.12500	0.10930	12.93060	-4.10557	-3.02114
707.03125	0.29491	11.14741	-5.79449	4.08010
710.93750	5.27242	5.37619	-2.57203	3.95206
714.84375	6.35972	1.68358	-0.61247	-1.83254
718.75000	6.36428	1.36472	-1.32332	-0.05823
722.65625	-6.26726	3.64950	0.67016	-1.88240
726.56250	-4.48563	5.36629	-0.24527	1.35826
730.46875	0.42184	6.36575	-0.56103	1.27644
734.37500	-2.55163	3.95491	5.11657	0.72363
738.28125	-3.46136	3.09004	-1.66453	2.97344
742.18750	0.23698	4.80250	-1.39211	5.89953
746.09375	6.98261	6.01396	5.30084	7.81026
750.00000	9.90677	4.96771	3.85378	6.40013
753.90625	6.29118	3.04129	3.18404	2.66454
757.81250	5.30309	3.19972	2.03357	2.36356
761.71875	7.15606	3.09388	1.79638	6.22791
765.62500	2.01470	3.41439	3.59263	4.06892
769.53125	1.03297	1.57996	3.41957	6.80839
773.43750	3.08063	0.95943	5.27280	8.83531
777.34375	4.51609	4.92335	6.94861	8.61866
781.25000	1.62985	4.97264	4.99822	8.78347
785.15625	-2.50675	4.41261	2.28820	3.40739
789.06250	4.36235	5.86775	-0.25094	-1.55418
792.96875	5.14260	5.36641	2.11407	-0.09853
796.87500	8.34061	7.05827	2.20000	6.45796
800.78125	14.32195	5.60622	3.78183	7.93956
804.68750	8.29319	0.54269	-0.62527	3.79027
808.59375	7.74338	-4.33593	-5.54525	4.65396
812.50000	6.01998	-2.27235	-1.05562	4.06957
816.40625	4.34245	2.35779	-4.15572	-0.46304
820.31250	6.59895	1.37195	-3.46451	1.29681
824.21875	2.15601	2.68027	-0.71342	1.17128
828.12500	-0.17030	1.98858	-0.77720	0.01827
832.03125	0.85900	6.24811	2.20946	0.38398
835.93750	0.63210	6.94484	3.19087	1.58305
839.84375	0.67604	2.34739	3.00265	2.97969
843.75000	-1.59311	4.37565	2.42866	4.40200
847.65625	-2.11681	6.30033	0.35525	4.25238
851.56250	-0.69795	6.75038	-2.19398	1.73161
855.46875	-2.74503	2.28986	2.07660	1.33990
859.37500	0.64087	0.07608	3.84224	6.96867
863.28125	3.48666	-0.01398	-0.06213	7.42935
867.18750	-0.97915	-2.28607	-0.53498	1.61085
871.09375	-0.70146	-1.97649	1.44727	2.45908
875.00000	1.09913	-0.72332	0.96082	2.05318
878.90625	2.52607	0.20431	-1.75242	-1.61767
882.81250	-0.33016	0.79211	1.88949	-1.43610
886.71875	0.36259	2.01076	3.00119	-1.48927
890.62500	-2.41849	1.82256	1.04542	0.93921
894.53125	-4.32531	-0.47896	0.24463	0.11633
898.43750	2.36624	0.32050	-0.08266	-1.79802
902.34375	0.26614	-4.89089	-0.98282	1.17574
906.25000	-0.16122	-6.19945	2.10114	0.16136
910.15625	1.75658	-3.21148	6.67346	0.77899
914.06250	-2.47667	-3.01750	-2.08883	0.78313
917.96875	-3.40042	-1.18106	-6.05822	-1.19788
921.87500	0.46237	-2.15380	-2.63393	1.16679
925.78125	4.24927	-0.32915	-0.00982	3.31222
929.68750	4.11254	2.25738	-1.00908	3.97024
933.59375	6.25410	2.13956	-1.60903	2.05055
937.50000	10.27115	2.95859	2.07769	-0.59263
941.40625	9.95916	0.14047	1.36913	0.56062
945.31250	5.89538	-2.54430	-3.32961	3.50660
949.21875	6.20145	-1.11655	-3.46670	0.41449
953.12500	5.35011	-1.12329	-2.34689	-0.50588
957.03125	3.15010	-0.14810	-2.67294	-0.75748
960.93750	7.03737	1.99454	0.14821	-2.24127
964.84375	6.35323	6.08792	6.24698	3.14034
968.75000	10.37831	8.41930	0.10765	1.76896
972.65625	5.28127	7.74409	-5.10958	-1.64493
976.56250	3.09713	8.44274	-2.17980	-0.05045
980.46875	3.42812	3.81473	-2.67021	-2.78901
984.37500	-1.25374	1.38829	1.32215	0.58426
988.28125	0.86525	3.05693	2.05901	4.37853
992.18750	-4.44450	2.95405	0.98047	0.64666
996.09375	-1.51947	0.93464	2.74877	-0.05531
1000.00000	5.22706	2.78458	3.79258	-1.86859
1003.90625	-0.42446	5.51466	3.25307	-4.17700
1007.81250	2.57860	4.54824	3.19446	1.76501
1011.71875	-2.09459	1.02554	3.02841	-1.29360
1015.62500	-2.99692	-2.52054	8.08155	-1.14932
1019.53125	10.07299	1.72925	7.44842	2.15515
1023.43750	2.38452	4.76521	2.37135	-0.27484
1027.34375	-4.69165	0.79914	-0.51353	-2.07294
1031.25000	-0.99926	-0.86401	-3.39865	-0.22317
1035.15625	-3.71219	-1.51493	0.92276	-0.08528
1039.06250	-4.53711	-2.97228	3.86450	0.04101
1042.96875	-5.72010	-4.48769	1.90202	1.40575
1046.87500	-4.88860	-5.37595	2.21863	0.08730
1050.78125	0.41236	-2.31431	2.24809	-1.79735
1054.68750	-2.82619	-4.10275	1.41672	-3.28917
1058.59375	-2.67910	-5.67320	1.50121	1.08514
1062.50000	-0.95555	-4.51551	1.44340	3.68404
1066.40625	0.72214	-2.70090	2.52851	3.38128
1070.31250	4.10683	-3.73183	2.64276	5.65054
1074.21875	-1.12037	-6.65407	2.71178	5.77591
1078.12500	-4.43495	-1.12934	5.19270	5.71994
1082.03125	-4.65823	-0.15290	3.81738	0.51890
1085.93750	-3.22237	-4.47817	-1.59666	-1.08330
1089.84375	-4.07203	-5.92691	-0.20001	2.35510
1093.75000	-5.83209	-2.31629	0.77653	3.35017
1097.65625	0.73567	3.41257	-2.79142	2.29086
1101.56250	21.07516	1.75159	-2.25726	17.70523
1105.46875	16.67547	4.19534	4.35089	19.30553
1109.37500	2.00768	6.00403	6.61413	2.79737
1113.28125	11.24990	5.28613	0.84767	7.97747
1117.18750	23.77443	11.18233	2.52898	20.64549
1121.09375	32.76428	14.49696	-2.67712	28.66149
1125.00000	34.59013	13.24160	-9.44379	35.11102
1128.90625	37.99850	14.32642	-6.32803	39.58755
1132.81250	42.46650	14.54235	-3.52336	42.62909
1136.71875	46.20615	10.09804	0.19963	48.72601
1140.62500	51.00206	9.47828	1.34917	55.16172
1144.53125	54.92361	9.76295	3.76131	60.41657
1148.43750	57.09664	7.34965	9.32621	58.70425
1152.34375	69.27011	13.76765	9.42015	62.17713
1156.25000	60.43028	16.68588	-4.54331	61.57946
1160.15625	48.43933	11.68111	-9.11603	56.93225
1164.06250	53.88150	11.08202	-5.18930	57.73370
1167.96875	55.61131	11.66098	-8.47316	55.68507
1171.87500	50.94272	12.22863	-5.04801	49.29078
1175.78125	45.54419	11.20764	-0.01680	49.56268
1179.68750	47.29269	14.25998	1.38492	46.48674
1183.59375	50.79215	10.74922	1.58151	43.57096
1187.50000	44.76055	9.12216	-2.10566	42.99044
1191.40625	33.38765	11.93807	-2.20344	38.61342
1195.31250	27.37828	9.38268	2.49485	37.27898
1199.21875	31.10161	7.14682	-0.18899	38.35616
1203.12500	28.72943	5.94260	-0.50319	36.45568
1207.03125	24.07978	9.39740	-0.17753	35.49810
1210.93750	25.43081	6.84964	-0.98437	31.74359
1214.84375	19.26524	2.75410	-1.44239	25.95879
1218.75000	19.26966	5.25579	-1.34734	26.52416
1222.65625	20.33761	5.92887	4.27245	24.69980
1226.56250	18.49269	9.25737	-1.07521	17.46414
1230.46875	20.57954	8.64514	-6.22621	16.97918
1234.37500	18.00887	2.60790	-4.17497	17.63501
1238.28125	21.53126	2.54889	-3.70338	14.64654
1242.18750	23.61780	3.05253	1.00113	15.55777
1246.09375	21.90176	3.05520	0.44123	20.28878
1250.00000	21.19948	4.42652	-5.84103	20.49013
1253.90625	18.38965	6.52944	-4.09321	15.94849
1257.81250	22.23663	8.29957	-1.61739	17.66201
1261.71875	18.04553	4.16447	-2.25756	20.72041
1265.62500	15.32168	2.47026	-0.46128	20.17305
1269.53125	24.41309	7.88862	0.57444	18.88303
1273.43750	23.23724	8.07393	-3.61628	11.23950
1277.34375	17.01679	4.38215	-5.16392	9.81388
1281.25000	15.33926	6.44612	-0.66740	18.03710
1285.15625	11.60543	8.70667	0.24884	19.91359
1289.06250	8.40122	6.53548	2.94781	20.59289
1292.96875	9.18139	8.45170	3.70104	16.40730
1296.87500	9.15592	5.71134	-0.24242	7.65229
1300.78125	6.27268	0.23003	0.13062	9.13375
1304.68750	4.27313	0.80756	0.96165	12.23706
1308.59375	16.61696	1.16709	1.68260	11.89175
1312.50000	14.08763	-0.79860	1.74003	9.29249
1316.40625	-0.08082	1.41393	1.05746	7.58036
1320.31250	-0.64489	2.84569	0.53986	7.72833
1324.21875	-1.86445	1.73649	2.08220	9.21433
1328.12500	4.67368	2.65652	4.43590	10.07587
1332.03125	4.49411	0.46915	-1.03903	7.62087
1335.93750	2.65541	-0.04292	-4.08695	7.20806
1339.84375	7.13157	5.43297	-1.85763	3.36633
1343.75000	2.84773	6.65542	-0.41705	7.60900
1347.65625	4.74161	4.55074	-0.87879	10.27975
1351.56250	6.96626	2.98622	-0.20455	8.56468
1355.46875	6.93374	3.36086	2.45437	11.39630
1359.37500	8.70788	7.99696	2.60829	10.57807
1363.28125	4.30082	9.11569	0.31565	7.81519
1367.18750	6.28184	4.42612	-1.76898	8.84640
1371.09375	9.37996	-0.09947	-0.59259	7.27690
1375.00000	4.33066	-0.86095	0.93557	6.87086
1378.90625	2.13109	1.67843	0.23696	6.82617
1382.81250	2.09535	3.87805	-1.35924	1.76953
1386.71875	5.60849	1.87329	1.76706	4.13377
1390.62500	4.03607	-2.74714	0.61713	3.33869
1394.53125	0.11458	-4.24284	-3.00425	4.12746
1398.43750	2.77688	0.98880	-0.91396	6.24250
1402.34375	2.28834	1.41851	3.82688	-1.66308
1406.25000	2.66646	0.91580	5.70194	2.15731
1410.15625	5.79268	-2.14024	2.21564	5.19207
1414.06250	7.19993	-5.57261	-0.50264	-2.05705
1417.96875	4.26096	-2.12447	-3.66620	-3.63571
1421.87500	1.27344	2.14078	-1.04785	-3.28632
1425.78125	7.07450	3.96546	0.77044	1.67904
1429.68750	7.74306	2.11966	-2.24344	2.33645
1433.59375	1.82553	2.80759	-0.02300	1.22196
1437.50000	-1.81360	4.02944	0.84313	3.81620
1441.40625	-2.93205	2.01713	0.13456	1.74543
1445.31250	-4.17585	-2.68236	0.67391	3.88494
1449.21875	-2.66147	-4.07510	0.13379	1.19521
1453.12500	-1.49845	-3.27599	-0.35820	-4.56074
1457.03125	-0.87836	-7.53890	1.73328	-3.20103
1460.93750	2.20259	-7.41090	2.53970	-3.07361
1464.84375	3.12976	-9.36146	-1.03197	-2.93055
1468.75000	1.91636	-5.41842	-5.96260	-0.27318
1472.65625	-0.36063	4.38258	-7.15060	-1.27002
1476.56250	-0.93357	2.26077	-3.81801	-3.30243
1480.46875	0.60571	-1.96432	-0.27923	1.21111
1484.37500	-3.27083	-3.58497	-1.12203	-1.86301
1488.28125	-0.74944	-3.93108	-2.39991	-6.93380
1492.18750	-0.01571	-2.01928	-0.65803	-4.21930
1496.09375	-0.31448	-0.81531	-0.90443	-1.29538
1500.00000	1.59645	-2.59172	-1.06953	1.72603
1503.90625	-1.23491	-7.11440	-0.40022	4.65526
1507.81250	4.99113	-4.05151	3.97329	4.14988
1511.71875	6.76445	-1.53035	1.79253	3.50848
1515.62500	4.25009	-3.06178	-2.82468	3.24940
1519.53125	3.62007	-3.64709	-2.24914	4.13585
1523.43750	1.97520	-7.46093	1.13530	4.12311
1527.34375	4.56909	-0.54793	3.48847	6.35390
1531.25000	9.87288	-2.21105	-1.00847	6.18871
1535.15625	34.55898	-10.92055	-4.74567	30.50208
1539.06250	41.38943	-2.30465	-3.41574	42.71589
1542.96875	-0.48973	-0.19364	2.68036	2.17554
1546.87500	-36.72808	-7.93168	5.01159	-32.98951
1550.78125	-43.51534	-6.88470	5.84688	-42.12732
1554.68750	-50.78344	-7.46440	5.82124	-51.67817
1558.59375	-64.73911	-17.89929	-1.34701	-77.12105
1562.50000	-75.50661	-24.39731	-4.62832	-91.84847
1566.40625	-87.52877	-25.00031	0.08309	-94.56918
1570.31250	-93.41171	-26.43416	5.03249	-93.91194
1574.21875	-92.99815	-22.10365	6.71316	-89.75760
1578.12500	-84.62793	-21.41414	3.15012	-84.57574
1582.03125	-69.94297	-18.82603	0.56599	-78.89799
1585.93750	-63.67215	-15.49553	4.41936	-68.00956
1589.84375	-61.29847	-19.36183	2.59249	-60.94505
1593.75000	-59.43221	-16.95998	6.38960	-55.92093
1597.65625	-54.07341	-14.05164	9.26852	-49.32481
1601.56250	-51.46305	-14.50396	2.54989	-51.63967
1605.46875	-42.96916	-12.86614	0.29342	-45.20453
1609.37500	-38.29653	-10.25160	1.75082	-38.34297
1613.28125	-42.75410	-10.56664	2.83418	-41.22174
1617.18750	-40.30299	-11.11732	1.69491	-37.41837
1621.09375	-35.34272	-9.41447	0.11515	-35.04363
1625.00000	-30.29354	-9.05810	-1.41343	-35.84703
1628.90625	-26.48242	-7.97330	-0.71523	-30.56488
1632.81250	-22.82040	-3.72816	0.88058	-21.07663
1636.71875	-22.70734	-0.51680	-1.44032	-22.23277
1640.62500	-18.31450	2.48979	-1.49961	-21.43825
1644.53125	-13.58721	3.98326	-0.69923	-18.19826
1648.43750	-18.26414	4.79344	-1.17831	-17.09024
1652.34375	-15.35826	4.36153	0.93022	-15.63222
1656.25000	-14.12503	6.07093	3.48692	-14.61834
1660.15625	-14.83411	11.13941	3.74940	-15.63942
1664.06250	-12.21260	7.31687	5.66140	-14.83816
1667.96875	-8.46836	2.65777	1.57177	-10.84301
1671.87500	-10.71943	-1.60977	-4.27048	-13.20816
1675.78125	-15.71526	-0.21320	-2.05989	-8.10141
1679.68750	-13.96690	6.86855	-0.25529	-6.34237
1683.59375	-8.04997	4.96958	-0.86451	-9.66130
1687.50000	-2.39679	2.93960	-1.73108	-9.03321
1691.40625	-6.11411	3.33801	0.58867	-10.99283
1695.31250	-10.10890	6.02068	2.86932	-10.31288
1699.21875	-7.99740	8.21712	1.79729	-8.02700
1703.12500	-6.74324	11.04224	-1.74044	-11.53937
1707.03125	-7.36375	10.87071	-1.81772	-14.10878
1710.93750	-6.01290	4.69650	2.61349	-12.62539
1714.84375	-9.35804	0.60092	-0.26218	-12.76929
1718.75000	-7.33918	1.08797	-2.18185	-11.39816
1722.65625	-1.83908	6.99914	0.21456	-9.59631
1726.56250	0.74819	4.68664	0.91086	-5.55009
1730.46875	0.41735	2.05970	2.20676	-5.22934
1734.37500	-6.18267	6.49865	6.67558	-5.37952
1738.28125	4.18937	-1.21599	5.53544	12.58424
1742.18750	3.05239	0.89934	-4.26555	11.48063
1746.09375	0.12753	10.16941	-8.04884	-7.56128
1750.00000	8.69255	10.73485	-3.85495	-14.61275
1753.90625	-5.39945	7.59963	-2.91298	-13.11056
1757.81250	-10.81999	4.53462	-4.46647	-10.18840
1761.71875	-10.57894	2.01123	-1.48024	-9.54779
1765.62500	-4.43847	-4.11517	3.94238	0.78376
1769.53125	3.44400	-1.11442	4.17219	0.70241
1773.43750	2.26805	3.50307	5.21959	-1.30028
1777.34375	5.31496	1.82592	3.26898	3.31788
1781.25000	4.84601	1.47231	-1.09901	-0.14409
1785.15625	1.91788	1.31524	3.84657	6.16449
1789.06250	6.77224	3.57626	4.93374	12.08176
1792.96875	5.94051	1.46318	0.85177	4.26969
1796.87500	1.07964	-0.87422	-1.47990	-0.45621
1800.78125	0.61387	-0.71459	-0.30104	3.44260
1804.68750	0.62894	-1.34592	6.17105	7.75450
1808.59375	5.31696	0.22237	6.48904	7.40900
1812.50000	5.20510	-4.56380	1.30834	4.40667
1816.40625	2.31856	-3.15709	0.62579	1.88849
1820.31250	3.36606	1.09516	-0.29478	2.84221
1824.21875	7.78740	3.20931	2.45634	4.73100
1828.12500	11.10191	9.36743	-1.23388	-0.45161
1832.03125	6.48995	8.38894	-3.08238	-1.29500
1835.93750	-0.58694	7.07098	2.33124	3.53010
1839.84375	4.69485	4.89121	1.33711	2.10582
1843.75000	8.06661	2.48722	1.16594	-0.50147
1847.65625	4.72229	6.02359	2.71889	1.76614
1851.56250	9.76731	9.69710	5.40770	9.31834
1855.46875	-1.54736	12.08640	3.63435	8.92638
1859.37500	-5.01144	11.48439	1.37070	1.66115
1863.28125	-2.56876	10.99138	1.09271	-2.31070
1867.18750	-6.63184	9.92813	-3.40955	-2.48849
1871.09375	-4.74255	4.99965	1.79618	-0.83460
1875.00000	-1.73333	5.84989	5.33896	2.78854
1878.90625	0.09635	10.40395	1.41687	1.53501
1882.81250	0.06052	13.40931	5.46164	-2.31298
1886.71875	5.99113	13.82219	1.73812	1.25997
1890.62500	9.25383	12.02220	-7.06751	0.06187
1894.53125	4.92922	13.34714	-3.43616	-1.97005
1898.43750	6.78544	10.52020	-0.53996	-0.25823
1902.34375	9.11740	10.14396	-4.26069	0.29769
1906.25000	8.68981	10.44712	-3.59435	2.10359
1910.15625	10.20455	6.98822	-4.26008	2.31810
1914.06250	3.55347	8.39107	-2.94913	3.12786
1917.96875	-4.22027	9.01870	0.73719	2.75833
1921.87500	0.44820	8.44887	-0.27089	0.28756
1925.78125	1.41442	6.64720	0.33848	2.02979
1929.68750	-0.73712	6.81614	0.54801	5.50805
1933.59375	-3.43084	4.28071	-0.45493	4.39397
1937.50000	-0.21982	5.09976	4.84347	-0.26417
1941.40625	2.28846	6.31100	1.31446	-3.14048
1945.31250	-5.80488	5.23790	-5.39891	-4.22412
1949.21875	-7.51361	6.26279	-2.31264	-1.27263
1953.12500	0.09651	5.45015	0.82160	-0.17860
1957.03125	1.92550	8.03708	1.70431	-0.43043
1960.93750	-1.44026	7.35923	1.70487	-0.30287
1964.84375	-0.91587	5.81156	3.77417	2.25787
1968.75000	7.54114	9.35169	1.26111	2.09478
1972.65625	4.86133	9.88525	-2.34449	-1.31953
1976.56250	0.25923	7.76336	-1.02657	-0.53138
1980.46875	-0.21605	5.95590	1.70638	0.75878
1984.37500	-3.28657	5.54405	0.86349	-1.50944
1988.28125	3.26425	7.21263	-2.83204	-0.93911
1992.18750	-2.44876	7.10980	0.92444	-1.85098
1996.09375	-14.02961	9.52258	3.49851	-3.35924
2000.00000	-11.31272	12.98430	2.12466	-3.56125
2003.90625	-6.08546	14.90855	2.79394	-5.06427
2007.81250	-1.06810	16.35972	0.72051	-1.54026
2011.71875	-0.10059	16.06039	1.76316	-5.00218
2015.62500	-5.83840	17.75246	-1.64529	-11.30520
2019.53125	-2.84194	15.55544	-5.50184	-8.00120
2023.43750	-0.45748	15.77092	-6.54968	-4.79050
2027.34375	2.94225	15.02826	-5.00247	-0.94794
2031.25000	4.61964	14.57389	-0.63494	1.70739
2035.15625	-1.31697	18.35513	0.06004	2.24786
2039.06250	-6.57449	15.68902	-0.62469	-0.84967
2042.96875	-3.32544	13.77063	0.63623	-1.49996
2046.87500	5.16142	12.88241	2.16163	-3.62471
2050.78125	3.20933	11.10881	-0.22648	-8.33022
2054.68750	-0.83532	12.14083	2.97133	-6.59906
2058.59375	-0.68850	12.18210	2.24992	-3.83682
2062.50000	2.24356	8.50453	-4.25483	-3.25293
2066.40625	5.53266	5.88690	-3.57272	-1.13855
2070.31250	2.06727	5.66173	-3.86146	-0.88438
2074.21875	-4.77191	0.72478	-2.18081	-2.77400
2078.12500	-8.89256	-3.01795	-0.90864	-3.63624
2082.03125	-7.10139	2.39072	-2.28405	-2.39074
2085.93750	-4.05409	7.33277	-1.65415	-1.97866
2089.84375	-0.87463	5.88407	-0.25753	1.86235
2093.75000	-0.21723	1.03316	-3.71322	-1.17224
2097.65625	-0.90241	0.31512	-1.23729	-1.82902
2101.56250	4.12547	3.08628	2.11731	5.52638
2105.46875	10.20179	-0.91688	-0.94496	3.90291
2109.37500	9.23337	-1.92877	-1.50226	4.31760
2113.28125	3.16402	2.18849	-1.22479	8.28856
2117.18750	-3.65222	4.05542	3.27696	6.85379
2121.09375	-5.13885	2.93776	2.50304	7.21386
2125.00000	-3.31315	0.47357	-3.86079	5.60459
2128.90625	-5.54600	1.15549	-1.14798	3.23100
2132.81250	-7.92796	1.77431	-2.77562	0.22836
2136.71875	9.10815	6.19447	-9.93176	9.14548
2140.62500	21.15658	-0.87222	-4.35004	21.62485
2144.53125	0.90210	-11.06379	3.70313	9.15048
2148.43750	-5.78956	-11.46248	2.41819	-5.45592
2152.34375	-10.53942	-16.32655	5.33256	-11.65373
2156.25000	-16.96186	-16.22888	7.48625	-23.13079
2160.15625	-4.37428	-15.18974	5.33104	-23.34606
2164.06250	-12.22898	-17.40055	3.61666	-18.51565
2167.96875	-22.99025	-22.05959	4.76510	-16.93812
2171.87500	-23.22669	-21.89485	7.78727	-21.31806
2175.78125	-22.98441	-14.05140	2.34218	-23.46407
2179.68750	-15.19210	-17.04303	2.53505	-15.25818
2183.59375	-14.51335	-20.55380	5.95508	-12.53322
2187.50000	-14.09821	-18.15156	-1.35848	-12.71107
2191.40625	-8.95114	-14.93270	-2.26212	-8.62673
2195.31250	-9.72257	-16.27930	-1.59322	-12.78200
2199.21875	-5.59649	-18.91812	-0.65062	-11.30210
2203.12500	1.29864	-12.86958	-2.17371	-8.36764
2207.03125	-0.93365	-7.40011	-2.65388	-5.29612
2210.93750	-6.43265	-6.72444	2.18023	-1.39515
2214.84375	-7.76321	-12.83465	1.72214	-3.15090
2218.75000	-6.95314	-12.75057	1.01126	0.23472
2222.65625	-3.46777	-6.83943	1.39302	-0.38107
2226.56250	1.13405	-9.15195	2.89511	2.05338
2230.46875	4.02658	-12.58476	2.57925	6.80626
2234.37500	-6.60287	-14.18978	-3.02528	4.23841
2238.28125	-8.31879	-11.83121	-2.55374	2.05557
2242.18750	-5.42653	-6.08948	2.95660	2.96658
2246.09375	-3.11335	-2.86343	2.79964	-2.37584
2250.00000	-7.44217	-3.10385	1.75546	-8.62157
2253.90625	-14.28144	-6.64195	5.11495	-7.92532
2257.81250	-13.25514	-6.88647	2.75559	-6.21204
2261.71875	-8.17900	-5.38057	0.10074	-2.34807
2265.62500	-2.03862	-2.23958	3.50871	1.13360
2269.53125	3.02324	-2.05940	3.33562	1.05212
2273.43750	-5.40558	-2.67998	5.18883	-0.54773
2277.34375	-8.40278	-5.16297	4.84994	-1.57068
2281.25000	0.39566	-5.51661	1.28777	-1.40632
2285.15625	1.49674	-1.64440	2.20404	-1.94768
2289.06250	-0.90186	-6.23315	2.88828	-0.46279
2292.96875	-7.37467	-8.34630	1.22392	0.58956
2296.87500	-8.60910	-0.61039	-1.91366	-0.10712
2300.78125	-3.43392	0.35511	-0.73476	-3.46105
2304.68750	1.01325	-3.09668	4.52841	-1.96975
2308.59375	8.92472	-1.12552	4.44350	2.51992
2312.50000	6.39514	-1.07659	-1.94601	-2.89997
2316.40625	0.68805	1.13594	-2.62857	-0.58307
2320.31250	0.12378	0.55305	-1.53444	5.20580
2324.21875	0.11281	-2.97376	-0.39511	5.88566
2328.12500	5.84491	-2.45664	3.16737	7.55283
2332.03125	8.48563	-2.62936	0.51300	5.50055
2335.93750	5.43794	-1.12678	-2.93790	3.87873
2339.84375	-1.36824	0.72275	-0.70860	9.70713
2343.75000	-0.01131	-0.47243	3.14946	14.35250
2347.65625	5.10580	-2.57710	0.67302	7.75553
2351.56250	0.48051	-4.94751	-0.66742	5.63734
2355.46875	-1.16395	-4.97575	0.37970	7.25992
2359.37500	1.41585	-4.36902	0.53363	2.41217
2363.28125	2.24668	-4.45911	1.46442	2.06667
2367.18750	4.22751	-1.49302	1.79728	2.29175
2371.09375	2.89326	2.04006	2.57073	0.31914
2375.00000	1.87303	2.48741	0.87538	1.92756
2378.90625	5.31436	2.20635	-0.62915	3.09149
2382.81250	6.08428	-1.63807	-1.41954	5.28740
2386.71875	11.20893	-6.46334	-1.11374	4.42803
2390.62500	6.81583	-3.42812	-1.05496	-0.39659
2394.53125	-8.79093	-4.52080	-1.45294	0.79479
2398.43750	-4.92014	-4.52726	-0.57139	0.49184
2402.34375	-2.99113	-6.11224	0.14010	-3.38453
2406.25000	-3.01592	-9.83841	0.40341	-3.19054
2410.15625	2.12512	-9.26803	-0.26238	1.05311
2414.06250	4.33840	-5.04474	-1.77200	6.69786
2417.96875	2.20553	0.01512	-3.72681	3.50769
2421.87500	2.03873	0.65406	-2.72019	-5.00714
2425.78125	5.82546	1.26996	-1.30495	-4.07092
2429.68750	13.34409	3.45352	-1.49836	2.63070
2433.59375	7.02388	1.32104	2.33386	1.51657
2437.50000	-1.45024	0.52832	3.19997	-1.53001
2441.40625	-2.97137	-1.08097	1.28266	0.02575
2445.31250	-5.82666	-0.13942	1.41906	-1.86386
2449.21875	0.52313	2.49719	-0.32980	-1.32998
2453.12500	0.88044	3.69929	-1.22485	2.18158
2457.03125	-2.52864	2.25695	-1.55094	1.12377
2460.93750	2.16412	-1.24144	0.06130	0.04255
2464.84375	3.49438	1.24028	-1.09281	3.81208
2468.75000	1.47519	2.76577	2.03513	5.66361
2472.65625	-1.60759	-0.72994	3.66761	2.65217
2476.56250	-5.80681	-2.85185	-2.67021	0.21690
2480.46875	-7.49082	-6.27099	-0.34027	2.71593
2484.37500	-2.90564	-9.10034	3.24904	6.08875
2488.28125	3.64514	-2.99945	1.56821	7.06188
2492.18750	0.75257	0.52410	-2.73393	4.13533
2496.09375	-1.56099	-2.30120	-2.98037	-2.20827
2500.00000	-2.87361	-4.48048	-3.95135	-6.43973
2503.90625	-6.51093	-3.36213	-3.68505	-5.12237
2507.81250	-1.89667	-2.71679	-2.93796	-2.40443
2511.71875	-0.52640	-5.03076	-3.91005	-3.44893
2515.62500	-2.23501	-7.77095	-1.27459	-6.52866
2519.53125	-0.04457	-7.14744	-1.50489	-3.22472
2523.43750	2.74280	-2.90260	-2.95568	-2.02872
2527.34375	6.54542	-1.63053	-2.61723	0.20198
2531.25000	8.62567	-2.48782	-3.89079	4.06599
2535.15625	0.67435	-3.54168	-6.01630	-0.22883
2539.06250	-5.79198	-3.79018	-3.88055	-4.13228
2542.96875	-6.16935	-4.49980	-0.60499	-3.17085
2546.87500	-2.92060	-6.19383	-1.09426	-1.66930
2550.78125	1.97708	-6.75862	1.35272	-1.53968
2554.68750	1.96168	-6.93537	4.55055	-2.22608
2558.59375	0.09382	-2.86475	-0.20025	-0.67271
2562.50000	0.20539	-2.11000	-3.48150	-0.49183
2566.40625	-0.53480	-4.72756	0.02110	-0.39209
2570.31250	-3.19438	-3.34096	1.74698	-2.15255
2574.21875	-5.60138	-1.83095	1.00998	-6.86275
2578.12500	2.76874	1.67911	2.68506	-4.90448
2582.03125	2.94809	4.26723	3.32428	-1.24150
2585.93750	-7.30133	3.97132	0.32776	-0.82938
2589.84375	-1.30144	-1.90964	1.72433	0.59400
2593.75000	-1.45002	-2.73124	2.29791	-0.42598
2597.65625	-7.77634	1.78885	1.14744	-5.11209
2601.56250	-3.95726	2.54540	2.08448	-4.60655
2605.46875	0.91015	4.58623	1.43972	0.21682
2609.37500	1.95641	0.75395	-0.32637	3.45190
2613.28125	-2.09829	-0.76983	0.35399	-1.84451
2617.18750	-3.67649	4.72350	-1.99416	-5.69693
2621.09375	-3.14858	2.80006	0.05240	-1.30766
2625.00000	-1.72590	3.15648	0.94139	-0.09651
2628.90625	4.50275	-0.19093	-1.18101	-2.47017
2632.81250	5.34418	-4.00436	-1.59987	-0.23480
2636.71875	1.42787	-6.03109	-0.29447	0.62366
2640.62500	-0.62623	-5.44206	5.69016	1.82094
2644.53125	0.87753	-7.17204	4.07293	5.86671
2648.43750	1.84158	-13.21170	-3.25606	4.95999
2652.34375	2.73271	-5.58492	-4.77392	2.79147
2656.25000	2.75712	-1.45796	-1.00849	-0.62703
2660.15625	0.83916	-4.85102	2.47730	1.97819
2664.06250	0.23716	-8.67353	1.16580	6.00275
2667.96875	1.96667	-9.30329	0.29957	5.16270
2671.87500	-4.71674	-5.10927	1.71005	5.61787
2675.78125	-12.13023	-5.32439	1.10012	1.05425
2679.68750	-8.77020	-5.49545	1.69595	-2.42487
2683.59375	-3.25625	-9.40903	4.71303	-0.90872
2687.50000	4.00868	-7.40966	4.65225	1.73393
2691.40625	1.90300	-2.17612	5.76319	1.78892
2695.31250	-3.30066	-0.29927	2.40285	0.85705
2699.21875	-2.80096	0.68836	-1.48979	-0.08072
2703.12500	-2.35285	-4.54517	-1.40118	1.24191
2707.03125	2.26467	-1.89610	0.13324	0.68709
2710.93750	1.19792	2.00308	2.95281	0.55864
2714.84375	-5.37074	0.72803	0.47999	4.04092
2718.75000	-3.75487	2.02091	-2.24561	6.21768
2722.65625	0.53631	-0.52950	-0.65510	4.39307
2726.56250	4.73514	-3.24497	2.45876	9.24509
2730.46875	5.21006	-3.45433	2.94876	8.35687
2734.37500	0.22170	-2.23880	1.37353	2.56551
2738.28125	-0.28550	0.52265	-0.57254	5.21780
2742.18750	2.20374	-2.19719	-1.10615	6.93460
2746.09375	4.11389	-1.79166	1.15447	6.02436
2750.00000	1.79964	1.19136	2.93077	6.62841
2753.90625	-3.02508	1.68254	1.05215	3.29527
2757.81250	1.62756	1.43801	-2.51599	-1.84126
2761.71875	5.09198	-0.27954	-4.36495	0.81390
2765.62500	3.97961	-0.36200	-0.95694	7.92189
2769.53125	6.62386	-3.40519	2.09329	7.84043
2773.43750	5.04485	-5.23458	-1.69455	2.21122
2777.34375	5.27117	-8.12047	-2.03354	3.20290
2781.25000	4.39928	-9.27998	0.04534	2.96428
2785.15625	6.70919	-2.18430	1.76746	5.24347
2789.06250	9.95168	-2.34085	0.83997	8.74304
2792.96875	5.09060	-8.48329	0.78737	1.73675
2796.87500	8.69131	-12.43237	4.90257	4.66654
2800.78125	7.01672	-8.24334	8.49901	10.57994
2804.68750	2.59945	-2.83064	5.30063	8.84783
2808.59375	6.07866	-2.47119	-0.02241	6.89053
2812.50000	2.74324	-2.42217	-1.17382	3.08230
2816.40625	0.25958	-4.23898	-3.46809	2.98164
2820.31250	1.70994	-4.01601	-2.37405	7.56160
2824.21875	2.90772	-6.33401	1.98879	7.83862
2828.12500	11.86327	-4.60807	0.71608	6.68523
2832.03125	8.05708	-0.34852	-1.93831	3.42414
2835.93750	0.98011	-4.88988	3.07232	-0.21235
2839.84375	10.29120	0.98890	4.49577	3.60139
2843.75000	5.20125	6.64359	1.90701	2.60572
2847.65625	2.25980	3.33010	2.25103	2.45563
2851.56250	0.66188	-0.25398	0.73151	4.16234
2855.46875	2.48181	1.18745	1.49072	3.83129
2859.37500	5.93450	3.32722	3.45620	1.39792
2863.28125	3.35479	2.52016	8.16438	2.19794
2867.18750	0.81581	2.12994	8.39921	4.38102
2871.09375	-1.09054	-0.15646	2.78012	9.00320
2875.00000	0.15757	-0.23088	3.23412	8.35890
2878.90625	6.39093	2.27552	3.50915	4.26512
2882.81250	0.99269	4.57165	2.42564	-1.90715
2886.71875	-2.42509	4.81110	2.23464	-3.90996
2890.62500	3.96475	1.99192	-4.45800	-0.06809
2894.53125	7.45199	4.02088	-8.72516	1.33608
2898.43750	3.90301	7.25127	-4.07630	0.98876
2902.34375	1.82249	6.58298	-2.08978	0.23306
2906.25000	3.43265	8.69055	-1.11686	0.65667
2910.15625	2.89395	7.39687	-1.64236	1.11102
2914.06250	1.83454	3.87316	-4.57275	1.31847
2917.96875	2.56204	4.15728	-2.78147	0.46030
2921.87500	-0.19186	4.12185	-2.15656	-1.86039
2925.78125	4.63241	3.28665	-0.04077	-2.90057
2929.68750	7.33568	1.54919	2.76557	-2.78742
2933.59375	-2.56635	4.16419	0.37704	-4.16661
2937.50000	-1.99979	1.46111	-1.87571	1.90311
2941.40625	1.41413	0.41255	1.01787	-2.14178
2945.31250	-2.10155	-1.33277	3.04800	-7.35656
2949.21875	-0.89473	-5.48237	-1.71014	-0.90482
2953.12500	1.11579	0.46413	-4.35447	-3.42042
2957.03125	0.75725	1.98908	-0.15249	-1.50311
2960.93750	1.83158	0.29206	0.58468	0.60357
2964.84375	2.92833	-0.74012	-2.72666	-7.49902
2968.75000	3.93302	0.40010	-2.98041	-7.36700
2972.65625	-2.42292	3.65369	-1.84642	-0.46218
2976.56250	1.62824	3.73261	-2.04636	3.56856
2980.46875	4.72114	2.55409	-2.64959	3.56554
2984.37500	-4.49299	1.03114	-2.45347	0.67823
2988.28125	-2.01488	5.49147	-1.84997	0.76707
2992.18750	-0.29066	6.48049	-3.38292	2.69886
2996.09375	2.28447	1.05621	-3.53080	-0.58147
