 	TP9	AF7	AF8	TP10	
-1000.00000	-7.97675	-12.02289	-1.25259	-1.00280
-996.09375	-3.79844	-14.44257	2.37374	-0.71658
-992.18750	-9.62690	-13.00087	1.16495	-3.46212
-988.28125	-9.71054	-8.53955	0.76207	-1.13162
-984.37500	-5.12739	-7.42845	2.77673	-1.46548
-980.46875	-4.00229	-6.73317	-0.84964	-5.01836
-976.56250	0.24863	-5.89400	3.58267	-1.78869
-972.65625	-4.74172	-2.78179	6.00031	-3.39225
-968.75000	4.27697	-3.68584	4.79147	-13.44045
-964.84375	-3.75713	-3.65642	-0.44664	-12.68604
-960.93750	-26.73661	-5.84033	-10.51986	-12.14010
-957.03125	-26.49795	-11.48322	-6.08766	-17.48483
-953.12500	-29.67348	-12.76828	0.35924	-21.65152
-949.21875	-25.75595	-8.50677	-0.04373	-19.71996
-945.31250	-15.75176	-0.23112	2.37371	-12.84037
-941.40625	-16.10426	-7.32259	2.77658	-7.43660
-937.50000	-15.48410	-10.65279	-1.65575	-8.69510
-933.59375	-15.11932	-1.86278	6.80577	-13.92366
-929.68750	-16.86234	-7.29699	21.31128	-11.53866
-925.78125	-8.51157	-9.64796	14.05856	-12.82214
-921.87500	-1.48853	-10.36850	-0.44692	-13.04897
-917.96875	-0.09556	-2.18610	-3.67036	-8.83530
-914.06250	3.47041	10.19001	9.62636	-5.59525
-910.15625	-4.15018	9.60468	12.84989	-5.04288
-906.25000	-7.46445	4.35122	4.38845	-7.00828
-902.34375	2.22583	4.36744	8.01492	-8.00828
-898.43750	20.12974	8.68728	3.98566	5.49362
-894.53125	21.67907	10.49714	3.17975	19.05085
-890.62500	-2.57677	13.58202	13.65587	2.15761
-886.71875	-5.40664	10.73430	12.44704	-8.31395
-882.81250	-10.58647	0.62533	8.41779	-10.03049
-878.90625	-21.63500	2.63599	10.43244	-12.41851
-875.00000	-16.07254	5.50800	-0.44664	-12.10284
-871.09375	-18.63105	-1.81895	-8.50517	-8.09384
-867.18750	-11.65828	-0.57879	-1.25233	-5.48060
-863.28125	1.58401	5.40455	-0.44645	-5.80944
-859.37500	11.26232	7.06824	-2.05813	1.92824
-855.46875	7.90391	2.88166	8.82116	2.49473
-851.56250	-0.77382	-0.34116	14.46227	2.05668
-847.65625	8.37663	1.02672	6.00075	10.73317
-843.75000	16.17157	4.20084	2.77738	17.55362
-839.84375	14.11545	5.87591	7.20969	11.09132
-835.93750	5.40641	2.22004	8.41851	6.04614
-832.03125	1.40621	5.92187	-1.25176	7.20588
-828.12500	3.87081	3.05157	-2.05771	8.06566
-824.21875	-1.08233	-4.59741	2.37459	6.87326
-820.31250	5.91480	0.67922	8.01572	10.26494
-816.40625	9.52137	1.91735	8.82161	7.43584
-812.50000	-11.30533	-2.77779	2.77766	-4.74889
-808.59375	-14.35549	-2.16836	3.18054	-2.63356
-804.68750	2.99003	-6.88864	-1.25167	4.85514
-800.78125	10.88260	-12.94598	-2.05759	8.74263
-796.87500	-1.05651	-6.07850	7.61274	9.50579
-792.96875	-2.25553	-1.46231	0.35998	1.23486
-789.06250	6.42143	-1.74885	-11.72793	-2.86027
-785.15625	4.58787	4.17389	-5.68407	2.22293
-781.25000	0.85364	6.50917	-0.44600	6.54801
-777.34375	7.57273	3.62448	-0.04305	6.63956
-773.43750	10.82239	-1.41581	-0.04314	7.01750
-769.53125	6.10752	-2.95149	-5.28134	6.95229
-765.62500	3.27335	3.60467	-7.69900	3.79868
-761.71875	2.45492	2.64056	-6.49025	-3.95337
-757.81250	6.45533	3.23197	4.79170	-2.74765
-753.90625	-3.09270	-3.04239	5.19451	-3.11877
-750.00000	-8.09877	-9.81432	-6.89340	-4.25120
-746.09375	1.01978	-4.57193	-5.28165	-3.32843
-742.18750	-0.00142	-2.38510	3.17981	-3.40320
-738.28125	-7.17046	-6.44118	2.77691	-4.12182
-734.37500	-5.30642	-10.37058	0.76225	-6.60838
-730.46875	-8.84890	-10.66072	-4.47592	-6.27876
-726.56250	-6.24978	-15.92979	-18.17562	-1.85259
-722.65625	-0.45340	-15.41328	-12.93755	-1.86068
-718.75000	1.40712	-10.47773	2.77667	-1.48273
-714.84375	4.60619	-8.49018	-0.44681	-0.22240
-710.93750	-3.43995	-11.94497	3.98550	2.85817
-707.03125	-4.48434	-7.50848	9.22361	4.57653
-703.12500	-2.11448	-7.83291	-3.67028	-3.34470
-699.21875	-3.61428	-11.28615	-9.31135	-1.24696
-695.31250	2.90185	-10.69493	-8.90838	-1.67952
-691.40625	-1.17785	-8.03339	-8.90846	-6.27751
-687.50000	-1.79801	-5.90965	-7.29679	-2.19861
-683.59375	6.70162	-3.41526	-0.44709	3.43289
-679.68750	8.44468	3.63305	8.41730	8.30053
-675.78125	-1.51782	5.58336	5.59680	2.73397
-671.87500	-21.43469	-4.97585	-0.85016	-12.35075
-667.96875	-20.81324	-3.08276	-2.05898	-13.74423
-664.06250	-18.33535	3.88400	-1.25308	-9.73178
-660.15625	-30.45864	-4.79580	-0.04429	-24.78996
-656.25000	-27.95063	7.30965	2.37326	-29.27181
-652.34375	-31.19427	9.71321	-1.25310	-25.85454
-648.43750	-49.09849	-6.28950	-7.70007	-45.40076
-644.53125	-69.98892	3.18483	-9.31195	-64.59945
-640.62500	-73.93869	7.75773	-5.28263	-74.70311
-636.71875	-71.10920	13.02525	-4.47673	-86.79620
-632.81250	-84.86765	12.66026	-6.89429	-92.33287
-628.90625	-100.81594	4.20500	-5.68551	-104.45092
-625.00000	-116.45225	10.60252	-8.90896	-124.91373
-621.09375	-116.71474	14.70804	-6.08844	-126.50555
-617.18750	-110.79430	11.85834	-3.67080	-123.47826
-613.28125	-134.51312	10.30942	-6.08838	-136.84953
-609.37500	-144.19191	9.85669	-4.07384	-144.18483
-605.46875	-141.63985	10.41903	-6.49147	-147.97530
-601.56250	-143.03563	5.98838	-9.31202	-151.56689
-597.65625	-142.11310	3.81689	-14.95297	-153.79700
-593.75000	-146.68498	7.89777	-14.55002	-156.18556
-589.84375	-140.19693	7.03075	-12.93821	-153.34991
-585.93750	-131.89096	5.85357	-11.72939	-146.29030
-582.03125	-126.27919	7.39203	-6.89422	-140.19751
-578.12500	-121.49112	15.09964	-2.86489	-134.61049
-574.21875	-112.91153	13.48339	-0.44723	-127.37412
-570.31250	-102.98558	6.19432	-4.07364	-115.45460
-566.40625	-90.87790	5.76425	0.35857	-102.14927
-562.50000	-78.10953	11.26756	9.62598	-93.59094
-558.59375	-63.37415	11.06331	10.02893	-77.57438
-554.68750	-50.49979	6.11543	5.99962	-58.06660
-550.78125	-34.61928	2.10173	-0.04426	-47.04559
-546.87500	-23.08292	-1.13711	1.56754	-31.69147
-542.96875	-15.43682	4.72508	4.79104	-16.16769
-539.06250	-7.59350	6.62554	6.40275	-5.62560
-535.15625	-11.80376	-2.51847	1.16471	-6.67932
-531.25000	-0.41366	-3.23977	-4.47625	1.48661
-527.34375	23.08720	2.87051	0.76181	11.87139
-523.43750	30.71686	4.28657	-2.05878	16.73173
-519.53125	33.82017	3.40673	-2.05881	36.54058
-515.62500	33.02818	1.28506	3.58222	39.69433
-511.71875	41.50257	-5.00142	1.16466	38.58210
-507.81250	54.42547	-1.56144	-0.44701	54.70251
-503.90625	50.27408	2.70036	10.83502	61.11767
-500.00000	48.83353	-3.01638	7.20865	62.25024
-496.09375	53.01184	-7.45070	-3.67048	61.73055
-492.18750	51.21265	-9.63543	-2.46161	61.40248
-488.28125	54.75541	-9.20351	-2.05869	60.91243
-484.37500	58.12972	-6.88361	4.38819	56.95215
-480.46875	54.01659	-7.39725	6.80585	57.83130
-476.56250	55.04387	-5.75234	4.79126	62.26957
-472.65625	58.91783	-9.49003	5.59712	63.08344
-468.75000	63.90720	-14.82632	6.80587	62.70547
-464.84375	56.67903	-8.75298	6.40285	62.65403
-460.93750	55.86069	-9.72816	1.97066	59.97631
-457.03125	62.54603	-11.74479	2.37355	59.46671
-453.12500	58.16158	-12.22406	1.97066	58.52337
-449.21875	53.61746	-12.39494	-4.87916	54.41079
-445.31250	55.15985	-10.56623	-1.65566	50.41105
-441.40625	49.56914	-11.61377	3.17958	50.57665
-437.50000	47.36868	-10.91481	10.02948	59.79425
-433.59375	58.61258	-9.37771	13.25294	57.38605
-429.68750	61.70466	-6.35049	5.19429	53.72699
-425.78125	52.72926	-4.26925	1.16505	54.45803
-421.87500	48.06715	-0.55758	1.97107	51.81346
-417.96875	44.62479	-0.03090	1.56822	48.77431
-414.06250	48.19053	-9.81596	2.77711	43.14973
-410.15625	47.41962	-12.01301	0.35956	41.68732
-406.25000	40.47897	-9.20781	1.16548	42.94526
-402.34375	37.27551	-9.99738	11.64183	41.54237
-398.43750	34.22699	-12.52725	7.20978	39.32994
-394.53125	28.12062	-11.52323	-1.25167	35.96404
-390.62500	29.65239	-8.43828	-0.84869	36.39694
-386.71875	28.83729	-10.88302	0.36021	38.41630
-382.81250	27.68699	-8.09820	3.98670	35.89406
-378.90625	33.56170	-8.90813	2.77796	37.53551
-375.00000	35.90092	-3.21559	4.38972	37.44843
-371.09375	30.92510	4.76892	9.22499	34.60780
-367.18750	34.27186	-1.24365	14.46319	35.20667
-363.28125	38.24705	-4.93063	6.80757	34.87811
-359.37500	33.01738	-8.50503	3.58416	33.34881
-355.46875	31.67400	-1.40959	11.23994	32.30397
-351.56250	20.17620	1.41163	2.77852	28.64281
-347.65625	13.61281	-6.48793	-2.45950	24.82901
-343.75000	17.37898	-6.53727	-3.26534	24.39712
-339.84375	20.96427	-8.48854	-4.07125	28.81424
-335.93750	22.32875	-5.69749	2.37562	27.79868
-332.03125	16.31418	-0.38394	6.80783	17.27370
-328.12500	21.19651	-1.64242	-0.04201	16.52180
-324.21875	22.28739	-1.63568	-8.10071	14.92652
-320.31250	15.18205	-1.19425	4.79304	17.51246
-316.40625	17.98285	-0.35896	8.82233	19.11564
-312.50000	14.07918	-3.44241	-5.28018	20.22775
-308.59375	11.83491	-4.84768	-4.47432	18.71679
-304.68750	19.10729	-6.34448	-0.84800	15.32643
-300.78125	20.15010	-8.77538	1.97253	17.60217
-296.87500	7.80808	-3.11667	2.37546	9.90382
-292.96875	-1.04666	-5.75322	5.59895	9.28863
-289.06250	6.01866	-8.45737	8.41946	12.84923
-285.15625	13.45251	-8.57856	5.19600	15.11191
-281.25000	14.95634	-8.25799	0.36081	14.19883
-277.34375	15.63153	-5.50171	-2.45970	7.03752
-273.43750	12.03131	-6.10983	8.01650	6.60949
-269.53125	9.33105	-8.85423	3.58424	14.60285
-265.62500	12.54070	-9.55079	-10.92121	13.46377
-261.71875	10.51341	-7.69438	-3.66843	8.12926
-257.81250	12.09604	-6.70001	-0.84794	6.51433
-253.90625	2.95085	-7.33338	-1.25084	9.36662
-250.00000	2.77971	-10.47892	-2.45964	11.86051
-246.09375	4.64552	-15.71274	-11.32414	5.12743
-242.18750	-11.28405	-15.94343	-14.54755	-3.00605
-238.28125	-6.36523	-10.32922	-3.66841	2.31913
-234.37500	10.00410	-4.58832	0.76380	5.87630
-230.46875	10.89363	-7.69903	-4.47435	6.60864
-226.56250	7.85146	-15.38577	-2.45972	11.43749
-222.65625	7.60359	-13.25763	-6.89190	8.60871
-218.75000	3.01694	-5.90455	-6.89178	6.16589
-214.84375	3.79805	-4.72298	-2.05654	9.84338
-210.93750	7.03367	-8.17799	-3.66810	13.72932
-207.03125	15.25622	-8.97969	-0.04153	10.20904
-203.12500	13.19332	-5.27482	0.76442	3.89901
-199.21875	13.30455	-2.68419	0.76452	8.01085
-195.31250	21.02878	-4.91356	2.37634	11.60684
-191.40625	11.30730	-5.47557	-1.65294	7.81401
-187.50000	6.25410	-3.35192	-2.05587	4.23639
-183.59375	4.27668	1.15703	0.76474	3.01720
-179.68750	-0.02509	2.56417	-0.84702	5.06348
-175.78125	0.89067	2.49973	-2.05573	2.31664
-171.87500	3.53715	2.41673	-2.45850	3.75120
-167.96875	7.38135	-1.33114	-2.45843	12.02734
-164.06250	6.63505	-3.63182	-4.07016	13.21847
-160.15625	5.79304	2.19377	-6.89059	7.42700
-156.25000	6.68865	4.22595	-3.26410	4.55618
-152.34375	0.62371	-3.84674	-0.84648	1.12286
-148.43750	-1.96985	-2.92642	1.97413	-1.09803
-144.53125	1.31496	0.10106	0.36244	1.46097
-140.62500	2.19988	0.64459	-3.26385	1.42996
-136.71875	9.46103	5.50910	-0.84621	3.03594
-132.81250	3.35796	4.33812	-5.27827	3.13978
-128.90625	10.37645	3.13553	-9.71047	3.10918
-125.00000	9.64837	2.28024	-6.08409	7.62774
-121.09375	-11.96971	3.56524	-4.87520	3.21498
-117.18750	-7.25822	-1.29918	-0.44282	5.03321
-113.28125	-1.56319	-6.07163	1.16898	5.36147
-109.37500	5.27812	-2.09220	-0.84560	3.66715
-105.46875	9.03898	-1.12691	-0.84557	6.72650
-101.56250	-0.01257	-1.52843	-6.48654	3.94070
-97.65625	3.32757	-1.68538	-7.29236	2.51644
-93.75000	0.36756	-0.02222	-0.84544	-3.49838
-89.84375	-5.23207	1.12539	-3.66582	-4.69188
-85.93750	-3.77580	-2.46946	-7.69505	0.75617
-82.03125	-7.02835	-1.33396	-7.29204	-2.41827
-78.12500	-4.65762	-6.52016	-2.85976	-5.69540
-74.21875	-6.15101	-8.94222	-6.88902	-9.33792
-70.31250	-0.65706	-6.96387	-4.47142	-4.67081
-66.40625	0.57184	-9.40857	-0.84506	0.97908
-62.50000	-1.97091	-9.14338	-6.08315	-4.16196
-58.59375	5.10895	-4.10957	-4.87433	-1.84468
-54.68750	-0.55129	-1.80469	-9.70946	2.35198
-50.78125	-11.66690	-7.83309	-21.39440	-3.14680
-46.87500	-6.57715	-7.84851	-26.63244	-7.93888
-42.96875	-1.34834	-6.82143	-15.75326	-6.51734
-39.06250	-4.78673	-9.35322	-4.87413	-6.85415
-35.15625	-12.62299	-10.43859	-4.87415	-11.93685
-31.25000	-12.11164	-8.33942	-8.90346	-6.99408
-27.34375	-7.95117	-5.04962	-8.09758	-6.68227
-23.43750	-8.78272	-6.05117	-1.24766	-13.10364
-19.53125	-5.67910	-8.54279	-1.24763	-9.00876
-15.62500	-7.27669	-9.85878	-5.27692	-6.25770
-11.71875	-13.71057	-13.32477	-8.90332	-8.98135
-7.81250	-0.38442	-13.91403	-9.30622	-3.73976
-3.90625	1.91133	-16.90494	-8.50023	-1.75658
0.00000	-15.24331	-13.75718	-3.66503	-4.25018
3.90625	-14.69121	-7.31240	-2.45620	-7.18719
7.81250	-13.66966	-7.88547	-3.66501	-4.69441
11.71875	-4.88858	-6.24484	0.76726	-4.37836
15.62500	3.72402	-11.58072	-2.05319	-2.69738
19.53125	-7.64153	-12.09424	-5.27642	-5.04133
23.43750	-9.43449	-2.79367	-6.08220	-11.48181
27.34375	-10.79823	1.12424	-3.26152	-9.05591
31.25000	-13.06148	1.02598	2.37956	-7.01604
35.15625	-4.97822	-7.80916	-7.29073	-9.88792
39.06250	-9.01983	-8.78442	-12.52885	-8.53603
42.96875	-5.96062	-1.13079	-5.67907	-7.03079
46.87500	-5.10678	-2.41595	-5.27606	-10.79445
50.78125	-3.20383	-5.81032	-4.87305	-8.86278
54.68750	3.57705	-6.39930	-4.46994	-3.99772
58.59375	-2.01342	1.41750	0.76823	-5.04057
62.50000	-0.58713	5.33995	0.76831	-5.49297
66.40625	-7.47467	-1.18138	-6.48434	-2.66270
70.31250	-5.59105	-1.37765	-2.45502	4.55765
74.21875	-2.07511	0.70358	1.97729	6.49789
78.12500	-3.11037	5.62403	2.38028	-0.98133
82.03125	1.10348	10.98587	1.97749	-5.22870
85.93750	5.87858	6.84179	3.99223	-1.58530
89.84375	9.94352	1.01828	1.57468	0.98213
93.75000	4.21224	5.43514	-2.05166	-1.38573
97.65625	2.21802	9.07771	0.76895	-0.37059
101.56250	6.01991	4.93609	-0.03682	1.44677
105.46875	5.95806	3.11954	4.39548	4.52831
109.37500	10.71380	3.38392	7.21611	7.78229
113.28125	21.98704	10.20645	4.79854	11.01102
117.18750	17.21081	15.00594	5.20146	12.11554
121.09375	4.14813	11.37543	2.78397	8.92232
125.00000	5.68186	6.99470	-0.84240	0.37412
128.90625	4.33281	2.89130	1.57525	0.35430
132.81250	2.84466	7.35492	1.97830	3.37100
136.71875	5.20833	7.69725	3.99299	7.87787
140.62500	5.21677	7.34631	8.82814	10.37799
144.53125	4.27648	9.60663	10.03699	3.69220
148.43750	1.64314	7.59256	13.66331	4.86629
152.34375	2.73542	13.39256	1.97839	5.88759
156.25000	-1.55713	14.14902	-3.25966	6.66448
160.15625	-3.20998	10.58592	0.36672	5.84348
164.06250	5.81023	6.52712	3.99318	6.43962
167.96875	7.85424	3.37911	3.99321	9.21123
171.87500	1.85730	8.16444	-4.46832	2.41542
175.78125	0.12768	8.97679	-1.24481	3.23765
179.68750	6.72198	5.79179	-0.03586	5.82364
183.59375	9.52270	8.64149	0.36711	1.78573
187.50000	10.85713	5.96084	1.17301	15.38864
191.40625	9.82150	10.59940	2.78481	17.10103
195.31250	-4.26148	13.13175	1.17310	-4.42134
199.21875	-4.42748	12.71540	-4.06497	-7.38381
203.12500	2.57114	9.50949	-2.45321	-2.18846
207.03125	13.05712	6.06701	-4.87080	5.25495
210.93750	8.84034	13.83899	-2.45321	0.75697
214.84375	-6.28992	18.14988	1.57612	2.21377
218.75000	-5.99481	13.63518	3.18788	9.76237
222.65625	-0.48449	4.70633	1.97922	-0.21929
226.56250	-2.06992	4.90404	-5.27341	-6.69121
230.46875	-3.56121	9.41229	-3.66153	-0.30942
234.37500	-0.75419	13.95368	-5.67595	4.99870
238.28125	2.45675	14.60120	-4.46699	7.32000
242.18750	11.29230	6.32806	1.57705	6.51114
246.09375	5.37073	10.12683	-4.86975	1.30503
250.00000	-1.24712	17.45725	-8.89905	3.79909
253.90625	7.87144	19.07315	1.57715	6.73643
257.81250	4.02971	13.20127	12.05339	4.24401
261.71875	5.72511	7.93618	4.80068	0.70470
265.62500	5.97723	4.81250	-3.25783	2.65025
269.53125	9.28442	1.70166	-2.85482	1.77099
273.43750	16.31565	4.49097	-6.88399	0.55590
277.34375	8.00926	4.20138	-1.24288	5.78576
281.25000	7.45202	4.30161	6.00998	5.35763
285.15625	2.59227	1.85675	-6.07784	-2.64962
289.06250	-3.43932	-0.38953	-10.10706	-1.98683
292.96875	4.38072	3.64381	1.98094	4.96938
296.87500	7.55623	1.70752	9.23377	9.53882
300.78125	11.29415	0.26881	4.80162	7.60708
304.68750	17.40713	-4.37819	-8.09201	0.72727
308.59375	11.71549	-9.77539	-14.13581	-0.64742
312.50000	5.05105	-2.41373	-10.50935	5.44589
316.40625	-0.95513	0.48341	-1.64483	5.83893
320.31250	0.38469	-2.94466	-2.04771	5.06538
324.21875	2.10695	-1.39745	-2.45055	7.96022
328.12500	3.94809	0.53407	0.77298	4.15735
332.03125	10.61334	-7.64620	1.17600	1.15200
335.93750	9.46457	-10.75282	4.39963	1.94081
339.84375	5.80264	-3.31558	2.78813	-1.83537
343.75000	2.26659	-0.88064	-0.83816	-6.72029
347.65625	-2.99192	-0.49188	2.38535	-2.09447
351.56250	4.08530	3.24885	2.78835	5.35546
355.46875	3.34124	5.47026	-6.07608	3.07967
359.37500	-8.26429	3.19319	-12.92578	1.43728
363.28125	-0.59990	-2.41859	-6.88173	-0.17981
367.18750	2.56458	2.05136	6.01223	-1.68732
371.09375	-0.49006	5.28086	10.04165	2.71461
375.00000	1.60254	7.24602	-0.43440	-2.03401
378.90625	-0.67471	9.33681	-6.88114	-2.41733
382.81250	-4.02178	5.27814	0.37171	-0.19609
386.71875	-3.56494	4.13206	1.98356	0.13217
390.62500	3.27626	2.87333	-2.85151	1.25824
394.53125	7.84272	0.61504	-4.46314	-2.93523
398.43750	2.41727	3.83986	-4.06018	-3.70660
402.34375	-5.12200	2.07109	3.99860	-1.50466
406.25000	-8.08236	1.71953	8.02802	-5.50512
410.15625	0.42021	2.06117	-2.85102	-7.90779
414.06250	2.68203	2.49559	-0.03033	-5.68351
417.96875	-3.39129	7.66040	4.80490	-4.82893
421.87500	-5.45314	6.50355	1.17857	-0.85379
425.78125	-4.52934	2.06682	-1.23884	-3.69075
429.68750	-6.69144	1.22456	6.41693	-6.27677
433.59375	-3.04542	8.45017	6.01419	-3.04477
437.50000	-2.76809	8.31240	-10.50581	-8.99210
441.40625	-7.37356	1.66119	-7.68526	-5.86938
445.31250	-6.58727	-0.46619	-0.43234	-4.89653
449.21875	-7.22705	1.16102	0.77660	-9.18687
453.12500	-6.56986	5.98064	2.79130	-7.53249
457.03125	-0.53550	8.61936	9.64121	-0.06746
460.93750	7.30777	10.11688	6.01502	4.83356
464.84375	-1.73767	3.39046	1.17995	3.37687
468.75000	-9.28533	0.25154	0.37420	0.66364
472.65625	-5.52813	5.55602	-3.25204	0.97521
476.56250	-3.53948	8.18084	-0.83437	-1.41723
480.46875	-5.67441	9.71860	-2.04303	-8.20175
484.37500	1.59214	6.79082	-4.05758	-3.83919
488.28125	6.03713	6.95117	1.98658	-3.33972
492.18750	3.24579	9.18236	1.18083	-3.73943
496.09375	1.91493	4.57979	-7.28053	-0.54771
500.00000	0.47439	8.93638	2.38986	1.79359
503.90625	1.02632	6.51671	2.79286	3.69155
507.81250	-2.38460	-2.11489	-6.47447	3.76654
511.71875	-2.06534	-0.87709	-0.02748	4.08240
515.62500	-2.31744	1.44276	5.21065	6.56898
519.53125	3.64279	2.94381	4.80786	5.03064
523.43750	3.05841	-1.85816	3.59921	-1.81298
527.34375	-3.14078	0.04514	0.77883	-5.02826
531.25000	1.04281	3.97621	-2.84752	-0.97390
535.15625	-1.35023	6.02025	1.58484	1.39225
539.06250	-2.97436	2.62745	8.83772	-3.70293
542.96875	-0.31819	-3.01557	6.42023	-7.43596
546.87500	-5.91139	-0.67435	-1.23527	-5.15578
550.78125	-4.81444	-5.27744	-4.86158	-2.82134
554.68750	0.35448	-8.68700	-8.89083	0.83471
558.59375	-3.62448	-7.31698	-7.68197	4.62677
562.50000	0.21914	-3.79745	7.22657	5.38300
566.40625	2.19574	3.78368	9.24128	3.37790
570.31250	-1.15892	2.78148	5.61499	6.16593
574.21875	-1.67254	-1.58424	0.77999	4.07666
578.12500	4.14172	-6.73712	1.98888	0.22366
582.03125	7.54958	-6.61344	9.24172	-0.80044
585.93750	-4.19559	-4.71358	2.79492	-3.60411
589.84375	-9.39823	-7.31366	-5.26358	-4.66327
593.75000	-2.23590	-4.91145	-3.24883	-4.61374
597.65625	-4.63311	-6.10405	-3.24873	-6.01630
601.56250	-6.47246	-9.84281	-2.03987	-1.37854
605.46875	-8.14610	-5.21236	8.43645	0.89702
609.37500	-7.41971	-3.73913	1.98974	-3.90776
613.28125	-0.57883	-3.76631	-6.47168	-5.91729
617.18750	-3.34064	-6.62250	1.98995	-8.03636
621.09375	-3.10665	-8.23831	3.19875	-5.18584
625.00000	10.11193	-2.14289	8.43690	3.18890
628.90625	3.12154	3.82699	12.46629	5.58659
632.81250	-6.42543	0.63492	11.25766	2.96217
636.71875	-2.85311	1.78307	5.61671	1.02194
640.62500	-3.65055	3.44687	-8.48573	-8.96891
644.53125	-4.99375	-1.14262	-8.88853	-10.01368
648.43750	-7.62708	3.69321	-2.84438	-1.18385
652.34375	-7.34081	0.22588	2.39388	-5.80359
656.25000	-2.36608	-1.83817	5.61742	-4.22086
660.15625	-2.00441	5.07492	-2.84405	-0.20667
664.06250	3.38933	2.22491	0.37950	-5.25161
667.96875	6.23907	7.53839	8.43817	-3.28583
671.87500	-0.56373	11.51780	5.61775	5.63266
675.78125	-5.11395	6.68925	-2.44075	-1.20082
679.68750	-1.74320	5.92185	0.37991	-1.43538
683.59375	-1.76313	4.74230	10.05042	6.61452
687.50000	2.39172	4.47923	6.02125	4.50307
691.40625	6.59420	4.28271	1.99206	2.18609
695.31250	0.16667	5.20334	6.42437	-2.81628
699.21875	-1.20842	6.39870	1.58934	-4.16710
703.12500	3.77541	8.83380	0.78361	2.63988
707.03125	2.57611	7.80884	4.40999	5.65087
710.93750	9.64107	6.71636	6.42464	1.15265
714.84375	7.80729	11.02727	4.00719	-2.62883
718.75000	-2.77708	5.30386	1.18675	0.89011
722.65625	0.71838	0.80735	2.39566	1.38433
726.56250	5.57958	3.42266	12.06614	3.37374
730.46875	4.49086	1.88695	12.87215	8.54650
734.37500	2.05940	6.83120	3.60484	7.40729
738.28125	2.85245	10.70208	8.84303	8.51940
742.18750	4.03200	1.62311	5.61978	6.09848
746.09375	1.33352	-9.48655	6.02283	0.08619
750.00000	10.42972	-4.97663	6.02288	8.22090
753.90625	16.32475	7.11543	1.59072	7.93455
757.81250	6.03602	10.10812	-0.42386	1.41267
761.71875	1.68740	10.88713	0.38210	5.12605
765.62500	-0.07513	11.38985	8.03794	5.45989
769.53125	-0.39438	10.29367	11.26156	0.95414
773.43750	5.42806	12.27713	18.11153	6.18603
777.34375	8.00088	13.59921	11.26189	5.37193
781.25000	6.23483	6.44668	0.38287	1.72043
785.15625	11.04538	-0.83348	5.21807	7.81572
789.06250	10.25190	11.02283	5.21812	5.65795
792.96875	6.38684	23.92065	-0.42280	4.95851
796.87500	4.72721	16.74618	-0.01980	5.09580
800.78125	2.01833	7.65162	-0.82562	0.74660
804.68750	-1.94189	5.01912	5.62143	-1.29794
808.59375	2.43993	5.26294	6.42748	-1.86672
812.50000	25.59244	-2.28384	-8.07784	9.46481
816.40625	7.49840	-11.07173	1.59265	11.87271
820.31250	-28.63422	-17.32040	14.08363	-9.45028
824.21875	-14.01810	-21.81728	4.41334	-8.57003
828.12500	-19.83254	-22.70643	0.78704	-9.95523
832.03125	-30.09033	-24.03695	-2.83924	-20.61625
835.93750	-16.33061	-21.09973	-4.85371	-15.39506
839.84375	-18.78378	-24.54175	-3.64478	-11.91857
843.75000	-14.66426	-18.88339	0.38456	-11.56548
847.65625	-13.07306	-11.64491	1.19047	-13.78955
851.56250	-17.68095	-15.15703	-4.04750	-4.72805
855.46875	-17.61931	-12.12973	-6.46489	-2.57175
859.37500	-12.70492	-17.63031	1.19088	-7.43766
863.28125	-3.42896	-19.61582	4.81737	-5.42855
867.18750	-7.92023	-10.71369	-5.25572	-6.93631
871.09375	-3.72239	-9.90178	-12.10532	-6.16115
875.00000	4.01093	-11.96598	-6.46406	-2.85156
878.90625	-6.32529	-13.50163	-2.43460	-5.24994
882.81250	-7.65807	-12.32231	-6.06085	-1.82039
886.71875	-6.79877	-11.45392	-6.06068	-1.89561
890.62500	-1.16681	-7.07177	-4.04586	-3.59050
894.53125	-5.06247	-6.50977	-3.64268	-1.33774
898.43750	-7.66804	-12.95547	-5.65706	-2.51267
902.34375	-1.10517	-10.69497	-7.67151	-6.35518
906.25000	-2.45413	-4.19668	3.20775	-3.10340
910.15625	-2.41354	-5.46684	4.01383	1.74627
914.06250	-6.59906	-14.29982	-3.64167	-2.07395
917.96875	-10.65819	-16.38793	-4.85029	-6.45806
921.87500	-5.87064	-5.85989	-2.83548	-0.06575
925.78125	1.09666	-2.64110	4.41755	-2.09736
929.68750	-1.87173	-4.69224	2.40312	-3.87794
933.59375	4.99741	-8.74884	2.80616	3.78575
937.50000	4.46851	-9.28977	4.41796	-1.75910
941.40625	-2.55487	-1.43561	2.40348	-4.27781
945.31250	-5.39509	-4.36886	12.47688	-0.88767
949.21875	-5.63202	-8.38272	10.86533	3.68617
953.12500	8.32160	-8.80122	2.00105	4.53447
957.03125	2.26777	-6.16253	2.00120	1.52319
960.93750	-8.82683	-7.88851	-2.83382	3.60353
964.84375	-4.97862	-13.00331	-0.81896	5.77315
968.75000	-1.24436	-13.32184	10.86622	6.68621
972.65625	2.10988	-15.67315	9.65752	4.17715
976.56250	1.68090	-10.22784	5.22537	2.18760
980.46875	-0.05092	-5.86963	7.24019	3.05874
984.37500	-1.64866	-0.33580	9.65780	6.21259
988.28125	8.03452	4.25687	10.46376	7.11515
992.18750	6.04912	-1.16759	9.65806	5.50685
996.09375	-2.93733	3.49712	7.64354	6.28112
1000.00000	-6.39233	4.63015	-10.89119	3.78741
1003.90625	-7.45202	0.59868	-6.86183	-1.16426
1007.81250	-2.80416	-0.37729	8.85258	-1.89507
1011.71875	3.15636	-2.36311	5.62921	4.86778
1015.62500	1.29271	3.98597	-0.01175	4.13103
1019.53125	-0.80554	9.51625	0.79417	5.01050
1023.43750	-2.59857	9.14648	8.04702	9.85204
1027.34375	1.27567	7.82628	16.10568	9.45742
1031.25000	6.66812	7.72800	2.80900	5.85624
1035.15625	1.45466	10.98070	-6.86129	3.38736
1039.06250	-0.97520	10.40837	2.40617	3.12746
1042.96875	4.90459	5.16818	4.01802	-1.00830
1046.87500	10.99651	4.68880	6.03282	-1.95138
1050.78125	9.67597	6.12959	6.03290	0.78613
1054.68750	4.77176	7.55514	0.79486	6.45702
1058.59375	-1.62447	10.53677	2.00381	4.20537
1062.50000	-0.19818	11.63857	1.19801	3.35011
1066.40625	-2.65356	5.92281	0.39225	0.94223
1070.31250	-0.36692	7.33810	4.42166	2.11865
1074.21875	6.37244	12.23967	4.42171	8.08820
1078.12500	5.33700	10.71305	8.45106	3.83244
1082.03125	5.92437	11.23956	8.45115	-0.41505
1085.93750	3.04381	4.67772	2.81027	5.24298
1089.84375	2.67636	6.50976	-0.41301	7.81042
1093.75000	6.21237	11.73231	-3.23336	3.42789
1097.65625	4.62107	9.33082	6.43699	-2.00383
1101.56250	-0.44160	6.39794	10.86933	-3.81278
1105.46875	1.91413	2.96969	4.82549	0.47756
1109.37500	-0.98575	6.45747	-0.00950	-0.29782
1113.28125	-0.99462	0.38624	5.63162	6.15426
1117.18750	4.70532	1.15635	7.64639	5.24409
1121.09375	6.55113	12.43433	4.42304	1.24497
1125.00000	6.47317	13.69457	4.82606	4.78471
1128.90625	-0.51691	15.63511	-0.81485	1.94446
1132.81250	8.06813	19.69571	-0.81470	2.54359
1136.71875	9.22297	21.64957	3.21475	5.43868
1140.62500	4.39633	12.83696	4.82665	3.90951
1144.53125	3.05318	7.84440	3.21504	-2.37325
1148.43750	-1.19177	9.85959	5.63284	-4.42245
1152.34375	-4.12877	4.78047	4.42427	-2.19216
1156.25000	-3.18317	3.52218	12.48310	-0.20630
1160.15625	2.01388	8.42056	15.30382	0.98762
1164.06250	5.39319	13.22610	-1.61923	-1.63956
1167.96875	10.66075	12.49550	-6.45429	0.72947
1171.87500	3.45532	8.01336	-1.61894	3.60425
1175.78125	-5.92985	7.21400	-0.00698	0.39750
1179.68750	3.88816	7.25240	7.24592	-1.85136
1183.59375	8.30096	8.89323	8.45484	-5.48592
1187.50000	-0.03481	6.61548	5.63448	0.46167
1191.40625	3.36215	7.22481	0.79947	9.02428
1195.31250	6.20248	6.93665	-4.03556	4.02235
1199.21875	-2.02202	6.92306	-2.42367	-1.76031
1203.12500	4.17100	13.38723	4.82921	3.83824
1207.03125	7.80752	10.75036	4.42635	7.65551
1210.93750	9.23199	10.46352	-2.02046	1.54594
1214.84375	6.18975	7.92447	0.39721	0.98822
1218.75000	6.08203	0.18620	-0.81152	9.74566
1222.65625	12.39829	5.35982	3.21792	13.46373
1226.56250	2.75421	9.98958	8.85907	2.15672
1230.46875	4.88924	12.48303	1.20341	-2.74352
1234.37500	14.94880	8.56275	-3.22868	0.95265
1238.28125	5.66868	8.80711	1.20369	1.66213
1242.18750	-0.00147	14.63638	1.60677	2.46482
1246.09375	8.17931	10.77926	2.41275	0.48190
1250.00000	6.39641	8.03640	-2.01937	-1.05364
1253.90625	2.62103	3.20527	-2.82510	-0.13110
1257.81250	6.43486	1.36259	5.23360	1.80849
1261.71875	7.72714	5.76786	2.81617	7.53655
1265.62500	5.96452	3.45000	-1.61592	8.27324
1269.53125	15.31563	0.74213	-6.45093	5.78211
1273.43750	13.88528	0.71086	-7.25666	1.74640
1277.34375	2.35534	5.25632	3.21958	-0.27655
1281.25000	-1.82844	7.77409	7.24906	2.11578
1285.15625	-3.06199	3.71748	3.21985	1.76403
1289.06250	5.81470	-0.94634	5.63764	10.08232
1292.96875	6.38171	-2.55409	6.04081	12.20318
1296.87500	-4.94850	1.95650	1.20574	3.87869
1300.78125	-7.25460	1.72654	-2.82340	2.75268
1304.68750	4.49925	1.91466	7.25008	7.15479
1308.59375	9.28368	6.18771	11.68240	13.03262
1312.50000	1.81324	7.50543	-3.62880	7.84370
1316.40625	3.05965	8.38782	-2.82280	1.38689
1320.31250	4.80221	1.33333	2.01255	6.65719
1324.21875	1.68911	-4.77522	0.80387	11.16362
1328.12500	-4.93138	-6.87320	-2.82244	3.33139
1332.03125	-7.53361	-2.96565	2.81875	0.32592
1335.93750	-2.23571	3.19503	11.68338	2.72639
1339.84375	0.95208	1.76773	11.28067	1.77052
1343.75000	3.45993	0.17345	7.65444	4.94417
1347.65625	7.46869	-0.64668	4.43115	8.36111
1351.56250	12.12821	-3.75579	4.02842	5.73759
1355.46875	13.39870	-4.75790	2.01397	3.86465
1359.37500	10.65745	-1.39402	-2.82106	5.04268
1363.28125	-1.01897	2.26145	-0.80626	5.84302
1367.18750	-4.30144	-1.32729	4.43200	6.35005
1371.09375	4.73178	3.51390	1.61164	6.31960
1375.00000	6.01842	9.91125	6.04407	9.22657
1378.90625	0.92056	5.95800	5.64135	10.45499
1382.81250	1.60280	3.91393	-0.80533	6.63223
1386.71875	-0.76091	2.76777	-4.83444	4.13985
1390.62500	2.45395	7.55293	-6.84895	6.87765
1394.53125	7.82635	6.10032	3.62740	1.87823
1398.43750	-8.47819	-1.95703	8.86563	0.70390
1402.34375	-7.15298	-4.93467	3.22470	4.11460
1406.25000	-0.03998	-3.27170	-2.81908	-3.10940
1410.15625	-4.83408	2.30793	-1.20715	-2.28859
1414.06250	-0.15473	5.96569	2.82229	10.41187
1417.96875	-1.79597	5.48926	-5.63913	1.19315
1421.87500	-2.24622	1.10873	-8.45945	-4.09908
1425.78125	-3.33713	5.13331	-5.63872	3.13719
1429.68750	2.96232	7.51429	1.21135	6.99802
1433.59375	11.04055	5.47234	6.85266	9.82703
1437.50000	-1.97885	8.15495	3.22639	5.49147
1441.40625	-3.76380	6.74167	4.83828	3.77900
1445.31250	-7.40966	7.03169	5.24136	3.14016
1449.21875	-9.66111	5.43536	-7.65224	4.89369
1453.12500	2.27803	0.98751	-12.48717	4.53347
1457.03125	1.05954	3.22316	-3.62249	0.31361
1460.93750	-6.00564	0.69125	3.63034	-2.03816
1464.84375	-0.54561	0.81454	3.63045	-5.50967
1468.75000	3.59166	3.31643	-2.81629	-9.83461
1472.65625	-3.93319	-3.06423	-4.42786	-10.73194
1476.56250	-6.77989	-4.06586	-2.01018	-8.28924
1480.46875	-0.85632	4.72456	2.82521	-9.83572
1484.37500	4.79848	6.63200	0.81074	-10.71133
1488.28125	0.78180	1.55421	-5.23302	-0.54165
1492.18750	0.00494	1.77067	-2.81523	4.29675
1496.09375	-1.32602	6.83830	1.21428	-3.79364
1500.00000	-1.55790	6.35958	4.84087	-5.48175
1503.90625	4.23194	5.55150	4.84102	-6.40436
1507.81250	3.64142	15.45462	1.21470	-0.28552
1511.71875	1.94601	21.93042	1.61780	4.46242
1515.62500	-5.96181	11.75933	9.67664	0.50209
1519.53125	-7.25450	11.64862	7.66218	-0.23047
1523.43750	-2.60081	16.51695	-6.44018	-3.04491
1527.34375	-4.36780	6.73517	-8.45463	-4.24565
1531.25000	-4.21367	6.23386	-3.21637	-0.19143
1535.15625	-7.41279	5.86016	-1.60449	1.77159
1539.06250	-9.44003	0.45265	-0.79841	-2.51795
1542.96875	5.30383	2.86811	5.64871	-4.63936
1546.87500	2.93403	4.80613	7.66354	-2.76219
1550.78125	-6.84816	3.42617	-2.00663	-2.84540
1554.68750	-1.67936	0.01649	-9.25919	-3.21875
1558.59375	3.20609	7.43022	-2.00624	-1.84437
1562.50000	7.85547	10.14365	6.45555	5.35864
1566.40625	12.24954	4.42790	0.00894	4.96510
1570.31250	7.68592	1.00794	-8.04946	4.52954
1574.21875	-3.70708	2.28305	1.62118	12.91631
1578.12500	-3.13107	5.18858	4.44199	7.04838
1582.03125	1.48536	2.89446	-1.19878	1.99477
1585.93750	-0.58987	3.98819	-3.61627	5.63770
1589.84375	3.87739	4.20834	-6.03374	8.60762
1593.75000	5.39841	1.77511	-0.39252	8.25399
1597.65625	-4.65486	6.22329	6.45741	0.00133
1601.56250	-0.04762	5.70773	4.04005	-3.41978
1605.46875	3.51645	4.29386	0.41388	-3.15912
1609.37500	5.04824	8.18432	7.66686	-2.32316
1613.28125	15.11226	9.36562	12.90522	1.71108
1617.18750	4.69450	5.30029	6.45858	2.81528
1621.09375	2.10761	2.87839	-2.80861	1.23343
1625.00000	12.10257	4.94431	-3.21136	1.95231
1628.90625	9.54428	6.07868	-2.80832	5.55865
1632.81250	4.42935	1.27458	-2.40523	4.94875
1636.71875	1.95746	-4.83035	2.83307	4.62013
1640.62500	3.98034	-0.34637	2.02749	2.28485
1644.53125	4.24855	7.15175	7.66865	4.06032
1648.43750	5.24134	6.34630	2.83364	9.26347
1652.34375	8.34802	6.10222	-3.21016	3.43473
1656.25000	1.23463	7.66428	-2.40414	-6.26480
1660.15625	-3.23903	5.71273	-4.41857	-5.47426
1664.06250	4.57217	2.45957	-2.00077	-4.07248
1667.96875	7.82475	2.53471	-3.61228	-2.10695
1671.87500	4.64818	6.51403	1.22299	4.79663
1675.78125	0.90364	2.49114	7.67004	3.20113
1679.68750	6.69181	0.91766	4.44676	2.56344
1683.59375	11.90984	1.75256	-3.20867	6.58389
1687.50000	2.76780	3.90693	-8.44649	6.08409
1691.40625	4.55256	11.36589	-8.84916	4.17000
1695.31250	14.24223	10.67467	-1.99916	5.61454
1699.21875	10.44949	9.85519	4.44790	3.86075
1703.12500	-3.10163	-0.20078	4.85107	0.99724
1707.03125	-0.67455	1.59455	6.46301	2.39634
1710.93750	5.58444	10.97805	7.26913	5.55367
1714.84375	0.52706	4.40964	8.07522	3.38381
1718.75000	-3.20756	8.35628	3.24034	2.87339
1722.65625	-6.15914	10.30644	-11.26487	-1.06477
1726.56250	-3.71572	10.90687	-11.66753	-7.93995
1730.46875	4.86579	12.59441	-6.83215	4.88828
1734.37500	3.24008	11.09165	-3.20555	12.21054
1738.28125	3.22712	13.35068	5.25616	7.68157
1742.18750	12.86819	11.52420	13.31506	4.45470
1746.09375	11.78137	7.26412	13.71818	0.45698
1750.00000	3.55149	5.72988	4.45101	6.57700
1753.90625	2.99941	11.77777	-5.62200	8.30532
1757.81250	0.36624	12.35263	-0.38367	8.63317
1761.71875	4.07609	5.87868	1.63125	7.10832
1765.62500	-0.90997	8.39589	1.63147	4.62153
1769.53125	1.59125	6.09079	0.82583	9.38318
1773.43750	9.42829	6.05944	1.63191	8.97391
1777.34375	2.73355	10.20190	5.25850	8.15981
1781.25000	3.78789	11.10775	-0.38227	4.10528
1785.15625	5.37497	14.30372	0.42384	4.55950
1789.06250	11.43123	14.07195	-1.59048	12.87796
1792.96875	6.35728	9.64363	-7.23119	4.11985
1796.87500	-6.98738	-1.15731	-5.61925	-5.81612
1800.78125	-0.83179	1.43296	-6.82778	0.31085
1804.68750	2.05768	12.90295	0.02235	5.11615
1808.59375	-0.41033	16.77299	7.67827	3.33858
1812.50000	9.04258	14.46422	0.02290	2.17926
1816.40625	7.87169	9.70553	-4.00623	-2.26269
1820.31250	-2.07047	8.69490	-6.82650	-4.64791
1824.21875	4.08402	10.64491	-1.58817	-4.17058
1828.12500	2.70184	12.97915	2.84432	-3.94407
1832.03125	0.90563	13.26024	-3.60233	1.10927
1835.93750	13.05366	7.73584	1.23307	-1.32539
1839.84375	8.98876	4.29386	8.48606	0.13654
1843.75000	-6.63515	9.54930	-0.78106	0.48979
1847.65625	-4.23792	12.35556	-9.24230	-5.36052
1851.56250	5.25699	10.05218	-4.80980	0.47774
1855.46875	-3.94859	5.42366	-8.83889	-5.82728
1859.37500	-9.10716	9.19049	-5.21231	-11.90176
1863.28125	1.37789	13.65186	4.86117	-2.23670
1867.18750	-3.51603	13.68959	4.45854	0.68804
1871.09375	-7.37634	8.45745	-1.98811	-0.55099
1875.00000	4.78961	7.19909	-3.59964	1.55029
1878.90625	14.60029	12.91610	1.63862	7.21107
1882.81250	-0.83460	8.45433	0.43003	-1.44671
1886.71875	-14.88314	6.90509	-5.21072	-16.83268
1890.62500	-6.43002	7.66088	-8.03105	-9.25959
1894.53125	-7.10150	7.01409	-4.80732	-5.79731
1898.43750	-13.33268	10.64168	7.28089	-12.61244
1902.34375	-5.15758	10.08153	7.68397	-7.99281
1906.25000	-3.68559	8.52107	6.47534	3.31819
1910.15625	-0.42108	4.02734	5.26667	8.16841
1914.06250	2.24360	0.02938	-0.77713	3.54288
1917.96875	-11.88835	-4.07347	2.44652	0.36825
1921.87500	-9.51791	-6.03648	7.68485	-1.70039
1925.78125	1.47922	4.03204	5.26750	1.90959
1929.68750	4.15232	7.62180	1.64132	7.78519
1933.59375	3.76909	0.74465	-0.37318	0.94383
1937.50000	-2.80341	2.62129	-0.37297	-7.01818
1941.40625	7.90245	8.05777	2.04481	-1.47790
1945.31250	10.70349	7.94485	-4.80485	4.33018
1949.21875	3.61695	7.55724	-3.99878	4.06925
1953.12500	4.67703	4.31814	-2.78974	0.48570
1957.03125	-1.37651	-2.31075	-0.77482	-2.92819
1960.93750	0.42287	4.02164	6.88114	-0.84762
1964.84375	3.06239	3.33892	5.26964	1.32213
1968.75000	-1.66482	-0.60609	-1.98286	-4.21165
1972.65625	-2.74267	1.47467	-3.59432	-2.28827
1976.56250	-2.76843	-0.33294	-3.99707	0.55776
1980.46875	-4.90302	1.60751	-5.60860	-4.61471
1984.37500	-6.90342	1.09723	-0.77326	-5.48984
1988.28125	-2.05506	-0.35421	2.45040	-4.18407
1992.18750	6.03330	0.26509	-2.38448	2.26666
1996.09375	-1.74372	2.51220	3.25675	6.66792
2000.00000	1.24862	1.63062	7.68925	5.78662
2003.90625	5.83058	-1.59495	-6.41301	-3.19368
2007.81250	-6.04107	1.05534	-12.45664	-3.52079
2011.71875	-3.30350	4.71043	-2.38304	1.63100
2015.62500	-3.15200	2.19495	8.89927	-1.52264
2019.53125	-4.84694	1.27830	10.10833	4.19243
2023.43750	-1.40140	-3.92675	2.85586	7.82561
2027.34375	-1.95893	0.79688	3.25897	3.80499
2031.25000	8.26902	10.36882	6.48263	8.26276
2035.15625	3.86165	6.77170	-6.00800	3.77942
2039.06250	-4.20911	6.19934	-6.41070	0.29640
2042.96875	1.26774	5.79434	3.66271	5.42814
2046.87500	3.33047	6.92666	0.43944	-0.75304
2050.78125	0.57340	4.37343	-0.43028	-4.82431
2054.68750	2.46175	-0.92072	-1.78543	-0.46961
2058.59375	5.09344	-4.34410	2.51533	1.00852
2062.50000	13.71988	-5.75306	6.20137	0.22463
2066.40625	11.48553	-4.32093	-7.19641	-2.90456
2070.31250	-4.33304	-4.50349	-18.47392	-2.97739
2074.21875	-7.91322	-0.83651	-13.39834	-2.51524
2078.12500	-5.23508	-0.64280	-0.34421	-0.99122
2082.03125	-6.17472	-2.42629	3.68728	-4.98177
2085.93750	-10.94304	-2.57743	-1.17587	-7.74284
2089.84375	-11.74725	-2.90068	-7.51242	-7.17301
2093.75000	-7.46706	-1.10022	-6.46913	-12.01562
2097.65625	-1.13928	1.48019	3.65673	-3.66361
2101.56250	3.61878	4.89724	5.20225	2.59370
2105.46875	-3.96404	0.31941	2.01340	-6.34321
2109.37500	-6.81821	-0.09392	-6.63097	-5.75693
2113.28125	-3.48788	3.12052	-16.05379	-1.58344
2117.18750	-2.73139	-1.99786	-3.21058	-3.35911
2121.09375	4.47802	6.15156	4.30040	-0.79360
2125.00000	1.40355	11.21800	4.78910	1.29034
2128.90625	-6.52278	4.71443	11.97136	0.43451
2132.81250	5.19051	0.94257	7.40695	3.78321
2136.71875	14.59270	0.21087	0.81260	-0.86373
2140.62500	1.70088	2.95641	-7.47803	-5.04028
2144.53125	-8.92872	-1.31065	-9.77085	-4.98769
2148.43750	-6.88206	-6.61566	0.34509	-4.74496
2152.34375	-2.83522	-8.44518	1.45756	-0.77077
2156.25000	-6.36530	-8.00676	-1.59992	-2.60842
2160.15625	-5.45816	-1.05423	1.69928	-6.08648
2164.06250	-1.49401	-5.43442	0.64166	-5.83203
2167.96875	-7.13421	-9.51315	1.60289	-3.99727
2171.87500	0.18405	-4.09641	5.98707	1.65362
2175.78125	-1.93368	-1.66522	1.23713	-2.53839
2179.68750	0.78852	-1.84219	1.21113	-2.28960
2183.59375	3.18876	-3.56856	0.56994	0.78108
2187.50000	-4.49723	2.05911	5.26811	-6.21205
2191.40625	-1.92582	3.50605	10.51793	-7.90793
2195.31250	3.71133	-3.72904	-0.74982	-4.27272
2199.21875	4.37999	-4.23419	-4.91187	-0.46827
2203.12500	3.14234	0.26111	-0.71762	2.77744
2207.03125	-5.85298	-0.11026	-0.74755	-0.53210
2210.93750	-9.62761	-2.97160	1.75247	-0.87578
2214.84375	-8.37724	-2.51254	-1.11397	-4.98822
2218.75000	-5.10688	0.23889	3.47799	0.61689
2222.65625	4.85895	-1.59735	9.27102	5.01074
2226.56250	0.86495	-3.13309	5.31363	-4.70392
2230.46875	5.62843	-1.37622	3.46169	-2.26076
2234.37500	9.33075	-0.83618	2.56130	-0.65649
2238.28125	5.82114	0.30347	-5.04711	-0.21290
2242.18750	17.65740	4.56154	-2.10053	4.68292
2246.09375	10.00167	-0.16360	6.52837	0.19689
2250.00000	-9.40429	-7.43007	3.95973	-6.04949
2253.90625	-10.07708	1.70182	9.87258	-3.37163
2257.81250	-1.07234	11.27843	11.41815	1.50121
2261.71875	2.50694	6.25360	-2.19398	-0.59954
2265.62500	-0.61089	-2.88955	-1.93891	-1.15215
2269.53125	-6.43335	-4.21841	2.03594	2.63399
2273.43750	-8.21028	1.87571	-0.93941	2.97128
2277.34375	-8.82929	-1.48154	-3.93848	-3.48540
2281.25000	1.77230	-2.55820	2.94809	-2.34897
2285.15625	4.08507	-0.43394	10.93766	0.51012
2289.06250	-1.63153	-4.24039	7.35970	3.61208
2292.96875	4.01198	-8.37683	1.15023	0.62824
2296.87500	4.74036	-2.51257	-1.55586	0.96540
2300.78125	6.64888	3.11545	-4.80463	1.47877
2304.68750	10.40190	-6.09416	-2.79023	-2.47277
2308.59375	2.12942	-9.51893	-3.44001	-1.13032
2312.50000	-6.90002	-2.06425	-7.22931	-0.74933
2316.40625	-3.45699	0.13161	0.83769	3.58859
2320.31250	0.67648	-1.29604	4.36591	4.46715
2324.21875	-0.57868	-1.33498	6.84113	0.37856
2328.12500	-6.07746	-0.31828	3.88485	-1.14560
2332.03125	-3.12333	-0.95082	-1.50036	-6.01962
2335.93750	3.25653	2.02235	3.24267	-7.69101
2339.84375	6.47808	3.15298	-0.16117	-1.00831
2343.75000	5.82397	2.56287	-4.08681	-4.22453
2347.65625	-8.96553	10.86324	-0.88621	-6.12983
2351.56250	-15.33550	12.68592	-0.19889	-6.34341
2355.46875	-2.51477	8.80374	-2.80267	-9.09174
2359.37500	-3.28710	3.57764	-0.25334	-9.27539
2363.28125	-8.22931	1.57356	3.10756	-10.62856
2367.18750	-8.58315	-0.96221	-0.02553	-10.46488
2371.09375	-15.79282	-3.46901	-4.53508	-18.67174
2375.00000	-15.94195	-2.89279	-4.80714	-24.38228
2378.90625	-12.85097	-2.83450	0.06166	-21.91490
2382.81250	-15.29714	-1.07569	4.65244	-25.66671
2386.71875	-23.08789	0.06058	6.06354	-27.86975
2390.62500	-30.74574	-6.30978	4.83061	-26.51382
2394.53125	-33.41314	-4.86179	8.91406	-26.56659
2398.43750	-33.44549	0.04186	12.06713	-31.24172
2402.34375	-44.34239	1.87296	6.59260	-48.10981
2406.25000	-46.85637	4.25664	2.87491	-52.71914
2410.15625	-38.89916	6.97592	4.52680	-52.86772
2414.06250	-44.07234	0.07558	10.15538	-61.58387
2417.96875	-49.31153	-5.91745	16.42333	-58.58381
2421.87500	-60.25640	-1.66233	13.76392	-59.80279
2425.78125	-62.16814	-8.92722	13.37458	-60.44621
2429.68750	-56.83199	-9.15175	18.32480	-57.47182
2433.59375	-53.18845	-7.02103	13.42173	-54.90166
2437.50000	-49.12902	-11.84135	3.05794	-52.74405
2441.40625	-47.67156	-6.83989	10.05036	-54.27194
2445.31250	-40.41527	-4.84140	12.17806	-48.63999
2449.21875	-39.47258	-6.34941	5.12461	-43.58040
2453.12500	-32.99722	-8.82867	11.46005	-42.79718
2457.03125	-13.92905	-4.82961	8.23602	-31.42941
2460.93750	1.12718	2.06232	1.49755	-14.96892
2464.84375	-14.62915	2.00751	3.71757	-19.31836
2468.75000	-23.94382	2.07787	-1.22886	-15.65640
2472.65625	-7.71942	-3.74019	-4.59498	-1.91864
2476.56250	-2.51670	-1.39724	1.33530	-0.66573
2480.46875	3.19591	9.33802	4.62629	3.74086
2484.37500	5.13449	5.17290	6.52746	9.79220
2488.28125	8.64411	0.81107	3.29224	11.36327
2492.18750	18.56608	3.40401	0.31091	12.51149
2496.09375	10.50754	5.71288	-1.92888	13.77423
2500.00000	12.99044	5.32504	-1.51394	17.20026
2503.90625	18.49840	8.68523	3.68540	23.38688
2507.81250	10.29936	3.54217	2.56999	22.14050
2511.71875	7.92889	-5.53439	-0.01352	17.39177
2515.62500	14.67306	3.20726	-0.34716	17.94443
2519.53125	21.30105	2.11981	-2.81948	19.79903
2523.43750	29.12154	-1.95844	-6.82328	23.89359
2527.34375	20.87551	-1.01743	-5.81486	21.48531
2531.25000	14.30272	0.06046	-2.74934	21.15416
2535.15625	12.79527	5.59311	-8.02211	18.29452
2539.06250	15.28772	4.56573	-12.18316	16.80354
2542.96875	24.14907	5.07708	-7.26951	19.78673
2546.87500	21.40546	2.84064	-0.10502	16.62855
2550.78125	15.06409	4.06373	8.62284	20.14389
2554.68750	20.17521	10.85708	4.46090	21.27444
2558.59375	18.77707	5.01584	-6.63586	18.31983
2562.50000	17.73277	-0.01990	-6.51633	18.74424
2566.40625	22.34797	0.60609	-6.08853	14.40595
2570.31250	15.39362	2.43800	-6.59416	16.75049
2574.21875	12.61911	2.07535	-5.20576	21.24181
2578.12500	14.08818	2.67169	-3.50283	18.73638
2582.03125	27.25104	2.90250	-1.74324	17.16330
2585.93750	22.88550	-1.27826	-5.63479	17.22275
2589.84375	8.38160	1.62168	-5.28824	11.74870
2593.75000	10.64726	6.24241	1.25606	13.35310
2597.65625	16.16939	7.21089	12.12563	22.91392
2601.56250	24.55385	9.01591	6.24516	22.32150
2605.46875	21.80633	8.06425	-8.41457	14.59349
2609.37500	18.14636	10.06827	-6.80126	15.17987
2613.28125	14.62678	5.22389	2.49090	20.96513
2617.18750	7.72768	-1.10354	1.56946	19.99541
2621.09375	14.53433	-3.43058	-2.29417	16.51721
2625.00000	18.71256	-0.78196	1.68857	17.79537
2628.90625	11.99515	6.41377	2.56498	16.53674
2632.81250	12.82950	7.07393	4.13962	15.85627
2636.71875	9.74095	1.50673	3.10819	12.01535
2640.62500	19.41329	-1.38901	6.48656	15.49458
2644.53125	23.28931	5.62577	11.78089	22.80004
2648.43750	13.24824	9.58793	-0.56051	15.79012
2652.34375	7.22192	6.14649	-8.70683	14.12339
2656.25000	7.72124	4.97297	-2.59792	17.92686
2660.15625	11.85175	3.46385	1.56243	16.06067
2664.06250	14.20425	1.50102	0.90940	13.89774
2667.96875	8.16129	-0.56324	3.96713	9.28587
2671.87500	2.98877	-4.81692	7.87028	9.69881
2675.78125	3.69164	-8.83285	2.58389	9.13340
2679.68750	3.99640	-11.42762	3.08134	7.36770
2683.59375	0.35274	-4.69265	5.74078	3.18582
2687.50000	-6.12434	-0.27409	3.25312	0.22232
2691.40625	6.11772	1.17259	-3.34567	1.75022
2695.31250	6.91999	1.59295	0.92560	6.59446
2699.21875	12.42398	1.49043	8.22393	8.78748
2703.12500	18.03645	6.79149	3.71089	6.39239
2707.03125	0.98288	8.83757	6.56325	11.14178
2710.93750	2.04367	12.02000	10.02493	14.82771
2714.84375	9.74116	9.65841	4.51555	9.90962
2718.75000	11.80289	3.94826	2.88914	5.03885
2722.65625	5.24866	1.70902	-0.74762	-1.44620
2726.56250	-0.76000	0.17308	-4.23507	-3.10208
2730.46875	-1.63761	2.33288	-4.80208	0.14690
2734.37500	-1.56160	-1.55951	-3.97129	-4.69562
2738.28125	-2.65377	-3.64344	1.18082	-7.47553
2742.18750	-2.09975	2.22630	2.84182	1.44940
2746.09375	-2.50287	4.75369	-2.14677	3.41005
2750.00000	0.65510	-0.49828	-2.29736	4.41621
2753.90625	6.02611	-4.26032	-1.56824	2.25872
2757.81250	9.79263	-1.53383	1.48842	5.51974
2761.71875	11.35719	1.49976	0.77985	13.08915
2765.62500	1.79246	-2.80843	-6.91655	6.89531
2769.53125	0.40203	-5.34631	-3.01115	3.42857
2773.43750	6.28067	-5.29639	6.08450	5.78044
2777.34375	8.48204	-0.99820	4.21640	3.75586
2781.25000	14.24827	4.37181	4.34950	5.29514
2785.15625	4.47290	3.27243	4.82498	1.70720
2789.06250	-4.87016	5.10675	0.71087	-0.02609
2792.96875	3.59363	0.56723	-4.38345	2.22801
2796.87500	5.12768	3.20777	2.11293	-4.28488
2800.78125	0.18626	7.22388	5.89535	-11.02442
2804.68750	-0.49325	3.25214	0.03625	-9.33515
2808.59375	-5.54256	-2.18747	-0.40004	-6.38114
2812.50000	-1.67829	-6.01505	-2.34913	-6.40330
2816.40625	2.16763	-0.19296	-4.41734	1.15797
2820.31250	0.25695	0.79682	-5.46005	5.25988
2824.21875	5.44865	5.18993	-4.76254	7.21508
2828.12500	3.17332	3.78883	-0.70390	7.70551
2832.03125	0.08337	-3.29073	-6.34761	0.41374
2835.93750	-2.40133	2.50277	-2.47992	3.57734
2839.84375	6.86410	6.05083	11.38256	9.05112
2843.75000	13.46268	3.84881	15.00636	2.61141
2847.65625	-2.13281	5.70202	9.06502	-0.09972
2851.56250	1.16760	7.12152	4.97580	6.13359
2855.46875	5.12391	6.86554	5.91189	11.04100
2859.37500	3.14286	9.69787	3.64075	6.02236
2863.28125	8.67690	7.29072	6.55904	2.65458
2867.18750	9.53195	-0.48319	5.93857	2.41550
2871.09375	0.71071	0.23324	-4.24010	-1.35890
2875.00000	-0.24403	6.85317	-2.20814	2.60119
2878.90625	4.86196	6.10544	1.93831	6.68076
2882.81250	4.43092	1.82006	-1.09386	6.95871
2886.71875	-2.15048	-0.26728	-2.83184	3.14446
2890.62500	0.26543	4.24130	5.08817	2.48627
2894.53125	9.68659	4.48038	10.63341	10.49276
2898.43750	9.25201	2.53396	1.84435	5.01247
2902.34375	5.60861	7.58829	-1.90813	-2.99050
2906.25000	7.93046	11.58354	0.07870	1.26528
2910.15625	13.87367	15.51145	2.33746	5.95266
2914.06250	13.13343	16.26662	2.93556	4.48995
2917.96875	5.07430	15.51153	3.36005	1.44679
2921.87500	-0.22903	10.49906	2.90729	1.84024
2925.78125	-4.15490	5.65156	0.16316	-0.41436
2929.68750	-3.25037	7.03871	-5.24099	-5.49798
2933.59375	-1.21803	4.73706	-3.54313	-3.73310
2937.50000	-1.99328	2.33413	-2.37775	-0.76917
2941.40625	2.28508	0.48564	-3.97336	1.73257
2945.31250	-1.33746	0.87223	-2.57936	2.52960
2949.21875	-4.82678	3.79637	-1.53057	3.96308
2953.12500	-0.36609	3.33168	-3.96678	1.92598
2957.03125	-1.44436	-0.32498	-3.27977	-4.83797
2960.93750	1.12098	-3.50637	6.86440	-2.48005
2964.84375	7.52570	2.88569	8.36993	3.24381
2968.75000	4.65799	6.58239	0.97629	1.66765
2972.65625	-3.69644	4.79355	-7.19990	-3.53243
2976.56250	-0.91153	2.30125	-9.01518	-1.87673
2980.46875	12.05364	-1.87205	-2.45445	2.12679
2984.37500	1.09822	-0.39614	4.40229	3.34263
2988.28125	-4.65986	-2.74339	4.69628	2.49576
2992.18750	3.24726	-4.17978	0.05442	2.03195
2996.09375	-7.22918	-5.09439	-0.24201	4.90601
