 	TP9	AF7	AF8	TP10	
-1000.00000	0.19546	-4.09642	-1.51932	-0.75945
-996.09375	6.00719	3.93177	2.10645	6.25531
-992.18750	6.12669	0.05322	2.50889	8.85768
-988.28125	2.83239	1.91952	-3.93860	0.44397
-984.37500	16.95064	2.89458	-11.99779	10.13593
-980.46875	13.95463	2.23655	-5.55146	16.08374
-976.56250	-11.51262	7.53628	5.73000	1.09733
-972.65625	-12.71344	5.66074	10.16160	4.56681
-968.75000	-3.61875	1.51470	7.34052	1.26390
-964.84375	-9.08706	-5.40450	-1.92742	-16.19622
-960.93750	-17.38493	-9.60981	3.31015	-19.62484
-957.03125	-19.79651	-8.58191	7.33890	-17.72890
-953.12500	-16.29303	-5.19034	6.12963	-18.87293
-949.21875	-22.29200	-2.49606	10.15850	-16.75632
-945.31250	-21.19317	-6.49864	11.76980	-15.65809
-941.40625	-32.18533	-7.00318	5.72537	-26.50504
-937.50000	-37.43525	-2.92922	8.94832	-29.29917
-933.59375	-32.84407	-2.28047	16.60350	-34.06921
-929.68750	-39.44981	-4.86593	14.18546	-41.10192
-925.78125	-31.00010	-9.24564	7.73803	-38.99584
-921.87500	-36.49294	-7.67656	5.31993	-38.41128
-917.96875	-54.00714	-6.13755	6.12532	-35.65710
-914.06250	-50.31325	-4.14668	2.09555	-43.85382
-910.15625	-50.62865	-2.76707	-2.33713	-54.42575
-906.25000	-45.70526	-2.75985	1.28885	-47.50259
-902.34375	-45.21007	-0.35122	6.92941	-45.27425
-898.43750	-42.56690	1.12427	19.01685	-37.23360
-894.53125	-31.26830	5.72774	17.00181	-31.31867
-890.62500	-34.04661	-3.04256	-2.74224	-34.54854
-886.71875	-32.61481	-12.41786	-12.01010	-30.27197
-882.81250	-30.52050	-5.57785	-7.17540	-31.78208
-878.90625	-24.51714	-0.89594	6.92675	-21.16188
-875.00000	-7.58699	0.74508	0.88222	-8.97312
-871.09375	-4.99889	-4.47764	-12.81787	-13.69058
-867.18750	-10.60983	-6.78287	-7.58020	-13.06371
-863.28125	-4.08726	-2.00185	2.49255	0.86042
-859.37500	4.12955	-5.35717	5.31254	10.51800
-855.46875	13.02478	-9.42994	0.87983	11.87918
-851.56250	11.54068	-12.30526	-0.73227	15.41193
-847.65625	13.51574	-10.82720	-6.37371	11.80688
-843.75000	13.16718	-4.52999	-11.61222	9.54869
-839.84375	2.23872	-4.61150	-12.41852	9.02878
-835.93750	8.75509	-8.28339	-5.16629	12.27663
-832.03125	14.36308	-5.16638	3.29475	20.93401
-828.12500	9.99879	-1.97787	-10.00243	13.74557
-824.21875	14.02683	-3.89254	-9.60000	7.59188
-820.31250	19.74514	-2.29288	-2.34768	17.06106
-816.40625	24.27360	1.35670	-7.18324	24.42791
-812.50000	24.00918	-0.38466	-9.19831	18.59300
-808.59375	21.19668	-1.58132	-10.81044	11.71816
-804.68750	23.91833	-2.10087	-13.22850	17.16755
-800.78125	19.96042	0.78604	-7.99084	18.88380
-796.87500	23.25934	5.78243	-4.76779	22.11491
-792.96875	29.58236	2.84678	-4.36533	28.53349
-789.06250	27.41106	1.65336	2.48408	20.25636
-785.15625	29.59261	6.49101	0.46900	18.95424
-781.25000	23.42064	6.63442	-5.17254	23.75079
-777.34375	18.14670	-1.46162	-6.38185	22.23189
-773.43750	17.35860	-2.32214	-5.97932	20.93251
-769.53125	17.40007	3.70508	-1.54748	16.01450
-765.62500	17.80434	1.74222	-4.77137	13.78012
-761.71875	18.43566	1.95093	-1.95126	20.77340
-757.81250	22.98332	-1.04375	4.49527	17.49762
-753.90625	10.67574	0.22455	8.12116	14.31507
-750.00000	5.70226	9.41736	6.10603	17.95220
-746.09375	22.85705	13.87974	0.86750	18.99559
-742.18750	16.69321	12.11695	-0.74457	12.36335
-738.28125	13.13724	4.60929	2.88143	12.71788
-734.37500	18.35911	1.21640	0.06058	21.56014
-730.46875	11.28136	5.90342	-6.78963	16.41764
-726.56250	10.96050	10.67667	-4.37250	12.06283
-722.65625	14.57830	8.52262	3.28287	15.84538
-718.75000	9.51219	6.62442	4.08845	12.29790
-714.84375	9.74163	10.31983	-5.98510	10.41658
-710.93750	9.57735	5.66030	-10.01474	16.26196
-707.03125	14.40577	5.84085	0.05818	14.36526
-703.12500	8.48405	4.06079	4.08719	7.44995
-699.21875	2.79745	-2.66305	8.92211	9.76481
-695.31250	14.18866	3.35394	10.53352	9.06864
-691.40625	9.06287	2.64950	-1.95763	2.99161
-687.50000	5.85053	-1.82759	-3.56964	6.99359
-683.59375	8.10839	-2.07355	0.86225	9.74805
-679.68750	4.23715	2.52640	-1.55557	4.69195
-675.78125	5.85992	5.69711	0.45878	4.59961
-671.87500	5.71096	5.73953	2.87604	9.25230
-667.96875	6.30137	3.39447	1.26406	9.72052
-664.06250	11.06830	-4.23769	2.47256	8.24603
-660.15625	6.14512	-1.18529	2.06927	9.54983
-656.25000	8.47388	4.44836	-0.34863	8.66989
-652.34375	8.38104	-0.37809	-0.75192	6.84372
-648.43750	2.91681	-5.07713	-3.57273	11.69624
-644.53125	2.09399	-6.45726	1.66510	10.21302
-640.62500	2.05145	-1.71641	-1.15570	7.39842
-636.71875	4.64851	5.64416	-6.39409	7.55352
-632.81250	-1.07263	8.07147	-1.96217	2.21338
-628.90625	-3.85299	4.19517	0.85794	2.06891
-625.00000	2.58651	0.53938	2.46931	3.98234
-621.09375	2.81879	3.74720	4.48362	5.87882
-617.18750	3.59432	0.81419	2.06568	6.05747
-613.28125	3.51854	-0.74346	-1.56108	1.40043
-609.37500	-0.26618	-1.01462	-10.42600	-2.21344
-605.46875	2.12052	-2.18009	-2.77072	2.46907
-601.56250	10.05133	2.30688	5.69044	6.99473
-597.65625	8.88197	1.63456	-4.38324	7.37609
-593.75000	3.99235	3.79873	-6.39825	5.20189
-589.84375	0.41528	-0.14912	1.25705	3.70698
-585.93750	-0.46006	-5.34186	6.09176	3.27946
-582.03125	1.99060	0.40556	4.88258	2.68053
-578.12500	-4.12126	3.26095	1.65879	6.64544
-574.21875	-0.89660	3.56383	-0.75924	7.56089
-570.31250	4.66715	-1.66232	-2.77435	4.13547
-566.40625	2.55634	-4.10326	-8.01295	0.39484
-562.50000	0.00028	-1.15320	-5.99871	-2.23188
-558.59375	3.21560	1.25217	-2.37271	1.41943
-554.68750	8.95536	2.57747	-1.16428	4.83448
-550.78125	0.01946	-5.14476	4.47642	0.70055
-546.87500	-0.45907	-2.08263	5.28187	2.30449
-542.96875	3.69392	0.44999	-3.58301	1.92968
-539.06250	4.65629	-6.41533	-6.80686	0.53634
-535.15625	5.69806	-6.01510	0.84840	-0.17640
-531.25000	0.58775	1.09411	2.86267	-1.74970
-527.34375	5.45852	2.34021	-7.61383	-1.84281
-523.43750	7.85833	-4.45508	-6.40546	1.87394
-519.53125	-0.24175	-3.63259	-1.16774	3.97127
-515.62500	0.15956	-6.50496	-1.57107	1.77324
-511.71875	-0.06900	-7.51955	-1.57146	-3.20562
-507.81250	-3.40803	5.14553	-1.57175	-5.97400
-503.90625	-10.44131	8.30946	4.87482	-1.58292
-500.00000	-13.52662	3.54873	1.65107	0.01767
-496.09375	-2.87956	-2.12255	-5.19920	-2.23480
-492.18750	-3.56595	0.04314	-4.79667	-4.06454
-488.28125	-3.63665	5.53615	-6.40880	-1.59895
-484.37500	3.22907	5.70559	-4.79739	-2.38310
-480.46875	0.23302	3.83901	-2.78314	-2.07623
-476.56250	-0.25239	3.09488	-8.02164	0.26341
-472.65625	-2.66192	0.41368	-13.66308	-6.74322
-468.75000	-0.01398	-0.10572	-6.81359	-2.39041
-464.84375	0.56180	2.24268	2.05049	0.29613
-460.93750	-6.12435	-0.35063	0.03543	-5.95288
-457.03125	1.94036	-4.15771	-2.78552	-3.65393
-453.12500	6.65273	-1.57186	2.85507	4.46950
-449.21875	-0.15207	-0.48901	-2.38337	6.18321
-445.31250	2.15572	-7.71478	-10.84516	-1.17999
-441.40625	-2.79245	-7.81627	-6.41329	-1.55064
-437.50000	-3.61018	-2.93631	-9.23417	0.49047
-433.59375	-2.24244	-2.69041	-8.42869	-1.05601
-429.68750	-3.61006	-7.69332	-4.80261	-0.03002
-425.78125	4.43680	-8.44654	-0.37069	-3.96791
-421.87500	1.36159	-4.86258	1.24065	-2.17449
-417.96875	-3.25893	-8.96451	-5.60947	0.17680
-414.06250	5.27012	-6.57053	-6.41574	2.05342
-410.15625	7.37216	-7.20539	-6.01318	1.15191
-406.25000	1.81940	-12.03308	-4.80471	0.82244
-402.34375	-9.77335	-14.45930	-3.59617	2.24499
-398.43750	-3.90681	-13.38651	-4.80523	2.62986
-394.53125	7.79477	-1.12716	-0.77623	4.51551
-390.62500	4.61358	4.60828	-2.79119	-2.74370
-386.71875	8.05996	1.68002	1.23780	-1.69047
-382.81250	0.08097	-6.38826	9.29609	6.87270
-378.90625	-4.79471	-10.97342	7.28111	5.00215
-375.00000	-0.35543	-8.52634	-2.79246	3.08842
-371.09375	-3.40837	-8.91364	-12.06017	-0.42016
-367.18750	-1.36348	-5.57767	-7.22532	-2.61372
-363.28125	-2.49661	-7.24339	0.43015	-1.98619
-359.37500	-1.53248	-4.55460	-0.37598	-2.40184
-355.46875	12.19784	3.05777	5.26467	1.77987
-351.56250	6.28154	3.40601	6.87613	-0.73131
-347.65625	-1.81661	-0.35393	4.05526	-1.51570
-343.75000	8.71387	-2.51816	6.47251	1.86718
-339.84375	3.82941	-3.40541	-4.80988	-4.29373
-335.93750	-1.33930	-7.07701	-12.46593	-7.49275
-332.03125	5.07456	-0.33346	-4.40770	-4.47633
-328.12500	4.33660	4.86975	8.08283	-3.20331
-324.21875	-1.30572	-1.87997	5.26199	1.52200
-320.31250	1.18905	2.13742	0.82941	9.37954
-316.40625	1.68811	1.35499	2.44087	4.25550
-312.50000	-0.18812	-6.02724	3.64938	-1.57948
-308.59375	0.22290	-8.43242	1.23150	4.03643
-304.68750	2.13880	-6.53414	-1.99225	1.42713
-300.78125	-2.22203	-3.24404	1.63386	-3.30358
-296.87500	-4.16115	-6.30603	-3.60455	2.74800
-292.96875	-6.70258	-6.42099	-9.24595	2.31672
-289.06250	-10.88860	-5.19674	0.02111	0.88931
-285.15625	-0.64852	4.47624	8.07941	1.60183
-281.25000	-2.79119	0.59054	0.82634	-5.68964
-277.34375	-10.88556	-9.51993	-7.63550	-6.40266
-273.43750	-7.24149	-9.17130	-8.84460	-2.06109
-269.53125	-5.99129	-9.59075	-1.18921	-4.96447
-265.62500	-5.18399	-4.30067	-2.39828	-5.99010
-261.71875	-3.74680	-1.67418	-8.03957	-5.44373
-257.81250	-2.42256	0.97230	-8.44284	-7.10777
-253.90625	-1.43326	-0.98262	-8.04029	-7.46970
-250.00000	-5.19792	1.76359	-2.80263	-0.60892
-246.09375	-2.54843	8.24087	6.46446	4.86684
-242.18750	-1.86230	2.04606	9.68763	6.29345
-238.28125	1.83462	2.59713	5.25501	4.63355
-234.37500	2.62459	-1.19861	-1.19224	7.83503
-230.46875	-2.84120	-5.37591	-9.65409	5.11038
-226.56250	-1.14715	1.81518	-9.65437	-2.87057
-222.65625	-2.36410	2.07885	-6.83411	-5.53454
-218.75000	6.67280	4.21013	-1.99927	5.02080
-214.84375	10.93201	1.05592	0.82097	9.58665
-210.93750	-3.33445	-8.03565	-6.02908	6.56805
-207.03125	10.76181	-5.03438	-3.20892	19.98311
-203.12500	27.80745	1.64727	6.05817	23.54440
-199.21875	3.18348	11.44372	3.23741	0.87803
-195.31250	-3.95961	11.01393	-0.79215	-7.87628
-191.40625	7.83806	12.32430	-6.83638	8.61125
-187.50000	8.25259	17.51775	-7.23964	10.59913
-183.59375	11.71979	13.64560	-1.59889	10.13058
-179.68750	17.92229	8.97832	-2.40508	16.75999
-175.78125	12.69574	11.34351	-4.82292	8.60959
-171.87500	8.51801	10.17746	-6.03204	2.78665
-167.96875	14.74990	1.38586	-1.60010	8.49366
-164.06250	8.23521	3.02137	4.04060	9.43719
-160.15625	4.11820	10.50619	6.05494	13.56185
-156.25000	10.47653	9.69314	-2.40691	13.08522
-152.34375	5.14587	4.46395	-0.39249	6.02141
-148.43750	6.53172	2.58551	6.45697	8.05376
-144.53125	6.51487	8.45825	-0.39315	9.79415
-140.62500	0.02557	4.33467	-5.63154	6.97972
-136.71875	6.65216	-0.79555	-10.06410	3.91152
-132.81250	6.16932	6.46700	-6.03511	4.21251
-128.90625	1.77728	3.39671	-3.61781	6.08279
-125.00000	0.96399	-0.66193	2.02291	7.19036
-121.09375	0.79324	-2.28912	4.84315	10.69852
-117.18750	1.97155	-4.41622	-1.20111	6.44480
-113.28125	7.13362	-6.77966	-3.61894	4.60818
-109.37500	8.18394	-9.06532	-3.61919	3.41175
-105.46875	-2.32324	-4.58961	2.02155	1.64729
-101.56250	-2.45118	-5.34072	10.07992	4.15815
-97.65625	6.85545	0.43399	6.45337	4.13640
-93.75000	4.78610	6.22471	-6.03768	0.35023
-89.84375	5.64102	3.88868	-8.45548	-2.75665
-85.93750	10.80950	6.75462	2.82634	4.87423
-82.03125	6.00706	5.65234	4.84077	7.49857
-78.12500	6.74470	6.09028	-3.21807	2.19586
-74.21875	6.34266	5.18447	-2.81538	3.11109
-70.31250	1.02713	-0.04159	-2.41271	4.92361
-66.40625	3.34827	4.36747	6.85454	12.06189
-62.50000	7.23883	5.70606	14.50998	11.04669
-58.59375	8.03639	1.66473	2.82472	-0.61354
-54.68750	4.91146	2.58723	-4.02532	0.78656
-50.78125	-2.41299	1.71492	1.21254	1.89042
-46.87500	-2.08582	-4.08732	-4.83167	-3.35564
-42.96875	1.66414	-0.74871	-0.39963	-0.10414
-39.06250	9.87913	6.89166	9.27046	3.33745
-35.15625	8.90620	3.26279	2.42045	4.63918
-31.25000	7.42231	0.70181	2.42023	5.08038
-27.34375	11.88997	0.73932	8.46394	8.21056
-23.43750	0.58985	-0.81778	6.44903	5.48021
-19.53125	0.54816	0.81063	3.22537	1.53339
-15.62500	11.42559	4.78820	7.25448	5.78206
-11.71875	2.73540	0.14739	-2.01315	-1.21156
-7.81250	-0.60376	-9.75162	-3.22219	-7.20354
-3.90625	0.01842	-3.76714	8.46259	1.61957
0.00000	-2.26126	4.76895	8.05940	2.01114
3.90625	-0.47887	4.73882	2.41818	-1.04739
7.81250	-1.56817	4.88988	7.25312	1.15201
11.71875	0.77859	-0.89903	7.65589	0.39396
15.62500	-2.83212	-2.74405	-0.40285	-5.22549
19.53125	-3.00764	2.64230	4.83503	2.73694
23.43750	4.16248	5.12180	7.25243	8.70284
27.34375	5.37920	4.05244	3.22296	5.32248
31.25000	9.63880	2.72729	3.22279	4.43720
35.15625	2.55882	-0.96811	-1.61249	-8.18760
39.06250	5.54301	-2.75538	0.40210	-5.57221
42.96875	13.60769	3.91398	2.41666	1.15887
46.87500	-0.61782	4.88824	-4.83628	-5.62624
50.78125	-3.39339	5.97106	-2.82179	-3.10673
54.68750	0.92892	13.25090	2.81908	-1.20271
58.59375	7.26280	22.81996	10.07170	0.84412
62.50000	10.07145	22.86486	11.68336	2.88516
66.40625	1.36584	13.44063	-0.80762	2.95032
70.31250	-0.00177	12.87010	0.80389	4.37910
74.21875	10.86549	16.95223	10.47409	9.70856
78.12500	8.99903	18.11872	8.86222	10.29313
82.03125	6.79614	14.41994	1.60933	2.16817
85.93750	16.93686	13.99356	2.41503	7.26821
89.84375	21.45650	18.19403	8.05585	12.41060
93.75000	8.24803	17.79860	10.87624	8.85762
97.65625	-0.92708	15.37243	5.23497	0.20686
101.56250	5.34237	4.35744	8.45818	0.18872
105.46875	5.35889	-4.73844	10.87557	5.70051
109.37500	-3.86632	-3.03229	5.23434	7.70871
113.28125	-5.25504	-0.72230	2.41369	3.12086
117.18750	-3.96666	1.68579	-4.43637	-2.41857
121.09375	0.42504	0.32412	-1.61611	3.36648
125.00000	-0.77660	-0.45209	4.02459	-1.77080
128.90625	-1.41193	-0.83918	6.03907	-2.05595
132.81250	-0.97886	-3.14403	7.24776	5.01785
136.71875	3.52901	-1.58614	9.66524	2.01887
140.62500	11.34277	-4.53824	9.66510	3.61777
144.53125	6.53824	-6.59601	15.30593	4.57603
148.43750	4.24832	-1.00942	15.30576	2.06478
152.34375	1.38833	4.90117	7.24699	9.74176
156.25000	-5.00417	0.31956	6.03808	6.27480
160.15625	-7.87403	-6.61155	11.67901	-5.52714
164.06250	-2.56659	-5.44800	3.21725	-0.26458
167.96875	-9.85229	-7.97173	-1.21513	-0.47163
171.87500	-13.41075	-8.40936	7.24630	-2.01910
175.78125	-3.74171	-3.87687	8.85788	5.92971
179.68750	-0.84394	-6.70918	9.26064	7.74322
183.59375	3.68444	-3.86517	15.70741	5.43968
187.50000	7.44937	7.28754	14.09558	8.46911
191.40625	3.02524	6.89701	6.03685	4.01178
195.31250	2.92637	4.36313	2.81331	-0.20924
199.21875	5.81831	-1.21111	-5.64832	0.29820
203.12500	7.10255	1.77093	-5.24558	9.57318
207.03125	7.38154	6.08835	4.42457	9.54486
210.93750	9.64249	5.70104	7.64780	7.71447
214.84375	24.31481	11.74774	7.64769	30.18519
218.75000	23.78398	14.30908	14.49737	21.28215
222.65625	-0.83045	17.49536	18.12362	-5.21836
226.56250	-20.15333	9.78535	4.02089	-10.54711
230.46875	-28.97638	-1.51309	-0.41145	-17.88273
234.37500	-24.54276	2.16539	2.40885	-21.32593
238.28125	-29.55247	3.18023	-4.44111	-27.62944
242.18750	-37.89848	1.79757	-2.02361	-32.51696
246.09375	-23.61241	5.08088	2.81137	-26.02913
250.00000	-16.49777	7.82727	-2.42685	-24.40646
253.90625	-21.90686	-2.61831	-8.06790	-26.98928
257.81250	-22.02638	-8.00692	-7.66509	-20.32458
261.71875	-16.31464	-2.21746	-8.47116	-15.94039
265.62500	-9.48089	5.26910	-3.63604	-15.15659
269.53125	-4.87346	3.91255	-1.62146	-9.01690
273.43750	-3.17947	-8.63988	-10.08303	-9.34209
277.34375	-7.21711	-5.55552	-2.42744	-13.61783
281.25000	-7.04482	5.03736	6.43698	-6.28596
285.15625	0.43774	8.33015	-2.02462	-0.51135
289.06250	-11.81407	4.87973	-10.48620	-6.75342
292.96875	-14.23795	-4.60965	-4.84522	-6.23215
296.87500	-7.66840	-4.77760	-4.84535	-4.68548
300.78125	-10.93705	-3.03955	-14.11289	-8.41410
304.68750	-6.79820	0.96310	-18.54527	-5.88635
308.59375	-3.05906	6.30289	-13.71023	2.94558
312.50000	-2.64463	5.85542	-8.06926	4.12760
316.40625	-2.80387	7.62446	-1.62245	-2.38487
320.31250	1.78688	5.77778	4.42139	1.82701
324.21875	8.64824	4.51676	-3.23440	0.12353
328.12500	5.67923	3.75367	-6.05497	-6.10245
332.03125	-0.17678	5.43829	-6.05507	-4.82766
335.93750	0.56126	9.08854	-2.42880	-3.48106
339.84375	-0.73524	9.72373	-1.62295	5.07575
343.75000	0.78788	14.95471	-6.05527	6.21081
347.65625	9.15679	13.75487	-0.41429	-1.65900
351.56250	11.75130	11.07073	3.61490	-1.64144
355.46875	-3.97990	10.89967	2.00302	-1.91576
359.37500	-5.63410	14.83498	8.85276	3.73134
363.28125	4.21582	16.95773	8.44970	8.31881
367.18750	-1.10220	3.26811	-7.66758	0.96412
371.09375	2.56438	1.00378	-1.22082	-1.19490
375.00000	6.18326	8.22739	8.04648	6.76242
378.90625	-2.85196	6.60020	-6.05619	4.22659
382.81250	-2.47949	8.09961	-7.66797	3.59936
386.71875	-0.94380	5.73631	11.67263	4.58331
390.62500	-3.11701	9.09175	14.89594	5.80453
394.53125	3.70181	13.97052	2.40496	11.29286
398.43750	2.36510	7.98144	-3.23615	4.13345
402.34375	1.59835	0.05660	-8.87718	-0.32057
406.25000	0.33486	-3.41995	-6.86253	-1.68912
410.15625	-3.24246	3.91455	-0.81862	-3.18423
414.06250	-0.89462	3.96016	2.00180	-0.79150
417.96875	1.55571	5.67857	-1.22171	-2.19649
421.87500	3.50217	10.54895	-3.23646	4.18576
425.78125	5.11485	11.25505	1.59861	6.71276
429.68750	1.00800	11.26734	-2.43094	-4.77153
433.59375	-4.72948	5.60324	-0.81934	-4.48308
437.50000	-3.25650	0.49508	6.43339	-3.48357
441.40625	-3.66769	-9.18713	-1.62521	-3.05586
445.31250	-3.56914	-8.26440	-4.84870	3.98530
449.21875	-6.05833	2.54858	-4.44590	2.67165
453.12500	-4.92527	8.02857	-0.81962	-0.96274
457.03125	1.64514	4.11466	-2.43147	-4.56115
460.93750	1.39861	-8.39126	1.19485	-5.95459
464.84375	1.63448	-1.94670	5.22410	-0.22051
468.75000	2.16521	8.78919	-0.01400	7.07055
472.65625	0.18601	-0.44048	-0.81981	-1.48426
476.56250	-3.05542	-6.42963	3.61244	-6.63214
480.46875	12.21427	-0.36880	3.20944	-0.50554
484.37500	25.10625	8.44414	0.38887	6.96658
488.28125	7.95453	9.44449	1.19471	10.85198
492.18750	-0.21981	7.20135	1.19473	6.06877
496.09375	4.83458	1.90405	9.25331	6.02749
500.00000	7.39013	3.59053	10.86504	9.23957
503.90625	8.36668	8.39571	-4.04345	4.16627
507.81250	7.27726	3.30886	-6.86400	2.73935
511.71875	3.58006	3.16106	-1.22310	7.62229
515.62500	-3.25403	2.92791	6.02964	3.21159
519.53125	3.42022	0.25579	17.31174	1.50364
523.43750	9.38158	1.52676	1.59745	2.23138
527.34375	-0.68373	-3.16872	-16.13161	-3.96960
531.25000	-5.28872	-6.91128	-7.26722	-4.04910
535.15625	-6.32476	-6.17413	8.04410	2.26372
539.06250	5.12082	-4.73779	0.79133	0.84973
542.96875	5.93261	-4.51512	-10.08779	-3.70119
546.87500	-9.09873	-0.72013	1.19424	-1.21898
550.78125	-5.42744	2.78051	4.82056	4.52381
554.68750	0.50645	-5.65376	1.19415	4.81609
558.59375	-2.83008	-7.36664	9.65564	2.43062
562.50000	1.59028	-0.87462	3.61168	2.05400
566.40625	4.97259	0.17755	-5.25286	-0.29844
570.31250	-8.07995	-0.79568	-4.44702	-7.33121
574.21875	-12.92696	-1.54866	0.38819	-6.83685
578.12500	-1.89965	1.63265	2.40281	-3.02883
582.03125	6.37358	4.78374	2.40280	0.12821
585.93750	-2.02041	2.74573	8.04376	-3.63624
589.84375	-13.21512	-0.30646	8.44666	-8.56719
593.75000	-11.11229	2.52171	5.62620	-4.46458
597.65625	-1.75264	6.94553	1.19396	-3.04213
601.56250	4.11394	-0.04001	-5.65589	-3.46309
605.46875	13.39785	-3.89759	-10.49118	-8.02435
609.37500	8.20188	-0.98240	-8.07366	-7.22508
613.28125	-0.84260	4.14831	1.59667	-2.14266
617.18750	0.04284	10.58596	10.46112	-0.02637
621.09375	4.83752	4.38939	1.59670	4.54980
625.00000	7.66517	3.21044	-3.64145	8.67988
628.90625	1.38869	0.00303	9.65521	12.02109
632.81250	-2.20755	-5.92796	2.40248	7.00695
636.71875	-2.53468	-7.59338	-8.47669	4.00795
640.62500	9.71155	-4.09832	0.38777	14.06838
644.53125	16.59198	5.52901	10.46096	17.84712
648.43750	7.85518	-1.77800	10.46090	9.69483
652.34375	-0.24290	-11.17861	2.80519	2.86641
656.25000	-5.02374	-8.91015	-5.65630	-1.80945
660.15625	-3.86434	-7.78247	-12.90908	-0.71762
664.06250	3.05485	-3.39532	-7.67096	8.97715
667.96875	4.23059	-2.29251	-2.83576	9.17302
671.87500	-3.35715	2.91108	-0.01520	-1.23889
675.78125	-6.58193	5.42916	5.22298	-3.76624
679.68750	-6.10184	2.59708	6.43178	-3.16148
683.59375	-1.17049	4.23248	5.62582	3.80238
687.50000	-1.83793	-1.13482	-4.44758	3.60829
691.40625	-3.84466	-0.31641	-6.46217	-0.04325
695.31250	-3.13770	-0.02962	-3.64160	0.16795
699.21875	-1.85754	2.05188	1.19344	0.27241
703.12500	13.12634	7.04869	8.84911	7.53271
707.03125	8.16737	4.91933	7.23736	4.28093
710.93750	-2.86830	3.72632	3.20804	0.03303
714.84375	-0.68687	-2.71765	-2.83591	-0.46331
718.75000	-2.42666	-5.79711	1.59639	0.30382
722.65625	7.61076	-5.02820	2.80516	9.66403
726.56250	4.40493	-6.29111	-8.47688	5.54401
730.46875	-6.02991	-0.26337	-4.85044	-2.19464
734.37500	5.65639	2.60952	3.61112	-3.22038
738.28125	6.28768	2.81867	2.40226	-0.65947
742.18750	3.58257	3.04789	10.46078	5.73504
746.09375	2.96005	1.09324	-0.01546	0.94070
750.00000	-4.02799	-0.59248	-10.08868	-6.30123
753.90625	-5.40788	-4.59110	-2.03000	-3.64605
757.81250	-3.11004	-9.57677	-5.25335	-5.44298
761.71875	5.42210	-11.84582	-5.65617	-2.67067
765.62500	-1.84675	-9.19428	-1.22392	2.14250
769.53125	0.34307	-7.32731	2.80536	1.83531
773.43750	10.49856	-0.94183	4.81993	5.94221
777.34375	-2.80638	-5.51290	5.22283	7.30743
781.25000	0.18654	-11.03696	2.40236	10.60992
785.15625	17.74230	-9.35566	-4.44749	18.39926
789.06250	15.96657	-14.01464	-2.43286	20.61858
792.96875	-10.23025	-17.45992	-0.82112	7.84308
796.87500	-23.00141	-24.47754	4.01405	-4.71290
800.78125	-1.28836	-23.94811	13.68449	-0.38291
804.68750	1.23882	-15.51305	12.87874	3.35370
808.59375	-11.94514	-15.00827	7.64066	0.50064
812.50000	-11.93357	-10.62036	0.38795	-4.36130
816.40625	-10.48103	-10.05998	-0.41781	-6.03854
820.31250	-4.27844	-15.12986	6.02916	-2.63251
824.21875	-7.08738	-17.19668	-3.64103	-2.72434
828.12500	-11.66817	-12.31848	-6.46157	-2.90633
832.03125	-7.85385	-6.60435	-6.05855	-2.84038
835.93750	-4.29529	-4.56566	-0.82034	-2.70265
839.84375	-1.56239	0.09904	3.20896	-0.99563
843.75000	0.76663	1.70390	-5.65549	0.13939
847.65625	-1.74350	0.90721	-5.65543	-3.29817
851.56250	-5.99863	1.84958	3.61204	-4.89227
855.46875	0.83433	-4.76823	-8.47584	0.07154
859.37500	0.79189	-7.68255	-21.77245	-5.96630
863.28125	6.20962	-5.96259	-11.29614	-5.81106
867.18750	2.90629	-5.95245	-2.83448	3.35430
871.09375	-9.54425	-0.96377	3.61257	-1.62519
875.00000	-2.70190	3.84247	1.59805	-4.14398
878.90625	-0.85804	2.21559	-4.04296	-3.05333
882.81250	5.55829	1.70047	-3.23711	1.55748
886.71875	6.28816	1.35197	-6.86344	1.33254
890.62500	-0.31733	-0.12756	-2.02823	-1.07274
894.53125	1.26335	1.12504	3.21000	0.78912
898.43750	7.58238	4.80655	1.59842	0.47937
902.34375	11.65084	-1.90925	-4.84835	-0.75117
906.25000	-1.70058	-8.60904	-8.87752	-0.91090
910.15625	-9.30715	-7.72126	-5.25106	-0.39135
914.06250	-6.95922	-5.66076	2.80762	-6.86304
917.96875	-7.32940	-2.33047	-1.62450	-3.43287
921.87500	-2.56237	-3.50391	-8.47429	0.93475
925.78125	1.46789	-4.00643	-13.71234	-5.40268
929.68750	5.82260	-8.42630	-16.53274	-8.02241
933.59375	6.12916	0.01234	-6.86227	-7.33082
937.50000	-6.90326	9.81275	-0.01236	-1.49619
941.40625	-5.30000	5.77174	2.40536	0.94604
945.31250	2.85710	0.65067	-3.23558	-1.28031
949.21875	3.18836	-1.02712	5.62905	-0.57939
953.12500	-0.91679	2.03548	14.09077	-0.99042
957.03125	-3.61395	-1.07239	-5.24983	-2.57431
960.93750	3.79505	-1.49020	-8.87616	2.47904
964.84375	6.44860	0.52238	-3.63799	5.39257
968.75000	6.17340	1.58807	-9.27890	3.41620
972.65625	7.82065	2.83468	-8.47295	4.12881
976.56250	1.75880	0.47205	3.61509	3.41330
980.46875	0.50840	6.53311	6.43568	4.30177
984.37500	10.17708	3.25833	6.83870	3.71535
988.28125	4.30749	-4.60567	5.22701	-8.51637
992.18750	-6.28445	2.01580	-4.44322	-9.67322
996.09375	-2.03582	6.38892	-6.86059	-5.68520
1000.00000	4.95195	11.29890	-7.26334	1.55624
1003.90625	2.70507	6.43393	-5.65142	3.33288
1007.81250	-6.84584	3.36186	4.82488	-5.34677
1011.71875	-3.29031	14.89916	4.82502	-2.88142
1015.62500	2.36635	13.05438	-0.41292	-0.84523
1019.53125	-0.62970	-0.09374	6.43698	-2.95597
1023.43750	8.55511	-4.46375	12.07810	5.83043
1027.34375	9.36887	-1.50352	5.22842	8.09110
1031.25000	3.15224	1.60388	-6.05346	6.39988
1035.15625	0.10154	3.54986	-3.63566	7.07175
1039.06250	-2.15239	0.15123	-4.84426	2.83734
1042.96875	1.88293	-9.29635	-7.66453	0.70406
1046.87500	0.95425	-6.30706	0.79714	3.58932
1050.78125	-4.64180	2.43183	14.89988	6.91462
1054.68750	-2.33415	4.47385	8.45317	1.56590
1058.59375	7.22318	-3.68573	-13.30481	-3.64001
1062.50000	8.01709	-9.68441	-10.88700	-0.79315
1066.40625	0.52021	-8.22920	-1.61947	0.07782
1070.31250	-5.27959	-2.35253	2.00702	2.71536
1074.21875	-10.93249	2.93867	0.39551	-2.02848
1078.12500	-6.35207	-2.34140	1.20152	-4.66741
1082.03125	5.95051	-4.02518	6.84272	2.51900
1085.93750	8.83847	1.99566	2.00765	-0.84248
1089.84375	-3.16208	0.15250	1.20194	-2.54997
1093.75000	-7.10322	1.36922	-3.63305	-0.05906
1097.65625	-1.08725	0.66465	-8.46811	-6.03250
1101.56250	-4.34898	-2.07120	-5.64742	-10.41809
1105.46875	-1.58093	-1.45048	-6.05022	-5.97207
1109.37500	3.52230	-1.40486	-4.84121	-4.72966
1113.28125	4.42945	-0.91678	-1.21466	-5.64136
1117.18750	-3.42013	-9.34862	-0.81151	-11.31017
1121.09375	-3.82938	-6.18107	5.63555	-9.84887
1125.00000	6.48727	1.93380	3.62102	-10.64892
1128.90625	10.13740	-2.01821	-4.43747	-12.98134
1132.81250	-1.38971	-6.45395	-4.84014	-8.08664
1136.71875	-17.83017	-11.75373	-1.21357	-7.52035
1140.62500	-17.15721	-8.69048	5.63645	-3.26663
1144.53125	-7.31388	-7.93873	1.60729	0.16406
1148.43750	-3.85625	-4.20510	-4.83943	-2.95061
1152.34375	2.80344	-5.15535	1.20472	-5.77420
1156.25000	10.08516	-9.77423	5.63714	-0.71032
1160.15625	-0.06167	-2.75648	12.48707	4.86723
1164.06250	-6.35915	1.96755	5.63747	3.88627
1167.96875	1.45531	2.51410	-3.62970	0.80164
1171.87500	5.38140	1.37373	-4.43532	4.14441
1175.78125	4.58996	3.03723	-1.21154	-0.54956
1179.68750	8.32626	2.75001	-0.00251	-5.21784
1183.59375	8.49972	3.03976	-1.21116	0.49955
1187.50000	-6.95121	5.24882	2.01245	0.70923
1191.40625	-7.69944	-5.39411	-2.82248	5.18012
1195.31250	2.37507	-5.95444	3.22177	12.30907
1199.21875	-2.51110	-3.05540	4.83369	2.71655
1203.12500	-3.08137	-5.93649	-4.83646	-2.36290
1207.03125	0.74840	-4.86352	-2.82164	5.24419
1210.93750	5.11885	-4.49950	1.61079	7.83863
1214.84375	5.08235	-5.31793	-1.20966	2.41663
1218.75000	-6.41936	-4.06080	0.40220	-3.58793
1222.65625	-2.47598	2.02901	3.62575	-1.50317
1226.56250	0.37728	-0.82546	3.62586	4.74253
1230.46875	-4.05905	-7.21747	8.05824	4.89668
1234.37500	3.07827	-4.31679	-0.00014	3.22982
1238.28125	-0.20434	-6.71728	-8.46150	2.84418
1242.18750	-1.02328	-8.52841	-2.41743	5.06545
1246.09375	-1.62783	-10.84249	-1.20850	5.65281
1250.00000	11.95998	-10.72121	-3.22301	6.45589
1253.90625	16.14977	-7.78183	2.01524	7.91553
1257.81250	-6.04823	-8.61091	3.22419	4.26660
1261.71875	-3.61582	0.25970	-5.64012	-1.62346
1265.62500	3.98327	3.76558	0.00097	1.52572
1269.53125	5.27296	-0.09608	10.47732	8.51409
1273.43750	3.64930	3.63308	0.00135	6.42120
1277.34375	-5.02665	0.73208	-5.23652	0.26306
1281.25000	-4.26743	5.01665	-4.83332	-0.24441
1285.15625	2.27630	6.73296	-5.63894	5.65152
1289.06250	2.11053	5.32288	-8.05639	7.06761
1292.96875	0.68446	4.95187	-5.63866	4.00884
1296.87500	1.24417	4.78971	6.85233	2.50949
1300.78125	1.39863	13.39075	8.86715	3.53204
1304.68750	3.69455	6.92066	7.65853	3.11105
1308.59375	12.17616	0.30210	1.61468	0.52700
1312.50000	24.23331	3.83671	-6.44390	1.10724
1316.40625	10.75299	7.59081	-5.23492	1.33024
1320.31250	-10.04060	7.64654	-2.41417	0.00583
1324.21875	-1.87461	1.10158	0.00368	1.94781
1328.12500	2.85926	0.96337	-1.60782	6.64064
1332.03125	3.03487	1.90636	2.42159	3.38515
1335.93750	0.54564	1.48053	10.07741	-1.66360
1339.84375	-5.19044	-6.17828	-0.39848	0.02765
1343.75000	-0.77651	-15.96712	-8.05397	0.93460
1347.65625	0.77167	-7.59867	-4.42748	2.05445
1351.56250	5.24187	-1.23524	-0.80090	3.21610
1355.46875	1.66760	-3.86951	-3.62117	0.38130
1359.37500	-2.63007	-2.30228	-4.02391	2.76488
1363.28125	1.29761	-3.19211	7.66126	8.10834
1367.18750	-3.74687	-6.04114	6.45261	6.92691
1371.09375	14.79381	-6.38710	-5.23220	5.86800
1375.00000	20.59389	0.00459	-3.21734	6.26447
1378.90625	-5.62076	-3.29502	-4.82887	0.53769
1382.81250	-6.98799	-8.52850	-6.44047	-1.13420
1386.71875	-5.05359	-1.21289	5.64768	1.92529
1390.62500	-2.10063	3.78361	7.66257	4.52092
1394.53125	-0.25939	-0.59333	-7.64853	0.68683
1398.43750	-9.76142	-5.93757	-10.46887	-9.09294
1402.34375	-2.31909	-1.76275	-1.20128	-8.68761
1406.25000	5.30700	4.06610	0.81357	-0.85851
1410.15625	-1.46995	5.91399	-3.61844	4.03923
1414.06250	-4.44060	1.19100	-3.61824	2.19890
1417.96875	-5.40596	-9.83072	3.63471	-3.17877
1421.87500	0.33758	-5.46586	6.85833	-3.29886
1425.78125	5.56062	6.16850	3.23217	-5.85838
1429.68750	4.24132	5.24808	-5.63200	-3.20548
1433.59375	7.69363	-3.09908	-2.81127	1.55260
1437.50000	1.38572	-4.50116	1.21830	0.13346
1441.40625	-3.91064	0.90479	-10.46640	-2.32343
1445.31250	-0.68904	-1.35421	-8.45146	-5.82668
1449.21875	-1.84744	0.58308	1.21919	-5.09937
1453.12500	3.55720	-3.38450	1.21949	-6.06474
1457.03125	-4.70557	-6.87393	5.65204	-5.21115
1460.93750	-11.89710	3.23944	8.06991	-2.97122
1464.84375	-5.41448	7.68548	-2.80887	-6.81753
1468.75000	2.05718	8.44432	-4.42027	-3.63420
1472.65625	4.55991	1.14693	2.42995	-4.91395
1476.56250	-4.74094	-5.26485	-4.82253	-9.54894
1480.46875	-6.75233	-0.88635	-4.01648	-6.07759
1484.37500	2.62964	-0.96536	-0.38982	-2.39701
1488.28125	-2.14722	-10.24863	0.81923	0.40531
1492.18750	4.31191	-13.67444	7.26643	1.80948
1496.09375	12.16844	-9.74751	8.47556	0.81838
1500.00000	-9.47849	-8.25585	6.86418	-1.19432
1503.90625	-8.43086	-4.74722	3.64106	0.56867
1507.81250	1.67860	-3.91695	-2.80550	4.61974
1511.71875	-2.76906	-10.36884	-8.44625	2.85339
1515.62500	1.31610	-11.05299	-9.65478	0.50923
1519.53125	-0.37708	-3.16079	-5.62516	7.62266
1523.43750	-4.39496	1.16990	-1.99854	10.92385
1527.34375	3.47478	-1.97184	-2.80411	4.59060
1531.25000	11.57972	-6.25522	0.01664	4.69454
1535.15625	2.61798	-3.13517	1.62863	1.61857
1539.06250	-8.49862	-0.51503	0.82302	-3.42437
1542.96875	-7.07286	0.66296	7.67312	-0.76898
1546.87500	-4.40945	1.22929	0.42049	-1.68760
1550.78125	0.67381	1.89681	-10.45844	-4.72531
1554.68750	4.01853	1.92113	-8.84636	-3.90181
1558.59375	-4.06061	2.49692	-6.02557	-4.13870
1562.50000	-2.01551	9.43965	-1.19018	-1.89877
1566.40625	-1.83224	2.06027	-0.78695	-0.10752
1570.31250	-9.64695	-7.66460	-10.45699	-2.81270
1574.21875	1.12459	-2.32730	-7.63619	-5.15792
1578.12500	2.03157	-0.97913	2.43729	-5.01590
1582.03125	-10.63511	-2.32384	-1.18888	-0.95482
1585.93750	-6.53438	-6.32907	-6.42673	-1.14440
1589.84375	-5.63358	-14.38336	-12.06745	-9.68567
1593.75000	-3.19789	-11.84608	-12.47012	-11.80182
1597.65625	4.52119	-4.90192	-6.82881	-9.29548
1601.56250	1.66258	-4.41418	-5.61979	-6.83107
1605.46875	-4.83653	-4.19623	0.82739	-2.78779
1609.37500	3.89325	-1.33001	-1.58979	1.67827
1613.28125	13.66513	1.17280	-5.21609	4.79612
1617.18750	3.80118	6.03778	8.88663	3.55979
1621.09375	-3.86048	6.38502	10.90150	4.61852
1625.00000	0.81551	2.00916	2.03718	4.22183
1628.90625	0.43664	5.71292	3.64916	5.91907
1632.81250	3.41540	7.72429	3.24643	8.39655
1636.71875	12.76301	13.30374	0.82900	5.73979
1640.62500	7.79534	9.51730	-0.78250	2.33812
1644.53125	7.96870	0.19597	-2.39404	7.38097
1648.43750	12.23260	8.76493	-7.63188	9.90775
1652.34375	6.80472	10.23245	-2.39368	-2.98866
1656.25000	0.38733	2.39028	11.70915	-1.55052
1660.15625	-3.71490	2.15556	8.48598	2.41606
1664.06250	-5.98253	-1.98456	-3.19883	-11.05522
1667.96875	-9.44967	-2.64653	-11.25724	-14.13936
1671.87500	-5.92603	-1.77203	-10.04820	-12.81078
1675.78125	0.53561	-0.91423	-4.80987	-10.65451
1679.68750	5.07806	-2.41006	0.02549	-6.05497
1683.59375	2.02836	-0.91135	-1.98893	-4.36654
1687.50000	-10.60172	-1.11963	-6.42096	-7.38005
1691.40625	-2.48515	-0.88325	7.27894	-3.71474
1695.31250	5.57498	4.60053	8.08510	1.39984
1699.21875	4.71833	5.08214	0.02681	6.31299
1703.12500	7.37171	1.79846	-1.58465	6.47192
1707.03125	9.58997	-2.36641	-10.85184	0.37959
1710.93750	10.33408	-2.80804	-6.82230	3.78005
1714.84375	1.03022	-6.04392	-1.58392	-1.23889
1718.75000	-5.23319	-8.01011	2.44560	-0.39365
1722.65625	-2.90139	-1.51721	2.84867	3.70580
1726.56250	1.16063	-5.17737	-3.19506	-3.34504
1730.46875	1.15660	-7.13685	-1.18016	-4.39957
1734.37500	-0.57047	-6.25059	-2.79157	-3.24586
1738.28125	0.17636	-3.00984	-6.01472	-5.64604
1742.18750	-0.64240	-0.79141	-12.05836	-5.84213
1746.09375	0.36479	-3.91112	-13.26687	-10.49281
1750.00000	6.69981	-4.99845	-6.41682	-14.12188
1753.90625	4.44272	-12.53500	-4.80477	-8.22990
1757.81250	-3.65264	-15.78151	-8.02794	-7.84942
1761.71875	-0.01143	-12.95467	-8.83351	-2.86034
1765.62500	-4.50012	-15.08967	-9.23618	2.70655
1769.53125	-5.22491	-12.90720	4.86667	6.47159
1773.43750	4.43351	-14.01315	7.28457	5.18460
1777.34375	-5.45133	-15.30229	-10.04111	-3.79402
1781.25000	-5.49809	-6.58528	-8.42909	-3.09256
1785.15625	1.04565	-2.04827	-3.99660	4.41506
1789.06250	-0.32891	-1.84649	-0.36994	6.23400
1792.96875	7.10943	-3.02319	2.04794	7.20447
1796.87500	4.04272	-6.00569	-5.60740	0.06406
1800.78125	1.37680	-11.50709	-9.63652	-2.13680
1804.68750	10.11960	-7.09786	2.04875	8.72424
1808.59375	10.54272	-6.06056	3.66081	12.18421
1812.50000	5.27386	-11.39031	-5.60628	6.72045
1816.40625	0.65808	-7.23312	-0.77079	4.92880
1820.31250	-0.39183	-1.13331	4.46766	2.79853
1824.21875	0.92432	-4.85763	1.64741	0.30827
1828.12500	3.64349	-12.24855	-3.99342	-1.04280
1832.03125	17.51866	-10.09665	5.67724	-0.26888
1835.93750	17.44704	-4.47834	9.30394	5.96438
1839.84375	-8.03259	-8.51069	0.03684	0.80585
1843.75000	-16.10953	-11.44963	-1.97753	-13.19557
1847.65625	-21.81407	-22.82465	-2.38015	-22.55198
1851.56250	-25.40245	-16.86409	2.05246	-20.98735
1855.46875	-25.35024	-2.17218	5.67925	-25.03081
1859.37500	-33.67719	-2.61948	9.30597	-32.72046
1863.28125	-34.98774	-3.91223	9.70928	-35.03272
1867.18750	-50.91144	-8.77579	4.06855	-52.33142
1871.09375	-62.18771	4.17510	2.45716	-65.07537
1875.00000	-70.08729	3.71724	-3.18361	-74.75214
1878.90625	-87.43746	-2.40265	-3.98919	-93.37261
1882.81250	-96.05734	1.63142	0.04040	-106.32655
1886.71875	-100.16692	2.09737	2.86119	-108.90798
1890.62500	-98.01989	22.00254	4.87615	-109.13292
1894.53125	-110.28130	27.69901	1.25014	-123.44343
1898.43750	-125.42442	17.51980	4.87680	-133.62616
1902.34375	-111.13231	18.47128	-5.19612	-136.44440
1906.25000	-117.20598	21.47976	-20.91011	-146.74725
1910.15625	-140.90605	26.14824	-12.44825	-151.51982
1914.06250	-142.26498	25.05183	-8.01563	-152.95718
1917.96875	-142.42451	30.95341	-15.67095	-158.73779
1921.87500	-136.27797	38.13895	-10.02954	-151.20215
1925.78125	-138.30748	39.29723	-2.77643	-140.46489
1929.68750	-142.44720	41.19743	-5.19370	-144.66174
1933.59375	-125.29517	37.68545	-7.61095	-135.87425
1937.50000	-115.08279	35.47776	-4.38726	-119.56425
1941.40625	-116.75269	25.57252	-0.35758	-115.97705
1945.31250	-108.69567	24.11963	1.65741	-116.25662
1949.21875	-91.31904	29.68350	1.25485	-110.29093
1953.12500	-76.24368	24.10438	-2.77405	-97.15334
1957.03125	-71.61235	17.39170	-3.57957	-85.82317
1960.93750	-65.10387	10.17915	9.31450	-77.13599
1964.84375	-60.23255	15.02823	9.71785	-65.26752
1968.75000	-59.61024	13.36957	0.85370	-63.69548
1972.65625	-30.91663	8.08697	2.46579	-45.63403
1976.56250	-14.42945	5.30180	0.04855	-30.92780
1980.46875	-23.69310	-1.19858	-0.35400	-26.65007
1984.37500	-14.71343	1.14011	-2.36837	-16.11905
1988.28125	-7.80478	-3.71087	3.27304	-6.86936
1992.18750	4.69875	-4.31599	4.88513	2.99686
1996.09375	12.15281	-2.00064	-2.36721	12.88543
2000.00000	9.04106	-7.35870	4.08004	19.33477
2003.90625	21.37111	-5.05870	0.45401	21.50110
2007.81250	28.25748	-8.66049	-2.76902	33.61123
2011.71875	32.67471	-16.32103	6.09586	42.72443
2015.62500	42.40129	-24.66071	6.09620	39.17194
2019.53125	44.33482	-30.06509	6.49950	46.68863
2023.43750	37.89961	-20.09330	-0.34994	52.40763
2027.34375	42.14314	-14.77347	-0.75258	56.14779
2031.25000	46.21890	-16.63922	3.68001	57.86364
2035.15625	42.89829	-19.56297	2.87451	51.96742
2039.06250	44.27261	-20.97211	6.09838	50.95394
2042.96875	46.50439	-18.58519	2.47243	54.01243
2046.87500	50.37668	-16.00414	-4.37705	47.45296
2050.78125	54.25126	-17.35114	-2.76491	47.23599
2054.68750	52.76089	-19.34133	4.89110	54.10357
2058.59375	45.89066	-13.52739	7.71200	49.43452
2062.50000	46.32407	-11.01670	0.45956	47.64518
2066.40625	48.11907	-14.36658	-2.36067	50.64524
2070.31250	47.95995	-14.01799	1.66900	55.59573
2074.21875	49.46405	-17.14201	4.08683	56.07089
2078.12500	41.50651	-19.42008	0.05779	49.36294
2082.03125	44.95700	-16.73533	-4.37415	52.21513
2085.93750	49.46062	-15.50231	0.05845	55.24889
2089.84375	48.34663	-17.10957	4.49109	53.96014
2093.75000	43.52948	-15.78090	4.89439	54.66449
2097.65625	35.93712	-15.68636	4.89475	53.14136
2101.56250	40.33114	-14.39266	5.29807	50.36761
2105.46875	45.11387	-8.53360	1.26909	47.56092
2109.37500	51.82881	-9.29358	-1.95405	50.41499
2113.28125	50.31850	-13.23747	-2.75956	46.27988
2117.18750	36.42500	-7.96943	-8.40028	35.37301
2121.09375	31.18075	-4.80148	-3.56472	37.23738
2125.00000	40.28876	-7.16250	3.28546	39.66096
2128.90625	39.90965	-5.47326	5.70343	35.31400
2132.81250	38.45596	-4.26767	9.33014	36.58258
2136.71875	30.47730	-7.95546	5.30119	35.13439
2140.62500	19.46548	-11.74172	-1.95122	30.92669
2144.53125	21.25035	-7.76626	0.86961	32.34291
2148.43750	27.52881	-5.64412	2.48175	37.69007
2152.34375	38.21808	-2.16178	-1.95013	39.29907
2156.25000	41.06791	-1.54229	-1.14397	35.90177
2160.15625	31.32449	-5.40335	2.48278	30.60065
2164.06250	24.62437	-7.52869	-3.56080	32.84351
2167.96875	28.00690	-8.59354	-2.35164	35.80314
2171.87500	39.99193	-2.07785	6.11037	35.92280
2175.78125	38.39481	1.60060	7.31958	39.69068
2179.68750	22.38767	0.10491	8.52872	37.44015
2183.59375	26.18769	-0.41090	2.88796	31.87566
2187.50000	17.98964	-7.06598	-2.75272	22.81799
2191.40625	12.00347	-8.44108	-1.54360	18.82739
2195.31250	23.68977	-0.53964	-0.33445	17.89782
2199.21875	16.78902	3.56849	-1.94578	19.18453
2203.12500	19.84522	1.09073	-8.39225	24.58132
2207.03125	22.86918	0.55226	-4.76549	28.96501
2210.93750	24.41897	4.94577	5.30807	27.12719
2214.84375	18.74126	3.32168	0.07033	20.09340
2218.75000	4.82191	2.56438	-8.39091	16.10338
2222.65625	9.97411	0.99872	-3.15253	18.59097
2226.56250	11.61851	1.77097	-1.54045	17.58390
2230.46875	12.82312	9.48181	-1.13722	13.70865
2234.37500	16.33393	11.57686	6.11586	18.48854
2238.28125	14.66295	7.16191	4.10159	17.69993
2242.18750	18.27624	-3.11061	-5.97123	13.47424
2246.09375	18.47746	0.21664	-7.98543	11.64395
2250.00000	15.14201	6.38211	-3.55276	8.82055
2253.90625	12.88481	6.90421	2.49156	11.89184
2257.81250	6.40098	5.26954	7.32709	11.46627
2261.71875	1.17760	-4.39436	-0.73112	19.27574
2265.62500	3.53864	-4.11161	-9.99815	21.61901
2269.53125	12.88697	9.35295	-5.16265	14.10185
2273.43750	13.68077	12.67938	-2.34181	13.21757
2277.34375	7.42225	6.95819	-0.32677	10.68575
2281.25000	12.61352	3.18445	-0.32648	8.96935
2285.15625	14.72489	1.67754	-5.96720	9.62705
2289.06250	6.50043	2.68528	-2.34044	11.44588
2292.96875	5.88006	10.37323	4.91267	9.59575
2296.87500	8.45431	11.01720	0.07785	7.29035
2300.78125	10.62337	7.53061	-2.74231	7.50692
2304.68750	14.53087	9.92520	-4.35376	8.69744
2308.59375	13.74512	11.36554	-3.95053	9.73962
2312.50000	17.74357	12.88578	4.51133	15.15489
2316.40625	15.14235	5.35807	7.73511	16.18363
2320.31250	6.03366	0.57876	4.91490	6.39756
2324.21875	6.14098	9.74832	8.13873	10.75713
2328.12500	10.87473	10.01325	9.34788	20.68801
2332.03125	6.21511	2.09208	3.70724	17.83540
2335.93750	3.32291	-1.95982	9.34862	14.80130
2339.84375	7.66008	3.27538	12.16950	14.07496
2343.75000	12.87981	5.97768	7.33471	14.98197
2347.65625	14.42798	1.85552	14.58782	17.31054
2351.56250	18.09222	0.96640	9.75305	21.69560
2355.46875	22.57652	-0.45882	-0.72283	19.66666
2359.37500	15.05529	-1.30894	1.69513	13.58864
2363.28125	9.31250	2.23372	4.11309	16.11147
2367.18750	6.28253	3.41422	5.72522	15.73577
2371.09375	21.19687	2.66567	12.97830	18.30323
2375.00000	19.34133	-2.22434	13.78449	17.08802
2378.90625	-0.42637	-1.49433	7.33795	9.34663
2382.81250	3.44453	4.15158	8.54713	10.49526
2386.71875	11.82574	13.07918	0.08590	5.89915
2390.62500	17.19615	12.03201	-5.15186	7.28588
2394.53125	9.36701	0.80556	2.10125	8.68975
2398.43750	2.68542	0.29675	2.90742	-1.89593
2402.34375	4.48662	0.03958	1.29606	0.12113
2406.25000	0.02479	-3.80169	2.90804	6.74138
2410.15625	-0.30525	-4.37119	4.11713	6.40100
2414.06250	5.58866	-3.05008	4.52041	8.59001
2417.96875	2.20580	-0.37191	14.19113	9.65930
2421.87500	5.12900	2.38145	11.37099	6.71880
2425.78125	7.53177	1.52515	-0.31356	8.59159
2429.68750	11.04781	-4.63320	1.70147	10.43879
2433.59375	10.87395	-3.71287	4.11941	13.98829
2437.50000	0.53698	2.54096	1.29928	17.80747
2441.40625	9.74624	1.50021	-1.92385	12.53009
2445.31250	22.63842	4.07650	-8.37041	6.60941
2449.21875	15.43638	5.20809	-2.72901	7.33699
2453.12500	3.91829	3.65822	3.31532	5.96904
2457.03125	7.74384	3.79535	6.94205	7.22593
2460.93750	10.22297	7.05906	16.20976	8.25748
2464.84375	7.84165	7.47590	17.41887	11.66440
2468.75000	3.22589	5.81722	10.56949	7.99833
2472.65625	4.52025	6.17573	4.92884	-0.13072
2476.56250	5.29321	2.18180	7.74977	-2.34754
2480.46875	4.49114	3.33708	10.97357	1.12433
2484.37500	6.21797	-0.36803	8.55632	7.62603
2488.28125	9.50030	-2.39843	13.79484	10.02596
2492.18750	7.90140	3.44341	11.78067	5.78957
2496.09375	2.46180	0.92364	8.96061	-0.03620
2500.00000	4.99103	1.20671	7.75215	0.77210
2503.90625	3.62148	-2.94016	2.11147	0.11790
2507.81250	5.67278	-4.12430	4.93234	4.16928
2511.71875	14.52218	4.33236	5.33565	7.64126
2515.62500	2.89327	8.88653	9.76827	7.71504
2519.53125	2.00615	7.10860	15.00680	12.41114
2523.43750	6.45009	-1.05132	17.82774	12.48903
2527.34375	0.21732	0.23930	8.96374	4.54426
2531.25000	2.68135	5.22350	1.30846	5.45427
2535.15625	15.88091	6.32909	10.57623	9.22829
2539.06250	24.50800	6.53185	14.60588	9.82652
2542.96875	15.45756	4.88955	10.17402	13.28779
2546.87500	4.01843	8.27666	2.92166	6.72825
2550.78125	5.07241	9.34730	2.51914	4.89943
2554.68750	8.82012	3.73090	3.32535	5.32004
2558.59375	0.33820	-1.33407	4.93748	5.48618
2562.50000	4.39798	-4.46422	11.38478	8.12910
2566.40625	7.80470	-3.38175	4.53534	1.86163
2570.31250	5.63105	-3.83902	4.13278	1.17107
2574.21875	5.12053	1.90151	13.80354	6.07860
2578.12500	2.40094	0.02655	8.16290	2.99712
2582.03125	4.64273	-4.54140	2.92519	-1.00039
2585.93750	7.13179	2.73571	5.74616	1.22756
2589.84375	0.37678	-0.88607	4.94068	-1.26992
2593.75000	3.61827	-3.58664	7.35866	-0.16273
2597.65625	11.74018	-4.29791	6.55318	7.17863
2601.56250	13.71663	-5.82462	5.34478	4.40489
2605.46875	7.21728	4.06385	5.74809	2.40408
2609.37500	1.03847	6.93035	6.95722	4.45230
2613.28125	4.76620	0.56891	6.15173	7.97294
2617.18750	3.76657	-1.81866	1.31705	5.93057
2621.09375	14.63948	5.78153	4.13794	5.78030
2625.00000	14.88303	7.04690	3.73538	9.00975
2628.90625	2.81911	1.08057	6.95921	2.24530
2632.81250	0.96257	1.07742	7.76551	-2.53002
2636.71875	-2.98682	-3.41624	2.12491	2.06573
2640.62500	-6.34300	-7.60549	4.94587	3.09615
2644.53125	-4.15524	-4.03298	3.73756	4.51225
2648.43750	-1.90620	-2.31366	-3.51481	-1.01980
2652.34375	1.53033	-4.06942	4.14120	-9.88704
2656.25000	-2.06685	-1.83817	13.00605	-5.22573
2660.15625	-5.76641	-3.28165	8.17120	2.36699
2664.06250	2.44186	-7.42166	6.15697	0.17749
2667.96875	-2.63711	-4.45717	11.39551	-4.51858
2671.87500	-10.79859	-2.77660	6.15787	-3.19021
2675.78125	-8.76932	-3.93314	4.94952	-7.07809
2679.68750	-7.85336	0.61526	5.35294	-8.52277
2683.59375	-6.06797	-1.51217	-1.89932	-6.43157
2687.50000	3.86592	-3.33198	10.99491	-5.81893
2691.40625	5.13250	-3.90122	13.41280	1.06960
2695.31250	-6.55126	-2.84948	-5.92744	-4.29232
2699.21875	-6.60225	4.07917	-5.52405	-5.82614
2703.12500	4.91538	7.24251	3.74374	-0.83223
2707.03125	-0.92523	4.68957	2.53532	-7.73054
2710.93750	-11.46336	-1.79578	0.52108	-5.13615
2714.84375	1.79674	-0.19624	5.35667	1.52978
2718.75000	0.36822	5.89641	6.96889	-0.84847
2722.65625	-8.58218	1.51039	2.13415	-2.79304
2726.56250	-8.14662	-4.97006	2.94041	-7.02348
2730.46875	-7.34492	-5.72064	6.97021	-8.48116
2734.37500	-1.81936	-4.02828	-3.50553	-11.35694
2738.28125	-5.10195	-3.60783	-9.95198	-8.11622
2742.18750	-11.15897	-5.82150	0.92751	-6.70084
2746.09375	-6.12258	-4.50880	8.98656	-8.93411
2750.00000	5.04739	-6.80476	7.37524	-6.51936
2753.90625	6.41653	-5.47670	1.73467	-5.86563
2757.81250	-6.51417	-3.88784	0.92918	-0.65017
2761.71875	-8.11117	-4.68717	-0.27914	5.95052
2765.62500	-4.13849	-6.82193	-3.09927	3.45865
2769.53125	0.77752	-5.04217	-0.27824	-0.43203
2773.43750	15.27093	1.10497	0.52812	5.53366
2777.34375	4.58027	-2.19854	6.16957	11.46337
2781.25000	-11.58366	-9.19560	5.76704	0.07673
2785.15625	-8.66637	-16.74633	-0.27658	-11.35347
2789.06250	-16.89088	-11.30620	3.35020	-12.75803
2792.96875	-15.09360	-1.20051	1.73896	-8.56413
2796.87500	-12.92212	-9.42085	-1.48404	-12.88405
2800.78125	-10.35000	-12.50430	0.93395	-9.84682
2804.68750	-1.20425	-11.72126	4.15780	-0.59762
2808.59375	-2.79583	-6.25136	8.59047	-0.36118
2812.50000	-0.00610	2.92475	19.87296	8.27757
2816.40625	-0.18973	1.84416	16.24711	7.69466
2820.31250	-3.65735	2.70613	-0.27260	1.53499
2824.21875	5.31442	2.60842	4.96584	3.87990
2828.12500	-1.23383	6.49984	5.36921	0.11112
2832.03125	1.35931	14.69592	2.95205	5.31706
2835.93750	8.54028	17.89684	13.02586	5.90926
2839.84375	7.63936	11.04418	7.38529	-2.47277
2843.75000	0.36818	0.44981	-1.47875	-9.22153
2847.65625	-11.38047	-0.85175	0.13344	-8.50467
2851.56250	1.95425	-5.77015	5.77502	-5.32839
2855.46875	1.20050	-7.19522	5.37255	-9.37193
2859.37500	-1.88827	-4.41884	3.35837	-8.60015
2863.28125	-1.58707	-6.11427	0.53831	-4.06266
2867.18750	-13.48150	-2.51611	6.58268	-10.88508
2871.09375	-9.44638	-0.44415	14.23879	-3.48246
2875.00000	-7.27259	1.91860	2.15126	3.36094
2878.90625	-8.10255	-1.38071	-4.29523	-1.96284
2882.81250	-3.02281	-4.19636	-1.47429	-4.84355
2886.71875	-6.32646	-3.32734	0.13783	-4.60450
2890.62500	-0.55302	-1.15105	5.77939	-0.80013
2894.53125	3.30273	-3.11018	9.80916	1.81253
2898.43750	-1.36423	-9.66292	9.00374	2.10601
2902.34375	-1.98054	-3.87618	11.01884	4.92887
2906.25000	-2.01023	1.14707	10.61634	4.69929
2910.15625	-0.32574	-2.24293	11.01971	1.94137
2914.06250	10.80627	-0.92170	19.48164	8.96558
2917.96875	11.04973	-0.66100	13.43814	10.43777
2921.87500	4.70549	-2.74266	2.15651	4.27378
2925.78125	5.89941	-6.01636	2.15695	4.93775
2929.68750	-2.67249	-5.32476	6.18669	2.35274
2933.59375	-2.84646	-4.00135	17.87217	3.88756
2937.50000	0.91906	-7.41777	18.27559	8.91546
2941.40625	2.47270	0.40605	16.26140	9.68213
2945.31250	5.29177	1.77362	14.65010	6.98491
2949.21875	-0.29855	-3.94447	4.57730	-0.74908
2953.12500	-3.35515	-3.88251	6.59242	-1.31124
2957.03125	-2.75307	-5.75986	4.57818	1.55737
2960.93750	-1.88568	-2.89904	-1.46538	3.39477
2964.84375	-2.25244	-4.09382	-1.06211	-2.46577
2968.75000	-0.82435	-7.36416	4.17638	-1.69957
2972.65625	4.90219	-2.17048	10.22077	9.91496
2976.56250	0.03409	2.29718	9.81830	8.10108
2980.46875	-1.57381	-3.39724	12.23628	5.52902
2984.37500	2.97352	-2.67011	7.80456	2.76328
2988.28125	-0.19116	-0.26818	-0.65658	-3.70125
2992.18750	-2.99897	-1.27616	2.97020	-1.08782
2996.09375	-1.99179	4.66565	6.19416	-2.48142
