 	TP9	AF7	AF8	TP10	
-1000.00000	19.05718	2.61662	2.20338	4.62342
-996.09375	17.84224	0.59960	5.02366	9.04893
-992.18750	25.49169	0.19425	5.02348	26.36819
-988.28125	25.88841	2.60949	0.18811	25.55548
-984.37500	15.80889	-0.61629	-1.02084	13.05769
-980.46875	16.20545	0.18720	2.60529	13.85654
-976.56250	14.18446	1.39365	0.18746	15.46124
-972.65625	9.74586	-2.63794	0.18728	23.10995
-968.75000	13.76873	-1.83435	0.99300	21.89408
-964.84375	12.15052	-1.03081	2.60449	14.63425
-960.93750	7.30891	-3.45074	4.21598	10.19497
-957.03125	4.07897	-1.43843	3.00692	9.38204
-953.12500	0.84902	-2.24667	1.79789	11.79249
-949.21875	2.85712	-3.05488	-2.63461	5.74135
-945.31250	10.50625	-4.26604	-3.03778	2.91359
-941.40625	14.12601	-3.86546	-1.82930	5.32402
-937.50000	14.11939	-0.64435	-0.21776	10.95792
-933.59375	15.32158	1.77086	0.99082	12.56243
-929.68750	13.30033	-0.24612	-0.21822	8.52595
-925.78125	13.29377	-5.48658	2.19912	10.93640
-921.87500	10.46676	-3.87721	3.00467	7.70582
-917.96875	11.26618	-3.87957	3.00437	12.93684
-914.06250	14.48316	-4.68770	4.61578	28.24104
-910.15625	10.85023	-3.48125	2.60087	17.75767
-906.25000	11.24671	-3.88648	4.61524	8.48320
-902.34375	14.46371	-2.68004	8.64427	14.92308
-898.43750	14.86028	2.15276	8.64397	17.33356
-894.53125	13.64510	3.35921	8.24076	12.08841
-890.62500	11.62410	2.55099	7.03165	9.26094
-886.71875	7.18553	2.54866	5.41960	6.43352
-882.81250	22.49052	4.96391	-0.22167	16.49978
-878.90625	20.87246	8.58799	0.58387	16.49280
-875.00000	-17.81517	4.15342	5.82166	-14.94271
-871.09375	-23.05959	0.52478	5.82134	-18.17303
-867.18750	-26.69237	1.73121	7.83568	-21.00060
-863.28125	-42.01015	-1.49452	5.41774	-44.78040
-859.37500	-40.40472	-0.69095	1.79105	-40.35510
-855.46875	-37.18767	0.91844	1.79071	-32.30349
-851.56250	-31.55309	-11.97762	2.99915	-29.08707
-847.65625	-25.11257	-23.26204	5.01346	-23.85594
-843.75000	-22.70129	-26.08485	3.80435	-22.25119
-839.84375	-19.88708	-24.87835	2.59522	-19.43750
-835.93750	-19.49036	-22.46308	2.99781	-19.84744
-832.03125	-11.84106	-19.64491	2.99746	-10.98991
-828.12500	-7.41512	-16.02083	4.60883	-8.57932
-824.21875	-5.40680	-14.81432	4.60849	-17.45082
-820.31250	-0.17499	-14.81659	5.41402	-8.99625
-816.40625	-2.19594	-12.40129	6.21963	-2.55639
-812.50000	1.02121	-10.79193	5.41339	-4.17498
-808.59375	3.83540	-10.39131	5.01018	-3.77891
-804.68750	-3.82664	-12.40824	2.18934	-0.96536
-800.78125	-9.07105	-15.63401	0.17425	-0.56931
-796.87500	-4.64509	-16.03925	1.38269	-2.18796
-792.96875	-0.21913	-7.98288	3.39695	3.04324
-789.06250	5.41573	-3.55294	6.21709	11.49794
-785.15625	8.63289	-4.36104	9.44014	12.69984
-781.25000	9.43251	-1.94570	8.63393	3.02259
-777.34375	8.21741	-2.75381	6.21608	1.40397
-773.43750	5.39067	-3.15898	2.18648	5.02345
-769.53125	9.01073	-0.74360	1.78319	11.86648
-765.62500	9.81036	-2.76048	4.20047	9.03920
-761.71875	9.80412	-4.77734	4.60306	5.40597
-757.81250	8.99196	-3.16788	6.61741	19.09859
-753.90625	7.77688	-4.78180	9.43763	20.30047
-750.00000	8.57647	-3.17233	10.64609	11.42909
-746.09375	12.19672	0.85476	9.43702	14.24272
-742.18750	8.16131	0.44966	7.01907	13.02712
-738.28125	6.14047	-0.76137	7.42162	11.40862
-734.37500	4.92550	-1.16656	6.21255	10.99888
-730.46875	1.29291	-4.79511	5.00341	8.97739
-726.56250	0.07794	-6.00614	5.00309	7.35886
-722.65625	-2.74881	-2.38205	4.19691	-3.12412
-718.75000	0.06557	-1.98127	1.37606	6.94238
-714.84375	5.70038	-3.59525	4.19630	13.78543
-710.93750	4.88836	-2.38867	8.22528	3.70532
-707.03125	2.06170	2.84722	5.00148	4.90733
-703.12500	2.86139	4.85965	1.77767	0.06547
-699.21875	9.70505	0.82812	4.19491	2.07337
-695.31250	8.49009	1.22884	4.59746	9.31934
-691.40625	3.24580	6.06178	2.58243	8.90953
-687.50000	3.23961	6.86541	-1.04435	9.30567
-683.59375	4.03940	3.63976	-3.05938	6.88137
-679.68750	6.85379	2.02587	-0.64224	8.48639
-675.78125	10.87696	4.44127	2.58081	13.71771
-671.87500	11.27378	4.03608	3.38626	8.47287
-667.96875	8.04423	3.63091	0.96831	7.25737
-664.06250	8.44105	6.04630	-0.64385	7.65356
-660.15625	4.00281	6.04408	-1.45006	7.64687
-656.25000	5.60843	2.01261	-0.64459	7.64017
-652.34375	4.79645	-2.01884	0.56383	4.40999
-648.43750	-2.05940	-1.61812	1.77223	7.22383
-644.53125	-2.87134	-0.00859	2.57767	3.99376
-640.62500	-0.45980	-2.02546	3.38312	-2.86275
-636.71875	-5.70398	-0.81889	1.36808	-0.45188
-632.81250	-8.12770	0.38768	-3.87042	-0.45859
-628.90625	-0.07515	-2.43515	1.77024	-0.06226
-625.00000	5.15689	1.99486	8.21678	9.60143
-621.09375	5.55368	7.23071	9.02226	14.02706
-617.18750	4.74174	9.24309	8.61891	6.76772
-613.28125	7.15333	12.06133	9.42440	1.12015
-609.37500	6.74435	16.08840	11.43862	0.71050
-605.46875	2.70903	16.08621	9.02057	2.71847
-601.56250	5.12068	14.47231	5.79668	-2.12322
-597.65625	8.33802	15.67893	5.39335	-2.93577
-593.75000	9.94378	15.67677	4.58712	9.54842
-589.84375	8.32624	15.67465	4.58673	7.93030
-585.93750	11.14097	20.10474	7.40686	1.87988
-582.03125	14.76150	18.89390	6.60064	11.94673
-578.12500	15.15870	14.45956	5.79439	11.13452
-574.21875	15.55587	15.66628	6.59985	-0.55684
-570.31250	11.52090	15.26126	7.80824	-2.17487
-566.40625	9.09769	12.84158	6.19613	-3.39002
-562.50000	13.12122	11.63075	2.56934	1.43880
-558.59375	19.56235	11.22573	4.58360	13.92332
-554.68750	20.76534	11.22365	4.98617	17.54337
-550.78125	16.73026	10.81863	4.98577	9.88136
-546.87500	9.06882	11.62244	9.41762	7.05452
-542.96875	24.37440	12.02328	11.43188	21.15066
-539.06250	35.24776	5.97728	6.59627	31.21752
-535.15625	28.39218	0.33422	4.58122	34.83753
-531.25000	32.81856	6.37609	6.19259	37.65154
-527.34375	37.24488	12.41800	6.99806	39.25679
-523.43750	37.64200	11.20719	8.60942	39.65331
-519.53125	35.62156	12.41396	9.41500	31.18543
-515.62500	31.58648	7.97965	11.42933	30.37321
-511.71875	28.76022	6.76883	6.59380	28.75515
-507.81250	27.14270	7.57270	2.16130	27.53998
-503.90625	24.31645	4.34720	3.36970	25.92188
-500.00000	20.68431	0.31583	3.77231	29.13902
-496.09375	20.67852	-2.90971	2.16027	32.75908
-492.18750	20.67271	-0.49416	2.15994	27.11173
-488.28125	17.04059	1.11556	3.36835	25.49372
-484.37500	14.21430	2.72524	1.75631	20.65226
-480.46875	15.41725	1.51442	-1.46746	14.60192
-476.56250	21.45550	-0.09930	-3.07948	20.23657
-472.65625	24.27020	4.33092	1.75529	23.45360
-468.75000	19.02630	5.13476	4.17253	20.62670
-464.84375	17.40879	3.11814	2.56041	18.20270
-460.93750	16.19431	2.71319	2.96296	20.21092
-457.03125	15.38262	2.71118	2.96255	22.62205
-453.12500	16.98859	3.91798	1.35038	21.00391
-449.21875	19.40047	3.91599	-1.06757	24.62403
-445.31250	17.38004	5.52567	-1.06792	26.22937
-441.40625	12.53919	10.35886	-1.47121	14.94102
-437.50000	17.36865	9.55103	-0.26277	12.92017
-433.59375	12.93077	8.34025	4.57205	13.71971
-429.68750	8.89576	8.33825	4.57167	14.92217
-425.78125	15.73985	11.55971	4.97421	18.94525
-421.87500	11.70491	9.94603	3.76501	10.07462
-417.96875	5.25239	3.90012	0.13819	8.05372
-414.06250	7.66437	7.12163	0.94368	11.67386
-410.15625	6.44998	8.32850	3.76377	8.84717
-406.25000	1.20632	10.34119	2.55457	9.64685
-402.34375	4.02122	11.95093	2.15127	7.22303
-398.43750	5.22437	5.90505	-0.26679	0.76995
-394.53125	0.38358	1.87381	-0.67016	-0.84802
-390.62500	5.21313	2.67769	2.95586	3.57807
-386.71875	6.01334	5.89923	4.56717	2.76601
-382.81250	1.97839	7.50907	5.37266	-1.67252
-378.90625	3.18157	8.71588	2.55183	1.14176
-375.00000	1.56427	9.92277	1.74561	4.76198
-371.09375	3.97620	12.33846	3.75986	3.94984
-367.18750	1.55302	9.11305	6.17706	3.54077
-363.28125	1.54742	5.88771	8.19133	8.36973
-359.37500	11.21206	9.91509	7.78799	9.16937
-355.46875	11.60937	11.92784	6.98172	5.53683
-351.56250	12.81258	13.53770	6.17548	11.57463
-347.65625	17.23919	13.93867	5.36918	19.22423
-343.75000	14.81612	15.14557	2.14540	9.14484
-339.84375	11.18419	13.93489	1.33906	-0.12868
-335.93750	3.92583	10.30662	1.74162	-2.95527
-332.03125	1.09977	9.49889	1.74124	-2.55835
-328.12500	4.31774	7.07941	2.54667	-1.35554
-324.21875	7.13278	5.46577	1.33744	4.68239
-320.31250	4.70968	5.06102	0.93414	7.49681
-316.40625	3.49533	5.46203	4.56011	5.47610
-312.50000	3.08690	5.86309	4.96270	5.87310
-308.59375	3.48435	4.24951	0.93301	5.86710
-304.68750	5.49351	3.03883	-0.67916	-0.98880
-300.78125	-2.57055	0.61934	-1.48541	-5.42706
-296.87500	-6.20238	-1.80016	-0.68000	-1.00085
-292.96875	-4.19316	-3.81670	-2.69506	-0.20101
-289.06250	0.23362	-4.22149	-0.68081	3.01643
-285.15625	0.63108	-3.01459	4.15401	-0.21301
-281.25000	-0.58308	-1.00181	3.75067	-5.45707
-277.34375	3.03782	-0.19785	0.12388	-3.04548
-273.43750	1.01774	-5.84073	-3.50291	-4.66315
-269.53125	-3.41992	-2.61917	-7.12973	-3.05739
-265.62500	1.40986	0.19954	-2.29495	-0.64576
-261.71875	-0.20740	-2.21992	2.53976	-6.69582
-257.81250	-4.64516	-2.62470	1.73349	-8.31361
-253.90625	-3.84457	0.19403	3.34481	-4.29020
-250.00000	-2.23815	0.19215	2.53860	-5.10188
-246.09375	-3.04940	-0.21267	-0.68523	-5.91362
-242.18750	-5.06953	-0.61744	0.52317	-9.14300
-238.28125	-2.25446	2.60413	4.55209	-11.56650
-234.37500	-1.45401	1.79643	5.35760	-2.70790
-230.46875	3.37578	-1.02593	3.74556	1.71834
-226.56250	3.77329	0.18102	4.14817	-3.92860
-222.65625	-3.48484	-0.22381	5.75953	-0.30815
-218.75000	-2.68432	1.38610	6.16215	6.53577
-214.84375	3.75718	3.80195	8.17647	5.72406
-210.93750	4.96070	4.20316	7.77321	11.35925
-207.03125	10.59649	5.00729	9.78754	12.15932
-203.12500	10.59125	5.00555	10.99606	5.30374
-199.21875	3.33325	2.18331	8.17528	-0.74596
-195.31250	4.93962	-3.86241	8.57785	1.66583
-191.40625	2.91964	-3.86413	9.78630	11.33045
-187.50000	0.49673	-1.44827	9.78598	9.71297
-183.59375	1.29731	-3.86762	11.80030	-2.38078
-179.68750	-2.73726	-6.28689	10.18824	-8.43045
-175.78125	-6.77182	-5.48276	6.96438	-14.88305
-171.87500	-12.01516	-4.27567	3.74054	-14.48587
-167.96875	-7.18516	-1.05391	-0.28918	-4.82126
-164.06250	1.27118	-4.27905	2.93387	1.21690
-160.15625	-7.59845	-7.50419	5.35102	-4.42979
-156.25000	-6.79769	-5.49127	5.75356	-11.28515
-152.34375	-3.98230	-5.89588	6.96202	-7.26155
-148.43750	-8.82265	-4.68876	6.96166	-2.43208
-144.53125	-6.41014	-3.88464	6.96130	-0.82596
-140.62500	-7.62408	-5.09511	5.34918	-4.05509
-136.71875	-9.64387	-5.09682	4.54295	-2.44899
-132.81250	-2.39620	-1.06922	5.34844	2.78356
-128.90625	-2.40132	-0.26508	4.94521	0.76329
-125.00000	-5.62990	-3.89315	5.34772	-4.88337
-121.09375	-3.21735	-5.10357	6.15323	-8.51538
-117.18750	-2.41657	-4.29943	5.34693	-6.50632
-113.28125	-1.61575	-4.30109	4.54070	-0.06493
-109.37500	-0.41205	-1.88518	3.73451	-3.29385
-105.46875	-4.44644	0.93372	2.52533	-6.11988
-101.56250	-1.63099	-0.27675	3.33080	-3.70791
-97.65625	1.99042	-3.50188	3.73336	-3.31043
-93.75000	-1.23806	-4.71230	5.34462	-1.70418
-89.84375	-0.43726	-5.92270	4.94134	4.73711
-85.93750	-0.44226	-8.34191	2.92628	-0.50649
-82.03125	-6.89415	-11.16410	0.50827	-7.36181
-78.12500	-8.51087	-12.77741	-1.50683	-7.77034
-74.21875	-5.29248	-8.34680	-0.70145	-4.14952
-70.31250	4.77579	-3.11032	2.11870	3.50058
-66.40625	14.84407	-1.90317	3.32701	11.15077
-62.50000	5.97469	0.51280	2.11783	0.26621
-58.59375	3.14935	-6.33863	3.72903	-5.78314
-54.68750	17.64993	-9.16082	5.34027	10.32871
-50.78125	32.95630	-1.90969	2.11646	24.02293
-46.87500	40.20417	-1.10540	0.10131	27.24108
-42.96875	34.96127	-3.52461	1.71264	28.84748
-39.06250	31.33010	-3.12328	-1.91418	34.88605
-35.15625	31.72820	-1.91609	-4.33213	35.28370
-31.25000	38.17035	-1.11177	-1.10911	32.05502
-27.34375	41.79195	2.51299	0.90512	35.27320
-23.43750	39.36967	0.49678	0.90472	31.64154
-19.53125	38.96199	-6.75756	1.71014	31.23343
-15.62500	34.52507	-1.52105	3.32144	36.06342
-11.71875	31.69992	2.90961	4.52987	34.04360
-7.81250	33.70986	-3.13594	6.54413	29.60611
-3.90625	31.28750	-5.55512	7.75247	27.18327
0.00000	22.82120	-3.13909	5.33439	27.98384
3.90625	21.60757	-1.12599	2.51343	27.97856
7.81250	19.99097	-3.54516	4.93055	29.58497
11.71875	17.16562	-5.56142	5.33298	25.95330
15.62500	11.11686	-4.75716	2.10919	7.41322
19.53125	9.09741	-3.14697	2.91461	5.79626
23.43750	14.33072	0.07496	4.12297	14.65551
27.34375	20.77285	0.47629	6.94303	20.69419
31.25000	17.94761	1.68349	7.34549	21.89778
35.15625	12.30190	5.71120	6.13631	17.86318
39.06250	10.28251	2.48621	6.53874	13.82865
42.96875	11.08365	2.08174	5.32949	15.43523
46.87500	15.51117	6.10945	6.13498	26.30913
50.78125	16.31231	2.48148	6.53743	20.66289
54.68750	15.50168	4.49456	7.74575	17.43415
58.59375	11.06466	4.09006	8.14820	23.87576
62.50000	5.41889	-2.35841	5.73013	15.00605
66.40625	6.62295	-3.97169	3.71504	5.33059
70.31250	9.03580	-2.36147	5.32627	9.35472
74.21875	9.83694	-0.34838	7.34046	12.57301
78.12500	9.42929	0.45591	5.72829	8.94141
82.03125	9.02173	0.05147	2.90733	6.11572
85.93750	11.03174	-1.15889	1.69806	6.11057
89.84375	6.99779	4.07771	1.69756	6.91125
93.75000	4.57557	5.28495	2.50292	6.90608
97.65625	7.79437	-1.16342	3.71123	5.28924
101.56250	4.96921	-2.37374	6.53122	-2.37160
105.46875	-0.67647	1.65407	4.51606	-2.37672
109.37500	2.54236	4.47309	4.91854	6.07972
113.28125	3.34361	2.85991	7.73857	5.26885
117.18750	3.33899	-0.36502	3.70879	-2.39192
121.09375	4.94611	-1.57525	2.09659	-1.18821
125.00000	4.94151	0.43798	4.51362	0.41846
128.90625	7.35452	0.83945	4.11022	0.41345
132.81250	6.94713	0.83798	7.33313	6.45237
136.71875	11.77770	-0.37228	10.15322	7.65612
140.62500	5.72922	1.64095	5.31752	4.42766
144.53125	-0.72219	-2.38981	2.89949	4.01979
148.43750	3.70555	-8.43522	4.51075	5.62651
152.34375	2.49223	-3.60146	7.73377	5.21863
156.25000	2.48770	-0.78239	8.13627	6.01951
160.15625	3.28905	-6.82778	4.50942	8.02924
164.06250	-2.35638	-9.64967	1.68848	1.57743
167.96875	-6.39010	-8.44230	-0.32659	-2.85976
171.87500	-3.57412	-6.83203	-2.34171	-0.04412
175.78125	-7.20501	-6.43046	-1.53633	-10.52522
179.68750	-3.18014	-5.22306	-2.74558	-7.70968
183.59375	19.37958	-2.00106	-5.16359	17.67004
187.50000	-1.57722	-2.80830	0.07403	-2.88425
191.40625	-31.80150	-3.61551	2.08826	-29.07955
195.31250	-32.61175	-5.63153	2.08778	-27.87579
199.21875	-45.10705	-4.02114	0.87851	-43.19198
203.12500	-52.36420	-4.02247	-1.53957	-51.25546
207.03125	-49.14516	-10.47062	1.68337	-40.78413
210.93750	-48.74667	-10.87498	0.87705	-45.22121
214.84375	-44.72163	-7.65288	-2.74979	-48.85238
218.75000	-38.27922	-8.05721	-1.94442	-39.18693
222.65625	-33.04546	-7.65554	1.27856	-33.55073
226.56250	-25.39407	-4.83632	4.09863	-29.12321
230.46875	-21.77199	-0.00238	2.88936	-21.87530
234.37500	-21.77629	2.41389	2.88885	-19.05961
238.28125	-16.94535	-0.00492	6.11181	-16.64680
242.18750	-15.33798	-1.21504	9.33472	-13.83106
246.09375	-18.16276	-4.84272	7.72245	-17.05927
250.00000	-17.36125	-6.45570	3.69265	-14.24358
253.90625	-13.33624	-3.63650	5.30385	-9.81611
257.81250	-16.96686	-2.83196	5.70631	-22.71467
261.71875	-16.16540	0.39018	2.88530	-23.52525
265.62500	-12.14047	-2.83456	0.87013	-15.47154
269.53125	-11.74188	-6.86514	-0.74216	-17.89403
273.43750	-10.94046	-2.83714	-1.14557	-19.91348
277.34375	-13.76534	-1.22666	-1.14610	-21.12709
281.25000	-9.33749	-2.03386	-1.54956	-18.71436
285.15625	-12.56527	-1.22929	-3.16175	-14.28686
289.06250	-17.40480	1.58989	-2.75934	-14.29166
292.96875	-9.35058	4.40908	-0.74518	-14.29640
296.87500	-2.90799	3.19894	2.07492	-10.67465
300.78125	-5.32987	1.98886	2.47731	-8.66470
304.68750	-3.31948	3.19630	0.86509	-5.04300
308.59375	-0.50324	2.38912	-1.95600	-3.83884
312.50000	-1.71630	4.80541	-4.37401	-3.84343
316.40625	3.51761	11.25102	-3.56864	-2.23622
320.31250	3.11056	11.24973	-0.34568	-6.27005
324.21875	6.73288	10.03964	0.05672	5.00761
328.12500	7.53469	7.21786	-1.95843	9.43538
332.03125	1.88965	2.38139	0.86162	-0.23934
335.93750	8.73545	3.18599	4.08454	5.80011
339.84375	13.56655	3.18477	1.26351	8.61617
343.75000	8.32448	6.40699	-1.55749	4.98542
347.65625	9.52930	8.01757	-1.15506	10.62201
351.56250	9.12233	9.22521	-2.36435	8.20003
355.46875	3.47737	7.61228	-1.55899	3.76344
359.37500	5.08508	7.20819	-3.57418	-1.88202
363.28125	7.90160	6.40110	-4.38054	-5.10982
367.18750	6.68876	3.17644	-0.35178	8.58539
371.09375	6.28180	5.59283	-1.15816	12.20732
375.00000	8.69540	7.60628	0.45304	9.78532
378.90625	7.88550	5.99339	2.06429	8.16917
382.81250	6.67261	1.55996	3.67544	6.15005
386.71875	7.47445	-0.45587	3.27195	5.74277
390.62500	6.26165	1.15467	2.06266	7.75304
394.53125	0.61654	4.77990	2.06208	3.31629
398.43750	1.01539	4.37579	0.04683	-3.13516
402.34375	0.20549	1.55412	1.25508	-3.13973
406.25000	-3.82796	2.76175	0.44868	-1.53250
410.15625	-6.65255	1.95471	2.05993	-6.37223
414.06250	-4.23917	1.14760	4.47693	0.87601
417.96875	0.99480	2.75818	5.28226	4.90086
421.87500	-1.42684	1.54821	3.67004	-0.74471
425.78125	3.80713	0.74117	0.84901	2.07126
429.68750	14.68208	3.56049	-0.76327	8.11066
433.59375	11.05160	7.18572	-2.77845	4.47974
437.50000	3.79475	6.37870	0.84742	-1.56874
441.40625	2.58182	2.34826	4.87616	2.45606
445.31250	7.00994	0.73541	4.06974	9.30142
449.21875	12.64694	2.34600	4.06916	16.54971
453.12500	15.46336	1.53903	4.06855	21.78334
457.03125	16.66812	-0.87972	2.85914	17.74961
460.93750	13.84363	-2.89552	2.85856	16.13353
464.84375	16.66014	-1.28485	5.27556	21.36721
468.75000	18.26793	2.74338	6.08093	17.73640
472.65625	13.02590	5.96576	4.87159	17.73202
476.56250	13.82784	5.96469	4.06518	18.53349
480.46875	13.42096	3.14308	2.45289	14.09691
484.37500	10.19355	5.55965	2.45236	14.49537
488.28125	13.41307	5.96156	1.64600	14.08813
492.18750	12.20036	0.72241	1.64547	7.63687
496.09375	11.79354	-0.48744	1.64490	6.82663
500.00000	16.62477	1.92910	2.45022	12.46330
503.90625	15.41206	2.33094	3.25553	6.81802
507.81250	15.40818	0.71820	2.85205	8.82838
511.71875	11.37505	0.71716	4.46317	13.65921
515.62500	3.71558	1.52195	3.25379	9.62568
519.53125	2.50293	-0.89672	2.44736	9.21854
523.43750	7.73722	-4.52416	6.87902	6.79677
527.34375	9.34509	-0.49593	10.50483	12.03065
531.25000	3.70026	0.71182	13.32480	15.65281
535.15625	4.50228	-0.49803	13.72709	8.79883
539.06250	5.30432	-1.30494	10.90602	3.55654
542.96875	2.48002	-4.52943	9.29374	7.98453
546.87500	6.90840	-7.35095	9.69603	10.80084
550.78125	8.51634	-5.33729	6.06912	9.58783
554.68750	1.25985	-1.71196	4.45680	9.58364
558.59375	-3.57901	-0.90712	8.08266	5.14724
562.50000	-5.59743	-3.32569	10.09679	-1.30376
566.40625	-6.80986	-6.14725	6.87280	-0.09908
570.31250	-9.23120	-3.73069	6.06646	1.91145
574.21875	-7.22032	-1.71711	10.09522	0.69851
578.12500	-6.41826	-4.94159	9.28881	-1.32033
582.03125	-10.45133	-8.56898	4.85602	-4.54801
585.93750	-9.24634	-6.55539	5.25832	-14.62546
589.84375	-6.42968	-4.54183	6.86946	-13.01798
593.75000	-5.62763	-4.54286	6.86885	-0.93429
597.65625	-3.61668	-6.55851	6.86823	-1.74429
601.56250	0.81177	-5.35072	2.43536	-2.95725
605.46875	6.44911	-0.91952	2.03184	5.09718
609.37500	6.84829	-2.53223	6.06050	7.51063
613.28125	4.42702	-3.33911	7.26862	3.88007
617.18750	3.21451	-0.51964	6.05926	1.05541
621.09375	6.43427	1.89699	7.26739	9.51283
625.00000	8.04228	-0.11854	9.28149	8.29993
628.90625	0.78587	-1.32824	5.25153	-6.20963
632.81250	-1.23237	-2.53791	5.25092	-4.60194
636.71875	1.18167	-0.92707	10.08558	3.45275
640.62500	7.22208	3.90725	8.07038	7.07518
644.53125	12.05371	1.48877	6.86104	7.87714
648.43750	10.84144	-1.73554	10.48683	8.27620
652.34375	6.40572	-0.12463	10.08339	7.06351
656.25000	3.98467	1.48620	3.63596	7.05966
660.15625	7.20468	0.27652	2.02374	8.26465
664.06250	6.79829	0.67855	4.84366	6.24616
667.96875	3.57144	-2.14290	5.24598	0.60127
671.87500	-0.05845	-6.97899	5.24539	-1.82008
675.78125	-2.07662	-5.36821	8.06535	3.41411
679.68750	1.14335	0.67474	10.07940	-1.02208
683.59375	5.57213	3.09134	5.24357	-0.62296
687.50000	7.58330	0.67282	4.43711	2.99954
691.40625	9.59440	1.07472	6.04825	2.59271
695.31250	7.57623	3.49130	2.01836	-1.44051
699.21875	4.75216	2.28149	3.62943	-1.44437
703.12500	5.15164	4.29519	6.85224	2.98408
707.03125	5.14819	5.10010	6.04580	-1.04902
710.93750	3.93594	2.68163	10.07449	-0.64982
714.84375	6.35008	0.26309	12.49141	8.21077
718.75000	5.54076	-3.36421	4.83515	4.98349
722.65625	0.29921	-3.36511	2.01403	-5.49651
726.56250	-2.52479	-3.36600	4.83390	-1.47105
730.46875	-2.52825	1.46826	4.83327	2.95740
734.37500	1.90056	5.09370	3.62385	2.55068
738.28125	2.30013	-0.54818	4.02618	4.96449
742.18750	-1.32967	-3.77249	2.01094	3.34900
746.09375	-0.12431	-1.35577	2.41322	2.94225
750.00000	-0.93356	2.26969	1.60676	0.92386
753.90625	-2.54865	1.06004	0.39737	-7.13845
757.81250	-0.13438	-0.14952	5.63487	-5.53044
761.71875	-3.76407	3.47597	5.23130	-1.10185
765.62500	-4.17029	3.47510	4.82781	-1.50841
769.53125	-0.14437	0.65372	7.64775	-4.73562
773.43750	3.07556	2.66750	6.84134	-0.71008
777.34375	2.66908	2.66664	6.03497	5.33000
781.25000	10.72419	-3.37818	6.84030	14.19054
785.15625	13.54113	-0.15557	9.66028	17.81307
789.06250	-2.98263	3.06694	9.65970	-1.12863
792.96875	9.10166	1.85734	5.62979	8.13476
796.87500	25.61815	4.67699	4.01746	25.05382
800.78125	15.94414	3.87030	2.00218	21.02051
804.68750	20.77575	5.48112	0.38980	21.01656
808.59375	23.99553	4.27146	2.00096	20.20659
812.50000	18.35086	4.67358	4.01493	18.18797
816.40625	21.16776	7.49328	5.62600	21.00460
820.31250	22.37291	1.85148	5.62540	20.19464
824.21875	21.96641	1.04477	5.22179	17.37012
828.12500	23.57446	2.25274	3.20643	19.78371
832.03125	23.16786	2.25191	3.20571	24.61479
835.93750	21.14958	5.47456	2.39913	19.37268
839.84375	21.14600	3.86206	3.20426	9.69836
843.75000	20.73958	2.65247	3.20356	17.35020
847.65625	18.31849	3.86047	0.78532	17.74932
851.56250	18.71802	3.45669	-0.02127	12.10438
855.46875	14.68534	-0.17045	-0.42483	14.11522
859.37500	9.84681	-1.78303	-1.23134	12.09680
863.28125	16.69334	-0.17203	0.37970	16.92824
867.18750	11.85481	-0.97873	1.99083	9.67187
871.09375	5.00181	-1.38244	-1.23326	5.63900
875.00000	9.02788	-3.80083	-0.83098	9.66472
878.90625	1.77186	-5.01044	-0.83159	5.22890
882.81250	-1.45477	-3.39952	-2.44390	4.82245
886.71875	2.57139	-0.98278	0.37598	9.25122
890.62500	5.79168	-1.38648	1.18122	7.23304
894.53125	0.95342	1.83618	1.18058	0.37966
898.43750	-0.66143	1.83542	-0.83475	6.42021
902.34375	6.18535	-1.38879	-4.86475	12.46070
906.25000	5.37640	-0.98669	-7.28306	3.99566
910.15625	2.14987	-3.40507	-6.07494	6.00685
914.06250	4.56436	-2.19710	-2.04633	9.22683
917.96875	6.57600	-0.18316	-1.24112	1.97066
921.87500	6.17007	2.63651	-2.85352	1.16136
925.78125	6.97287	2.63574	-3.25709	7.60489
929.68750	2.94056	-1.79728	-2.04906	2.36344
933.59375	2.93755	-0.99223	-2.45265	-2.07214
937.50000	5.75506	1.82752	-2.45331	8.40073
941.40625	2.12577	-1.39669	-4.87158	7.99448
945.31250	2.52572	-2.20337	-4.46927	4.76775
949.21875	8.56673	3.83986	-2.85822	3.15276
953.12500	10.17554	4.24200	-4.47058	3.55238
957.03125	0.50222	-4.22031	-4.47124	0.72862
960.93750	-1.91823	-4.22105	-2.05436	0.72536
964.84375	3.71983	0.21043	1.97435	3.54264
968.75000	4.92566	1.01545	1.57074	5.15110
972.65625	3.71389	5.04394	-2.05629	6.35661
976.56250	2.50215	7.46074	-2.05692	1.11521
980.46875	2.09629	3.02771	-1.25168	-4.93211
984.37500	0.88452	0.60939	-2.86408	-2.92070
988.28125	2.89622	0.20569	-5.28226	-1.71523
992.18750	2.89331	2.21958	-4.47705	-3.33012
996.09375	-3.55652	4.63641	-3.67190	-5.75092
1000.00000	-3.15648	1.00927	-8.91066	-2.93366
1003.90625	0.06399	0.20273	-11.73182	1.89815
1007.81250	-1.14784	-0.60385	-11.32960	0.28304
1011.71875	-3.56845	-3.82802	-9.31562	-1.33200
1015.62500	-3.16854	-4.23169	-6.49577	-6.17045
1019.53125	-1.55995	-0.20303	-7.30237	-7.78564
1023.43750	-1.16005	0.60210	-4.07963	-4.56554
1027.34375	3.67216	0.60144	-3.67741	-4.56881
1031.25000	-5.59815	3.01831	-9.72203	-5.37790
1035.15625	-13.65957	-0.20572	-9.31983	-5.78403
1039.06250	-9.63312	-1.41515	-6.90289	1.46552
1042.96875	-9.63595	2.61355	-6.50059	-1.35817
1046.87500	-8.02711	2.20999	-6.90416	-8.21115
1050.78125	-6.01533	-1.41698	-6.90480	-0.96159
1054.68750	-6.42108	-2.62641	-8.11423	-4.18828
1058.59375	-8.84150	-4.64166	-6.90608	-10.23546
1062.50000	-6.02382	-1.82171	-6.10088	-2.98589
1066.40625	-1.59439	0.19240	-8.11615	-0.16859
1070.31250	-5.22357	-1.82283	-6.50505	1.43994
1074.21875	-6.83816	-4.64388	-2.87935	1.43674
1078.12500	-5.63217	-6.25620	-3.28288	-0.58104
1082.03125	-2.41153	-3.03335	-3.28353	0.22168
1085.93750	-0.39971	-3.03398	-6.10478	-0.18438
1089.84375	0.80624	-1.82584	-6.10543	2.63299
1093.75000	-1.61418	-3.84116	-4.49430	0.21230
1097.65625	-3.63164	-7.46819	-7.31553	-3.41714
1101.56250	3.61836	-3.03666	-6.91324	5.04131
1105.46875	1.60093	1.79782	-4.49630	5.03824
1109.37500	1.59816	0.99122	-1.27354	0.20002
1113.28125	5.62475	-1.02409	-2.88597	6.24103
1117.18750	-2.43654	-2.23359	-8.93063	3.01455
1121.09375	-4.05101	-0.62258	-10.14013	-3.83834
1125.00000	-6.06840	0.58552	-8.52902	-3.03541
1128.90625	-6.07103	1.39069	-9.33564	-5.05304
1132.81250	3.99967	3.80759	-8.93339	-5.05598
1136.71875	4.80292	5.41857	-7.32241	2.19382
1140.62500	3.99440	5.01494	-9.74065	-1.43549
1144.53125	5.60346	2.19379	-11.35314	-3.45304
1148.43750	3.18331	0.98431	-8.53325	2.58795
1152.34375	2.37475	2.59541	-5.31056	7.82308
1156.25000	5.99847	4.20643	-3.29662	1.77615
1160.15625	7.20459	2.19108	-3.70032	-2.25612
1164.06250	5.18723	0.57870	-3.70103	4.59066
1167.96875	-0.45656	3.80148	-5.31346	3.37876
1171.87500	1.55528	7.42717	-5.31421	2.16690
1175.78125	3.16437	1.78554	-4.10620	3.77569
1179.68750	1.14703	-2.64731	-3.70400	5.38447
1183.59375	1.14429	0.17252	-4.10768	4.17276
1187.50000	0.33566	4.60408	-4.51132	1.75211
1191.40625	5.16808	7.42395	-6.52673	0.94318
1195.31250	2.34476	5.81163	-6.12457	0.13421
1199.21875	-2.09018	5.81100	-2.09601	-1.48052
1203.12500	2.33927	7.42207	-1.29085	3.75464
1207.03125	2.33652	6.61561	-1.29159	0.52823
1210.93750	-2.90431	8.22668	-6.12753	-6.32454
1214.84375	15.62779	6.61439	-12.17220	10.19254
1218.75000	10.38709	3.79333	-8.94950	18.24817
1222.65625	-30.31159	3.79275	-4.11508	-18.42149
1226.56250	-44.01386	4.19503	-3.71286	-49.85291
1230.46875	-54.49271	1.77690	-5.72823	-54.28807
1234.37500	-65.37447	5.80565	-7.74365	-65.97596
1238.28125	-77.06214	7.01387	-11.77369	-80.08142
1242.18750	-82.30285	1.37225	-12.98325	-83.71069
1246.09375	-79.08198	-1.04590	-11.37229	-84.11641
1250.00000	-73.84645	-0.64352	-10.97003	-76.46359
1253.90625	-70.62550	1.77349	-15.00005	-65.18443
1257.81250	-61.76355	2.57879	-13.79202	-59.14329
1261.71875	-50.88690	0.96652	-12.58409	-51.89331
1265.62500	-50.08358	0.56308	-13.79356	-42.62868
1269.53125	-48.87727	2.57717	-16.61496	-40.21387
1273.43750	-41.62697	6.20296	-18.63041	-40.21663
1277.34375	-36.79436	3.38191	-16.61662	-32.16085
1281.25000	-37.19971	2.57552	-16.21448	-28.94027
1285.15625	-29.54641	5.79843	-15.40947	-28.53996
1289.06250	-23.10187	6.60378	-12.58980	-19.67822
1292.96875	-23.50725	6.20029	-12.59063	-22.09840
1296.87500	-22.70377	7.81150	-12.59146	-24.51865
1300.78125	-22.70613	7.00510	-12.99516	-21.29785
1304.68750	-26.33487	1.36354	-14.20475	-18.88288
1308.59375	-19.48745	1.36301	-12.59386	-11.63275
1312.50000	-15.05752	1.76544	-13.80338	-16.06765
1316.40625	-19.89500	0.55616	-14.20723	-20.09953
1320.31250	-11.83873	-0.25014	-10.17878	-16.87865
1324.21875	-8.61760	-1.45939	-9.37378	-11.64319
1328.12500	-9.42576	0.95768	-10.18051	-10.83998
1332.03125	-1.77238	2.56896	-10.58429	-6.00740
1335.93750	-0.16295	5.79192	-13.00274	-2.38359
1339.84375	-8.22391	9.01490	-13.00358	-5.60965
1343.75000	-9.83790	6.19389	-10.98979	-3.59759
1347.65625	-0.97576	6.19346	-12.19951	4.86137
1351.56250	5.46885	7.80477	-11.39460	7.27637
1355.46875	5.46659	5.38674	-8.97793	9.69148
1359.37500	7.88199	3.77460	-7.77007	12.91246
1363.28125	7.07394	5.38586	-9.78564	2.83680
1367.18750	7.87754	9.41470	-14.21885	3.64019
1371.09375	3.84603	7.80257	-15.02562	4.84652
1375.00000	4.64970	2.96692	-11.40031	2.82945
1378.90625	15.12373	4.57823	-8.17782	11.28857
1382.81250	14.31572	8.20415	-8.17878	15.31544
1386.71875	9.07555	9.00971	-12.61194	8.46327
1390.62500	7.86479	7.39768	-11.80690	1.20828
1394.53125	8.26575	7.39743	-8.98724	0.80318
1398.43750	8.26380	4.97958	-10.19688	1.60688
1402.34375	1.41205	5.78523	-13.01822	-2.02169
1406.25000	3.02189	7.79961	-12.61615	0.39374
1410.15625	10.27268	3.36705	-11.00520	7.64432
1414.06250	13.49414	3.76971	-11.81193	12.47732
1417.96875	10.26880	1.35185	-11.40992	10.86350
1421.87500	8.25217	0.54574	-11.81368	5.22029
1425.78125	6.63853	2.96302	-11.41162	4.81526
1429.68750	-6.25721	2.55981	-13.83000	-1.23078
1433.59375	-7.06497	3.76830	-11.41339	-7.27695
1437.50000	-3.84344	3.76801	-11.41429	-11.30840
1441.40625	-8.27756	2.96182	-15.84741	-9.69878
1445.31250	-7.47351	4.17035	-15.44545	-4.46277
1449.21875	-7.87842	5.37885	-13.83462	-4.06197
1453.12500	-9.89493	7.79615	-11.82100	-3.66114
1457.03125	-11.91144	5.78118	-7.38975	-9.30430
1460.93750	-16.74840	1.34867	-8.59941	-18.57374
1464.84375	-15.94447	5.37771	-13.83846	-17.36702
1468.75000	-13.52875	7.39206	-13.43654	-16.16030
1472.65625	-9.09833	2.15370	-12.63167	-11.73004
1476.56250	-7.08546	1.75056	-15.45312	-12.13508
1480.46875	-3.46084	4.57084	-14.64821	-5.69022
1484.37500	-3.05975	2.15301	-11.42575	-0.45417
1488.28125	-7.09086	1.74981	-11.82965	-1.66505
1492.18750	3.38350	0.94362	-10.21895	9.21197
1496.09375	9.02274	2.15212	-9.41409	18.88031
1500.00000	-6.69333	10.21039	-13.04148	-1.26819
1503.90625	-3.87466	12.62766	-11.02783	-6.10547
1507.81250	6.59969	9.40392	-13.44646	6.78630
1511.71875	0.95682	7.38902	-15.46215	2.75495
1515.62500	0.95499	7.79170	-14.25440	5.17049
1519.53125	4.17658	6.58261	-15.46428	4.76554
1523.43750	7.80113	6.98527	-17.07708	10.00149
1527.34375	11.82859	6.58204	-21.10751	11.20815
1531.25000	7.79745	1.34364	-22.31743	2.34155
1535.15625	4.97511	3.76097	-20.70684	8.78636
1539.06250	6.98795	7.79002	-17.48449	9.59012
1542.96875	8.19487	8.19267	-17.88849	5.55873
1546.87500	8.59605	8.59536	-15.87504	7.97432
1550.78125	3.35618	3.75998	-14.26448	3.13715
1554.68750	5.36899	2.95386	-17.48902	1.92633
1558.59375	10.60528	4.96831	-16.28130	1.92428
1562.50000	4.55959	5.37105	-16.68533	-0.09240
1566.40625	4.15485	4.96785	-15.88054	2.32317
1570.31250	7.77943	1.34129	-13.06120	6.35043
1574.21875	3.74833	3.35567	-11.85355	5.13965
1578.12500	3.34370	5.37008	-10.24300	5.54071
1582.03125	9.38595	2.95224	-10.24412	11.98571
1585.93750	11.39888	4.56377	-8.63345	9.96916
1589.84375	13.00894	8.59285	-6.21709	11.17606
1593.75000	11.39551	7.78678	-10.65043	14.80055
1597.65625	12.19973	2.54845	-13.06917	15.20164
1601.56250	17.43612	0.53358	-6.62342	15.60264
1605.46875	15.41968	0.53339	-6.62461	13.58606
1609.37500	11.38869	4.15951	-11.46099	10.36068
1613.28125	10.17829	6.57686	-9.04455	9.55294
1617.18750	8.96783	2.54736	-8.23984	7.93938
1621.09375	8.56321	2.14423	-11.46447	0.28182
1625.00000	8.96452	2.54700	-13.48027	4.30932
1628.90625	8.96290	4.56144	-12.27260	11.96326
1632.81250	8.96124	9.39639	-8.64731	9.54387
1636.71875	7.75080	10.60498	-7.84270	6.31861
1640.62500	9.76382	12.21645	-7.84390	5.91394
1644.53125	11.77683	11.41040	-7.44218	3.09166
1648.43750	15.80452	4.96332	-11.06968	10.74558
1652.34375	19.02639	5.76905	-9.05618	20.01121
1656.25000	6.13103	7.78354	-5.43092	9.53334
1660.15625	-8.37605	1.73943	-6.64089	-4.97386
1664.06250	-20.06259	0.12755	-5.43323	-10.21370
1667.96875	-22.48171	3.75383	-9.06074	-13.43896
1671.87500	-12.00703	5.76834	-13.89699	-11.82888
1675.78125	-6.36754	5.76818	-10.27186	-6.18951
1679.68750	-3.14559	6.17095	-6.64665	1.86748
1683.59375	-3.14707	3.35031	-9.46836	2.26878
1687.50000	-4.76024	2.94723	-9.87245	-3.37384
1691.40625	-0.32946	6.17057	-4.63554	0.25091
1695.31250	1.68378	6.17044	-4.23385	5.89037
1699.21875	2.48820	5.36447	-5.84675	11.52977
1703.12500	2.88979	6.17019	-2.62452	8.30472
1707.03125	2.88841	7.78185	-3.02865	-0.56130
1710.93750	-0.33643	7.37877	-4.64155	2.66060
1714.84375	-5.57592	8.18449	-4.64280	1.85313
1718.75000	-5.57732	9.39317	-5.04701	-1.77479
1722.65625	-4.36987	5.36380	-7.06289	-1.77636
1726.56250	-6.38590	1.33444	-7.86998	0.23675
1730.46875	-2.35789	0.12556	-9.88584	5.87621
1734.37500	-3.56806	0.12546	-7.87244	-1.37810
1738.28125	-10.41929	0.52828	-4.65023	-1.37959
1742.18750	-4.77954	4.55747	-11.09841	4.66283
1746.09375	-3.16918	6.57202	-12.71144	-0.97970
1750.00000	-4.37927	3.34845	-7.87750	5.86869
1753.90625	-1.56011	5.36300	-5.46113	3.85258
1757.81250	-8.00832	7.78049	-7.07409	-6.22221
1761.71875	-11.63603	2.94519	-8.28411	-7.83541
1765.62500	-6.39928	4.15390	-6.67358	-3.40467
1769.53125	0.04628	9.39189	-5.06310	3.44365
1773.43750	3.26840	10.60061	-6.27313	6.26264
1777.34375	4.07285	5.36242	-9.09490	7.87286
1781.25000	4.07148	4.55648	-7.88736	10.69183
1785.15625	4.47309	7.77982	-7.88861	7.06394
1789.06250	0.84534	2.13865	-9.90452	1.82435
1792.96875	1.24693	3.34734	-11.11457	9.88146
1796.87500	5.27494	6.57071	-13.93629	15.92394
1800.78125	2.05020	4.55598	-15.95224	3.02864
1804.68750	6.88404	4.15295	-14.34180	6.65353
1808.59375	17.35888	4.55576	-10.71662	21.56046
1812.50000	18.16329	5.76440	-11.12075	15.91794
1816.40625	11.71504	9.79358	-9.51031	3.82851
1820.31250	9.69924	6.97300	-6.69104	1.81244
1824.21875	12.92165	6.57002	-8.70687	11.48158
1828.12500	7.27966	12.21100	-9.91697	13.09215
1832.03125	10.09937	9.79344	-4.27728	12.68816
1835.93750	16.14267	6.16702	-1.05509	19.13423
1839.84375	5.26287	5.36119	-2.66802	14.70126
1843.75000	-1.18456	4.15239	-3.07220	3.41860
1847.65625	3.24730	0.92892	-3.87927	7.44737
1851.56250	1.23226	0.52601	-4.68629	10.26737
1855.46875	0.82897	0.12308	-6.29925	0.19371
1859.37500	4.85798	3.34656	-5.89749	-1.82136
1863.28125	9.69277	7.37585	-4.28700	1.40157
1867.18750	7.67763	5.76410	-1.87058	3.81855
1871.09375	6.46828	6.97288	1.75464	11.07065
1875.00000	10.49699	7.37575	-2.27592	14.69633
1878.90625	10.49633	3.74937	-7.11224	11.87506
1882.81250	11.70443	2.54052	-6.71046	9.85956
1886.71875	18.15059	4.15218	-4.69694	13.08211
1890.62500	20.56738	3.74924	-6.30986	17.51339
1894.53125	13.31382	2.54036	-7.92270	11.06558
1898.43750	9.68659	6.56961	-9.13263	4.21471
1902.34375	11.29741	5.76374	-9.13376	11.46637
1906.25000	10.08775	4.55493	-11.55247	13.07701
1910.15625	10.48968	6.16661	-11.15060	9.04658
1914.06250	11.29457	6.97247	-5.91359	9.44850
1917.96875	16.53172	8.98708	-7.12351	8.64158
1921.87500	18.54538	6.97238	-7.93051	11.86392
1925.78125	16.12686	6.16642	-4.70819	13.87742
1929.68750	13.70826	9.79278	-5.51520	9.84695
1933.59375	9.27499	5.36052	-5.91927	5.81646
1937.50000	12.49738	2.94286	-4.71161	7.02404
1941.40625	14.51094	6.56925	-1.48932	12.66394
1945.31250	8.46590	6.97217	-3.50513	9.84221
1949.21875	8.86773	4.95742	-5.11808	5.40871
1953.12500	8.46369	5.36034	-1.08995	8.63090
1957.03125	3.62743	5.76323	1.32646	6.21207
1960.93750	0.80582	4.95727	-0.68937	0.56984
1964.84375	1.20767	5.36018	-1.89937	2.18028
1968.75000	4.02708	6.97186	-4.31817	12.25226
1972.65625	4.02597	8.98648	-10.36333	14.66856
1976.56250	6.84538	10.59816	-11.17038	11.04085
1980.46875	10.06766	9.38932	-5.12767	10.63656
1984.37500	10.87232	5.35997	-1.50246	0.15901
1988.28125	9.25938	5.35988	-1.10077	1.76939
1992.18750	5.63187	6.16563	-0.69902	7.81207
1996.09375	1.60136	4.15090	-3.52070	2.16964
2000.00000	2.80891	4.15081	-5.93949	0.95944
2003.90625	6.83695	5.76251	-5.94069	0.55510
2007.81250	4.41814	7.37421	-5.94188	-2.26684
2011.71875	1.19345	8.98595	-6.74894	0.95519
2015.62500	3.20689	8.18003	-5.54135	2.16256
2019.53125	0.38525	5.35952	-2.72202	6.59346
2023.43750	0.38412	2.13604	-2.32029	6.18917
2027.34375	6.02395	0.52429	-4.73902	2.96437
2031.25000	10.85799	0.52421	-2.72560	15.45383
2035.15625	9.24505	0.12123	-3.53264	15.04958
2039.06250	2.79703	-1.89340	-5.95142	4.57205
2042.96875	1.18406	-0.28159	-3.53499	10.61468
2046.87500	6.01803	3.74778	0.09015	11.29178
2050.78125	9.24034	4.55372	1.29776	6.34134
2054.68750	4.80701	3.74795	1.29658	4.52294
2058.59375	6.82053	-0.28130	-1.12217	7.72936
2062.50000	7.22229	2.13626	-2.33211	9.41161
2066.40625	6.41525	7.37435	-1.52734	7.45980
2070.31250	3.19063	2.13627	-2.73728	6.34392
2074.21875	-5.67495	0.12168	-2.33551	1.49824
2078.12500	-4.06438	5.76276	-2.33662	2.34247
2082.03125	3.18730	5.76281	-2.74063	6.28360
2085.93750	3.18626	2.94228	-2.33883	2.02353
2089.84375	0.76762	1.33063	0.48065	1.54303
2093.75000	2.37832	0.12190	2.09127	8.15826
2097.65625	4.79482	-0.68393	3.70194	7.41037
2101.56250	7.61421	0.52491	4.50670	7.96245
2105.46875	9.22482	-0.28087	4.90851	15.52764
2109.37500	6.80624	1.33084	5.71338	9.66633
2113.28125	5.99930	4.15134	4.90643	7.58349
2117.18750	9.62466	6.97188	4.09955	9.23660
2121.09375	9.62359	8.18066	2.88975	8.40236
2125.00000	5.19025	3.34551	1.68004	7.27155
2128.90625	4.38330	-0.28088	-0.33565	6.53639
2132.81250	8.81443	-1.89270	-0.33666	8.23894
2136.71875	10.02215	-0.68393	0.06527	7.42199
2140.62500	9.21513	0.52481	1.67603	4.37866
2144.53125	8.81111	4.55405	3.68965	7.06714
2148.43750	4.37776	5.35983	1.67405	5.44759
2152.34375	5.18237	1.33041	0.46431	3.68083
2156.25000	6.79299	0.52445	4.08972	2.37382
2160.15625	6.38907	0.92728	3.68584	2.33818
2164.06250	3.56765	-0.68446	3.68487	4.83699
2167.96875	3.96965	2.13605	4.48974	7.20334
2171.87500	7.59515	2.94192	2.87700	6.00025
2175.78125	2.35621	-0.28149	1.26432	2.55904
2179.68750	4.77298	-0.28153	2.47212	7.11752
2183.59375	7.99551	-1.89336	4.48578	7.42761
2187.50000	5.17414	-0.28170	4.08183	6.96599
2191.40625	8.79964	-0.28181	3.27498	9.96122
2195.31250	16.45441	0.92681	4.07983	3.95229
2199.21875	14.43885	2.53849	3.67595	-0.62390
2203.12500	11.61742	-1.89380	0.04862	1.94039
2207.03125	13.63116	-1.08795	2.06237	3.11916
2210.93750	12.01850	3.74727	2.86731	4.68531
2214.84375	14.43507	6.56780	0.85178	7.76665
2218.75000	13.22530	7.77664	0.85091	11.75288
2222.65625	13.22436	10.19421	0.85006	14.56211
2226.56250	12.41757	7.77673	2.46095	9.35806
2230.46875	7.98441	3.34454	4.07180	6.29019
2234.37500	2.34251	1.73290	0.44463	7.15680
2238.28125	-2.09063	1.73298	-2.77964	3.95732
2242.18750	-0.07689	-0.68451	-1.97456	-2.25542
2246.09375	0.32515	1.73321	-1.57238	-9.77878
2250.00000	-3.30216	2.94207	-0.36435	-8.99637
2253.90625	-3.70601	-0.68420	-0.36512	-5.52810
2257.81250	-2.49820	-1.48997	-1.97763	-5.87543
2261.71875	-4.91678	-0.68402	-0.36673	-3.38660
2265.62500	-3.70893	0.52489	-0.36752	-0.70649
2269.53125	6.76631	0.92789	-2.78589	6.37032
2273.43750	17.64440	0.92799	-0.77202	16.05237
2277.34375	15.22579	-0.28068	-1.57865	13.68568
2281.25000	5.95736	1.33111	0.03229	2.30173
2285.15625	9.98563	-0.68346	5.26961	9.17051
2289.06250	24.08711	-3.10102	6.88052	30.22739
2292.96875	28.92117	0.52541	8.08852	32.41468
2296.87500	28.92007	2.54009	5.67018	38.46901
2300.78125	31.73957	0.92835	1.64009	43.41698
2304.68750	30.12682	-1.48913	0.83339	35.96539
2308.59375	31.33460	-1.48906	2.44431	39.60632
2312.50000	32.54240	-2.29491	5.66693	39.13036
2316.40625	25.69155	-3.10070	8.08368	31.81226
2320.31250	25.28760	-1.08599	10.09750	33.73142
2324.21875	25.68942	-3.50351	10.90257	35.75412
2328.12500	22.46489	-3.10055	9.29000	34.90754
2332.03125	20.85211	-2.29464	8.08037	30.56108
2335.93750	18.43343	-0.27989	8.07955	18.29863
2339.84375	20.04413	0.12306	8.88467	23.20894
2343.75000	21.65479	-3.50325	7.67507	34.32030
2347.65625	13.99812	-2.69733	6.46544	21.76916
2351.56250	7.95311	-2.29434	7.27045	14.36488
2355.46875	11.57851	0.92918	9.28422	19.69105
2359.37500	13.18920	3.74981	9.28337	14.26805
2363.28125	6.33838	-0.27942	6.05909	11.11039
2367.18750	4.72569	0.52649	1.22308	9.45492
2371.09375	13.58918	2.94413	2.43106	11.09268
2375.00000	20.43798	2.13834	3.63904	17.45920
2378.90625	18.82525	1.73549	2.02646	17.38606
2382.81250	12.78025	2.54139	2.02564	18.09870
2386.71875	13.18210	5.76485	2.42775	18.91317
2390.62500	13.98694	1.73556	5.24742	15.91014
2394.53125	9.95655	-3.09967	6.45536	19.66625
2398.43750	13.58188	-2.29382	3.63405	22.89517
2402.34375	11.96913	-2.29384	3.63324	13.37736
2406.25000	7.53578	-1.08506	3.63241	8.63796
2410.15625	8.74352	4.55593	1.21399	9.07427
2414.06250	9.95125	3.75005	4.03365	4.15560
2417.96875	6.32378	2.94413	5.64455	-4.25697
2421.87500	5.11391	6.97348	7.25539	4.59954
2425.78125	11.15678	4.55587	11.68678	14.48548
2429.68750	9.54399	2.94406	11.28297	14.35710
2433.59375	5.11058	4.95865	8.05866	8.80667
2437.50000	3.09484	8.58500	4.43148	1.61032
2441.40625	1.07914	6.16736	3.22182	2.64214
2445.31250	1.07808	1.73513	2.81799	-3.84202
2449.21875	-1.74351	1.33214	3.22009	-6.92377
2453.12500	0.67299	1.33210	3.62216	-2.23745
2457.03125	2.68667	3.34672	4.02421	-2.20956
2460.93750	-0.53780	5.76430	6.03803	2.26591
2464.84375	-4.16521	3.34668	4.02253	-0.01187
2468.75000	-4.16622	2.13787	2.81290	-3.59740
2472.65625	-0.94375	2.13788	6.84139	1.64982
2476.56250	-2.55642	2.13793	9.25815	0.40490
2480.46875	-5.78088	2.13795	4.01920	-4.58804
2484.37500	-1.34964	2.13798	1.19788	-0.62166
2488.28125	1.87285	0.12337	5.22635	1.76982
2492.18750	1.87188	0.92921	6.83720	2.33956
2496.09375	2.67680	2.54098	5.62760	-2.22714
2500.00000	-2.56228	2.54102	4.82082	-8.65267
2503.90625	-6.18964	4.95861	6.83461	-5.27328
2507.81250	-2.96713	7.37627	8.44555	-3.71919
2511.71875	-1.75927	5.36169	6.43005	-4.59843
2515.62500	-3.37191	1.73536	4.01162	-4.46012
2519.53125	-2.56687	-0.27922	6.42840	-6.70380
2523.43750	-2.97073	0.12373	10.45685	-3.89720
2527.34375	-1.35996	0.52672	8.44133	-5.15918
2531.25000	-0.95797	-1.08495	5.21698	-6.26834
2535.15625	-0.55598	0.92978	5.21608	-1.45434
2539.06250	2.26362	3.75038	6.82690	6.49772
2542.96875	5.88906	4.15334	9.64658	9.14335
2546.87500	4.27648	1.33292	7.63102	4.69858
2550.78125	-0.55957	-2.29347	5.61552	0.15133
2554.68750	-2.97805	-1.89053	6.82341	4.37726
2558.59375	-4.59061	0.52711	6.01669	3.95761
2562.50000	0.24370	0.93009	5.20995	-0.80672
2566.40625	0.64578	-3.09914	7.22374	-4.36991
2570.31250	-1.77260	-1.48731	4.80525	-5.08254
2574.21875	-5.80273	0.52743	2.78973	-5.49570
2578.12500	-7.41529	0.93044	4.40066	-9.48637
2582.03125	-5.40148	5.36282	3.99683	-7.15669
2585.93750	-4.59640	4.95993	3.99594	-6.58132
2589.84375	-1.77667	2.13947	2.78624	-8.67325
2593.75000	-0.16573	0.52781	3.59125	-9.31049
2597.65625	1.04226	0.93078	3.18739	1.22398
2601.56250	-2.98782	3.75140	-0.43998	-4.67055
2605.46875	-5.80910	6.16900	-4.87314	-10.40184
2609.37500	-0.57178	4.96028	-3.26241	-0.95159
2613.28125	1.03912	2.13988	1.57183	2.20397
2617.18750	-3.79685	-1.48636	1.97374	-5.81300
2621.09375	-3.79762	-0.68042	1.97278	-3.42346
2625.00000	3.45435	2.94602	3.58357	7.53398
2628.90625	-0.17285	2.94611	3.58263	-1.66238
2632.81250	-0.17363	1.73747	4.38755	-2.77983
2636.71875	2.64616	2.14046	1.96902	2.04456
2640.62500	0.63068	0.52884	1.56521	-2.20720
2644.53125	-0.57883	0.93181	4.38479	-6.36819
2648.43750	-5.41478	-0.27684	5.18970	-11.61385
2652.34375	-7.02725	-2.29144	4.38291	-5.32146
2656.25000	-7.83382	-1.48542	4.38197	-5.41926
2660.15625	-5.01414	-5.91758	2.36636	-10.28979
2664.06250	-0.98560	-5.91751	2.76829	-4.16446
2667.96875	-9.85081	-3.09694	5.18490	-11.06529
2671.87500	-15.89560	-6.32024	1.55756	-19.11805
2675.78125	-14.28463	-3.90252	-2.06988	-19.33584
2679.68750	-24.35867	-4.70829	-1.26504	-22.43296
2683.59375	-31.61200	-9.14044	-0.05721	-23.33147
2687.50000	-21.13659	-2.29053	1.95650	-18.55464
2691.40625	-9.45232	0.12721	3.16438	-8.70920
2695.31250	-11.46769	-4.70779	3.16346	-13.10613
2699.21875	-14.28894	-4.30475	5.98303	-13.65276
2703.12500	-17.11021	-3.09584	3.56455	-10.68530
2707.03125	-18.72275	-3.49863	1.14606	-15.14737
2710.93750	-12.67952	-7.12492	3.15984	-9.14865
2714.84375	-9.85976	-7.12480	5.97943	-6.06696
2718.75000	-12.27816	-4.70712	6.78436	-2.88625
2722.65625	-15.50234	-3.90117	5.17178	-5.31484
2726.56250	-7.44450	-2.28932	5.17090	-9.71276
2730.46875	-4.62472	-2.28916	4.76703	-10.76564
2734.37500	-6.64016	-4.30367	3.96024	-13.92795
2738.28125	-4.62619	-2.28887	4.76512	-8.26266
2742.18750	-6.23861	-0.27400	5.16711	-6.81946
2746.09375	-1.40416	-0.27385	5.97204	-9.91033
2750.00000	1.41571	-1.07962	5.16526	-3.88953
2753.90625	-3.42013	-4.30293	4.35850	0.78789
2757.81250	-6.24127	-3.49686	3.14878	-6.00593
2761.71875	-5.43601	1.74140	1.93905	-10.76941
2765.62500	-7.04829	4.96494	4.75862	-8.49190
2769.53125	-8.25773	2.14457	4.75768	-5.84696
2773.43750	-6.24367	0.13007	5.56266	-4.22295
2777.34375	-5.43838	0.93606	5.96461	-2.15675
2781.25000	-3.42430	-1.07843	4.75484	2.98003
2785.15625	-1.81314	-0.27240	5.55979	2.99951
2789.06250	0.20097	3.35404	5.96175	2.29866
2792.96875	-2.21719	2.54834	7.16961	-2.36328
2796.87500	-2.62062	1.74261	4.75110	-4.76991
2800.78125	1.00520	1.33979	4.75020	0.58160
2804.68750	-3.02457	2.14576	5.55522	-1.22826
2808.59375	-0.60743	2.54883	3.94256	-2.82480
2812.50000	1.80961	1.34012	6.35925	6.77310
2816.40625	-3.42899	-0.27145	7.97003	6.30549
2820.31250	-3.02655	0.53450	5.95445	1.37554
2824.21875	-0.60943	2.14632	5.95350	2.99598
2828.12500	-2.22162	0.53476	8.77310	-3.49097
2832.03125	-1.81913	1.34078	7.96627	-8.23961
2835.93750	-4.64004	4.16149	9.97995	-9.21933
2839.84375	-7.86388	3.75879	9.57607	-11.15809
2843.75000	-7.86434	2.55017	6.75452	-8.50755
2847.65625	-9.07366	4.96786	5.94766	-8.56727
2851.56250	-9.07410	2.95337	5.14082	-4.28593
2855.46875	-10.28329	0.93893	5.54282	-0.97372
2859.37500	-11.49251	-2.68718	4.73591	-1.56095
2863.28125	-13.50759	-7.52210	3.92902	-3.10621
2867.18750	-16.32849	-5.91020	3.52507	-3.55219
2871.09375	-12.29963	-4.29832	5.53873	-1.51093
2875.00000	-5.04726	-3.08931	9.16408	2.03580
2878.90625	-1.01841	-2.28322	7.95424	3.97805
2882.81250	-0.61592	-3.89468	5.93855	0.25910
2886.71875	-3.43688	-1.87980	5.53459	0.26843
2890.62500	-1.01964	3.76152	6.74231	-3.94268
2894.53125	5.42690	3.76181	10.77064	0.21703
2898.43750	2.20309	2.55333	7.54614	-0.58257
2902.34375	-0.21483	2.15066	1.09823	-8.08492
2906.25000	3.41126	-2.68422	4.32067	0.47317
2910.15625	1.39627	-1.87814	6.73717	-2.31318
2914.06250	-3.43930	-0.66917	5.52734	-6.82808
2917.96875	-3.43969	-3.48952	4.31740	-4.76376
2921.87500	-2.63415	-3.89230	3.10745	-1.54743
2925.78125	-3.03745	-2.28043	5.92676	0.28067
2929.68750	-0.62016	2.15202	6.73138	-3.07036
2933.59375	0.99127	1.74936	5.52141	-0.56137
2937.50000	-0.62067	-3.89144	4.71424	-6.14505
2941.40625	-6.26201	-5.90585	4.31008	-10.75343
2945.31250	-8.67989	-5.50262	3.50296	-3.94006
2949.21875	-9.48595	-3.48771	1.88996	-8.22962
2953.12500	-1.83046	-1.47278	4.30631	-5.15424
2957.03125	2.19862	-1.06964	4.70794	-1.09616
2960.93750	-2.23381	-1.47226	4.70671	-3.06670
2964.84375	-3.44279	-1.47195	5.91427	1.90912
2968.75000	-4.24881	3.76646	4.70417	-2.88430
2972.65625	-3.84598	3.36379	3.49416	-11.33589
2976.56250	-2.63730	-0.26228	5.10464	-10.56530
2980.46875	-5.05501	-1.06789	5.50640	-7.09572
2984.37500	-4.65222	-3.48511	6.31107	-0.71089
2988.28125	0.18290	-4.69358	9.93626	-1.13898
2992.18750	-1.83167	-4.69325	8.72635	-4.19462
2996.09375	-3.84622	-2.67826	5.50179	-1.50747
