 	TP9	AF7	AF8	TP10	
-1000.00000	-9.07396	6.11685	-14.28810	3.25679
-996.09375	-9.70473	0.07341	-3.00613	8.09156
-992.18750	-10.62430	4.50611	1.42598	8.89694
-988.28125	-17.19181	2.89479	-3.81225	10.91112
-984.37500	-20.50617	4.50697	-0.18593	13.32826
-980.46875	-22.58467	9.34251	-1.39481	5.67210
-976.56250	-20.39115	12.56641	-6.63298	3.65695
-972.65625	-16.72946	12.96975	0.21674	9.29752
-968.75000	-17.42790	10.14969	2.23132	9.29705
-964.84375	-21.00902	12.16476	-7.03616	9.29656
-960.93750	-23.62680	9.74761	-0.18642	7.28141
-957.03125	-24.21022	-2.33998	8.27493	5.26616
-953.12500	-21.99452	2.49565	-0.99251	5.66862
-949.21875	-15.64356	5.31662	-2.60423	7.68281
-945.31250	-13.88629	3.30244	-1.79844	7.27945
-941.40625	-10.59194	7.73502	1.82785	4.45847
-937.50000	-7.86952	-5.56131	-1.79864	0.02586
-933.59375	-11.10728	-4.75495	-7.03677	-2.79513
-929.68750	-9.41598	11.36274	-0.58992	-0.37795
-925.78125	-6.38789	4.91638	-5.42509	2.03920
-921.87500	-7.25652	-2.33583	-10.26035	3.24747
-917.96875	-4.01191	2.09682	5.45383	5.26167
-914.06250	-2.20061	3.70885	13.10946	5.26121
-910.15625	-3.17366	5.32097	-4.21650	4.45486
-906.25000	-2.94314	7.33603	-14.28985	2.03683
-902.34375	1.28541	12.57466	-8.64898	-3.20176
-898.43750	2.26624	9.35168	-5.02276	-4.81399
-894.53125	1.09865	0.48764	1.42409	-1.59097
-890.62500	-3.35825	1.29410	7.87089	-2.80019
-886.71875	-3.54772	4.51806	4.64738	-10.45625
-882.81250	0.92994	7.33907	-2.60543	-5.62148
-878.90625	4.91620	7.33954	-4.21724	1.63091
-875.00000	10.87688	4.92232	-5.42609	-1.59292
-871.09375	13.80701	4.11685	-3.00858	-2.80210
-867.18750	8.32284	-3.94137	1.82653	-0.38484
-863.28125	2.95772	-10.79081	-3.00886	-3.60865
-859.37500	3.93240	-5.95511	-9.05299	-6.02666
-855.46875	2.55254	4.11862	-8.65010	-5.62415
-851.56250	6.01725	8.95422	-8.65014	-2.40117
-847.65625	9.30256	8.14885	-4.62089	-1.59578
-843.75000	3.74154	3.71704	-5.42684	-8.04311
-839.84375	-2.30214	1.29994	1.42278	-9.25239
-835.93750	0.29811	-2.72890	13.91350	-8.04407
-832.03125	7.92747	0.09196	11.89882	-8.04457
-828.12500	11.88743	0.49522	13.10766	0.41650
-824.21875	11.34078	-1.92197	6.66068	7.66876
-820.31250	16.42808	9.36047	-3.00986	8.47412
-816.40625	17.00421	12.18137	-1.80120	6.86198
-812.50000	17.52558	9.76425	-9.85990	2.42930
-808.59375	18.90351	-0.30860	-13.08341	5.65230
-804.68750	15.68388	-4.74041	5.85428	7.66648
-800.78125	22.64688	-1.91953	9.88338	1.21913
-796.87500	30.90903	4.52782	0.61575	-2.40768
-792.96875	31.99285	8.55750	-7.04011	-2.81109
-789.06250	27.93834	-1.91841	-2.60796	2.42656
-785.15625	16.77254	-6.35038	11.89741	4.84367
-781.25000	11.51483	5.73786	11.49439	2.82854
-777.34375	14.60852	12.18518	-0.19056	2.82811
-773.43750	10.63384	1.30653	-5.02583	0.81304
-769.53125	4.34464	-3.12522	-9.86105	0.81263
-765.62500	-0.29923	-1.91598	-5.02596	-1.20243
-761.71875	-4.88353	-2.72145	2.22673	-4.42627
-757.81250	-0.07092	-1.51229	-0.19091	-2.81496
-753.90625	6.23228	-1.10892	-2.20566	1.61687
-750.00000	-2.31252	-15.21109	-6.63808	-1.60699
-746.09375	-2.89126	-27.29865	-0.19131	-4.83081
-742.18750	1.65386	-11.18097	9.07598	-4.02536
-738.28125	-1.85267	8.56303	5.44950	-4.83159
-734.37500	0.25213	6.95166	-6.23554	-3.22019
-730.46875	3.13574	7.35497	-11.47366	1.61462
-726.56250	2.15041	8.16112	-8.65312	3.22599
-722.65625	-1.51183	-5.53815	2.62884	2.82277
-718.75000	-1.21678	-2.31420	7.46387	2.82243
-714.84375	-5.29183	6.95368	3.43451	4.83674
-710.93750	-9.52434	8.16290	-5.42998	5.23929
-707.03125	-8.53836	9.77505	-16.71210	0.80677
-703.12500	-13.17198	4.13441	-11.87706	-5.23749
-699.21875	-5.01764	-5.13255	10.28408	-8.05835
-695.31250	1.68636	-10.77319	15.52204	-9.67040
-691.40625	-6.44325	-13.99621	-3.01285	-10.47660
-687.50000	-14.40394	-14.39863	-8.65382	-8.05941
-683.59375	-14.38970	0.91314	-2.20694	-7.25394
-679.68750	-11.64888	10.18091	1.01639	-6.04552
-675.78125	-11.85670	0.91388	2.62812	-1.21070
-671.87500	-8.16776	-5.53269	-5.43056	3.62404
-667.96875	-4.15983	5.34682	-19.13030	6.84710
-664.06250	-5.97128	11.79406	-14.29525	2.81744
-660.15625	-9.43067	9.37676	5.44814	-1.21224
-656.25000	-9.66125	8.57131	6.25383	-0.40679
-652.34375	-10.26363	0.51313	5.04502	-2.01896
-648.43750	-11.24466	1.31944	2.22450	-0.81060
-644.53125	-12.89772	0.91691	-6.63983	-3.22858
-640.62500	-17.70839	-3.51479	-0.99890	-7.66128
-636.71875	-16.71315	-1.09668	2.62728	-6.45292
-632.81250	-11.52066	-1.90213	6.65640	-1.21528
-628.90625	-10.26902	-0.29005	8.67091	3.61941
-625.00000	-3.73914	1.32208	-5.83475	5.63364
-621.09375	-0.62552	-0.69228	-8.25255	6.84201
-617.18750	-1.99141	3.74020	7.05864	6.03576
-613.28125	4.17928	7.76989	5.04384	8.85587
-609.37500	0.38374	0.92051	-5.43235	8.04961
-605.46875	-9.11587	-3.51135	-0.59718	0.39347
-601.56250	-8.95473	5.35356	7.46137	-1.21867
-597.65625	-5.79353	10.18921	-3.01490	0.39257
-593.75000	-1.44180	0.51943	-13.89414	3.61558
-589.84375	-0.63668	-8.34460	-1.40342	1.60049
-585.93750	-3.64027	-3.50914	9.47554	-2.02635
-582.03125	0.81777	0.92346	11.49001	0.39080
-578.12500	-0.32218	-1.89664	5.04301	2.40498
-574.21875	-0.98475	-2.29915	-1.40400	5.62793
-570.31250	3.59776	2.53652	-10.67143	7.64209
-566.40625	4.63296	8.17789	-17.52125	5.22403
-562.50000	0.48481	14.62511	-3.82168	2.40309
-558.59375	-1.69934	14.22254	11.08664	-0.01491
-554.68750	-0.09178	4.55259	9.07194	-1.22418
-550.78125	7.04071	3.34415	4.63959	0.38705
-546.87500	22.75982	6.97097	5.84822	4.41589
-542.96875	36.52475	4.15098	-1.00174	9.25063
-539.06250	35.89783	-4.31012	-3.82233	4.01208
-535.15625	27.61421	-2.29509	-0.59901	4.01166
-531.25000	19.75063	6.56981	0.60972	7.23469
-527.34375	8.82472	2.54091	2.22141	6.02545
-523.43750	5.92605	0.52659	6.25063	4.41323
-519.53125	5.12269	-8.33740	3.43000	-0.01944
-515.62500	-3.67085	-15.18685	5.44455	-2.43748
-511.71875	2.67244	-0.68109	7.45910	-2.03503
-507.81250	10.58997	11.00424	6.25015	3.60560
-503.90625	7.92631	9.79595	5.04127	6.42567
-500.00000	8.18128	4.55831	-4.62917	7.23115
-496.09375	8.99304	6.97629	-5.83808	5.61898
-492.18750	8.19004	14.63239	-0.19709	3.20094
-488.28125	6.70525	12.61815	-2.61477	6.82687
-484.37500	-3.81154	2.54533	-3.01787	1.58833
-480.46875	-12.95364	-3.90118	2.62310	-8.08249
-476.56250	-15.38669	-4.30376	-3.82388	-10.09764
-472.65625	-11.23919	-0.27409	-3.42106	-8.08345
-468.75000	-6.44937	4.15849	3.83163	-7.27804
-464.84375	-8.73604	5.77052	-0.19768	-7.27851
-460.93750	-9.93452	6.17380	0.60804	-5.26424
-457.03125	-5.49523	0.13015	1.81664	-4.86177
-453.12500	0.79700	-2.28713	3.42819	-7.27979
-449.21875	1.75403	2.14556	7.05452	-5.66847
-445.31250	-0.39886	5.36947	4.23386	-5.66892
-441.40625	-2.10665	8.19036	-1.00437	-5.66937
-437.50000	7.63672	4.56438	-5.43663	-3.25225
-433.59375	25.36196	-2.28514	-7.85443	-1.23811
-429.68750	22.85986	0.53565	-0.60194	-0.83575
-425.78125	12.74149	3.35646	2.21844	-0.43335
-421.87500	8.91465	6.98310	2.62131	1.17781
-417.96875	10.70754	11.81866	-7.85498	-3.25489
-414.06250	9.67221	7.78964	-10.27272	-8.49349
-410.15625	8.52169	-0.26851	-4.22887	-5.27053
-406.25000	8.93011	4.16419	1.41198	-1.24171
-402.34375	8.62086	7.38798	15.51436	-0.43633
-398.43750	13.78482	2.15023	14.30546	3.18956
-394.53125	12.15197	-0.66994	6.24665	5.20372
-390.62500	12.33430	-1.07262	0.20256	5.60618
-386.71875	12.34653	-2.28105	5.44051	7.62035
-382.81250	8.69435	-2.68349	9.87263	3.59062
-378.90625	8.80437	3.36084	-3.42418	-0.43907
-375.00000	10.63857	10.61392	-0.20089	6.41031
-371.09375	9.72363	4.57040	0.60475	7.61871
-367.18750	8.89288	2.95906	-7.45400	8.42418
-363.28125	8.32776	11.01802	-2.21605	8.82674
-359.37500	1.40179	7.79496	2.21594	-0.44105
-355.46875	-4.13713	9.00415	4.23042	2.37908
-351.56250	0.69403	3.36358	3.42441	6.40803
-347.65625	6.23014	-6.30639	5.03606	7.21359
-343.75000	7.11767	2.55839	5.03600	8.42199
-339.84375	3.25674	2.55871	0.60361	4.39235
-335.93750	1.66790	-3.88785	1.40927	0.36268
-332.03125	8.21596	-0.66409	7.85596	7.21211
-328.12500	9.60115	3.36553	7.04993	9.22633
-324.21875	9.89868	3.76881	3.02052	2.77902
-320.31250	5.49889	-1.06593	4.63213	-0.04189
-316.40625	-2.57274	-7.10955	-1.41195	3.58402
-312.50000	-1.95699	-4.28881	-5.03850	6.40407
-308.59375	-2.74660	1.35249	3.42297	1.16553
-304.68750	1.76357	6.59091	3.42291	-0.44663
-300.78125	17.39120	9.41173	-3.02413	1.56757
-296.87500	23.83296	11.42674	1.40798	2.77592
-292.96875	17.72349	6.99487	3.42248	6.80476
-289.06250	13.91795	0.14535	-3.02459	3.98381
-285.15625	12.12797	2.56320	-3.42765	2.37161
-281.25000	7.50043	7.39866	8.25718	3.98290
-277.34375	3.11478	4.98135	9.06300	0.75898
-273.43750	5.61024	-0.65932	2.61599	1.56439
-269.53125	4.80168	-2.67357	3.82471	-5.68877
-265.62500	4.73049	2.56493	-1.81648	-8.10681
-261.71875	6.84849	4.17695	-11.08409	0.75723
-257.81250	8.19809	1.35672	-4.23439	3.57726
-253.90625	12.47318	0.55110	1.00355	3.17381
-250.00000	17.05297	8.20713	-4.23458	2.77042
-246.09375	21.47884	6.59583	2.61507	1.15814
-242.18750	20.66970	-11.93862	14.29987	2.76940
-238.28125	20.13944	-2.26795	13.49381	1.56014
-234.37500	20.98550	6.19386	8.65859	1.96264
-230.46875	24.48627	-6.69967	3.42043	2.76805
-226.56250	26.11312	0.95643	-2.62366	1.96179
-222.65625	26.80051	16.67114	4.62885	5.58770
-218.75000	26.44266	15.05972	5.83746	3.57260
-214.84375	20.67043	5.79267	-4.23593	-0.45711
-210.93750	17.43632	7.80771	-3.02734	-8.51611
-207.03125	15.41427	4.58472	-3.02746	-13.75459
-203.12500	12.34511	-1.05596	-8.26573	-10.93448
-199.21875	10.58180	6.60014	-8.26595	-8.92022
-195.31250	10.71966	7.40631	3.82181	-6.90596
-191.40625	9.20363	1.76550	9.46268	-7.71226
-187.50000	12.35349	-16.36611	7.44794	-3.68342
-183.59375	26.86222	-13.14244	11.07425	4.37472
-179.68750	25.73759	11.83942	7.85067	0.34490
-175.78125	8.05330	19.49530	-0.20810	-7.71426
-171.87500	-1.01394	11.43705	-4.64059	-7.31184
-167.96875	-6.43348	0.96123	-2.22326	-4.49175
-164.06250	-11.84550	4.99082	0.19410	-5.70106
-160.15625	-16.73933	11.03505	4.62618	-4.49273
-156.25000	-14.32754	9.82665	-3.43267	-1.26975
-152.34375	-13.21276	1.36539	-17.13255	-2.07613
-148.43750	-17.57117	1.36570	-7.05952	-1.27070
-144.53125	-21.98263	2.97774	-1.01580	-0.06237
-140.62500	-27.40342	-9.91559	-1.82178	-2.48044
-136.71875	-29.02773	-9.10937	3.01330	-9.73368
-132.81250	-27.39045	9.82869	13.89223	-8.12247
-128.90625	-27.50077	15.87289	11.87739	-4.89948
-125.00000	-27.32074	7.41156	-3.03130	-4.49704
-121.09375	-23.18268	4.59135	-3.43440	-3.69170
-117.18750	-20.74057	8.21808	0.99762	-5.30382
-113.28125	-20.57865	6.60673	1.80340	-0.87201
-109.37500	-19.69683	4.18936	-7.06129	2.35107
-105.46875	-21.41088	5.80131	-5.04697	1.54487
-101.56250	-16.97487	-1.85405	5.83196	0.73864
-97.65625	-18.48184	-15.15046	-1.01803	-3.29105
-93.75000	-19.77255	-8.70323	-8.67382	-5.70903
-89.84375	-7.45034	9.42904	-5.45063	-2.08309
-85.93750	-5.05604	21.92017	-2.22746	-4.50109
-82.03125	-12.00732	14.26480	-1.42178	-10.14258
-78.12500	-9.36351	0.96847	2.20437	-4.50197
-74.21875	-3.21445	-4.67222	-1.82510	0.73565
-70.31250	-1.23261	0.56614	-6.25746	3.15267
-66.40625	3.61525	7.81922	7.84495	5.56977
-62.50000	5.81961	5.80486	11.47105	2.74879
-58.59375	12.25006	3.38759	2.20340	2.74832
-54.68750	13.78367	2.58203	-3.84077	2.34492
-50.78125	11.45264	-4.67044	-5.85557	1.13566
-46.87500	15.08401	-3.86432	-7.06450	2.74692
-42.96875	15.95528	3.38873	-5.05002	-0.07404
-39.06250	18.14903	7.01534	-1.42376	-1.68624
-35.15625	16.31250	11.04493	-5.45318	-0.88083
-31.25000	11.67253	11.85115	-7.06513	-4.10469
-27.34375	3.16438	15.07482	-3.43898	-8.94025
-23.43750	3.89228	19.91035	-6.25978	-9.34363
-19.53125	9.93894	11.44919	-5.05120	-3.30006
-15.62500	11.21895	6.61440	0.58961	1.13172
-11.71875	11.92145	0.16785	2.60406	-0.07742
-7.81250	11.37776	-3.05536	-3.84298	-2.09252
-3.90625	16.77298	-3.05520	-5.45482	0.32469
0.00000	14.20773	-7.48729	-4.64909	1.53310
3.90625	2.93199	-3.05477	-2.63458	-1.69073
7.81250	0.51767	5.40711	5.42384	0.32353
11.71875	-7.41354	12.25721	3.81195	-5.31787
15.62500	-15.10942	5.81058	-9.88797	-10.55639
19.53125	-14.58087	1.37863	-13.11163	-7.73631
23.43750	-19.02824	3.39357	-1.82975	-6.93088
27.34375	-23.34205	-3.45594	7.43741	-4.11075
31.25000	-19.76076	-8.69374	6.22835	-2.09645
35.15625	-15.19732	0.97688	0.58717	-1.69387
39.06250	-12.76902	2.58892	2.19873	0.32044
42.96875	-7.52354	-0.63420	-5.86001	1.52891
46.87500	-7.67792	-3.05147	-4.24839	1.93152
50.78125	-9.94413	-3.05127	4.61588	1.52820
54.68750	-12.49971	2.99279	-1.02537	1.52786
58.59375	-16.62488	5.00769	-3.04017	3.54218
62.50000	-17.35740	0.17289	-5.86084	1.12423
66.40625	-18.56947	0.57612	1.79467	-1.69658
70.31250	-16.23596	4.20290	5.01799	-6.12914
74.21875	-15.47469	-0.63186	-6.66725	-8.14414
78.12500	-16.88348	-8.69019	-1.42945	-6.12986
82.03125	-13.47853	-4.25765	11.46410	-4.51843
85.93750	-10.48414	6.21887	6.62882	-4.92170
89.84375	-10.82839	10.24854	-2.63873	-4.51907
93.75000	-6.79319	13.87519	-5.05655	-1.69891
97.65625	-4.28149	-3.85355	4.21065	3.13587
101.56250	-5.56391	-5.46506	9.04571	4.34430
105.46875	-3.97284	12.66713	6.62794	-1.29705
109.37500	-3.38700	6.62351	5.01601	-2.50621
113.28125	3.07260	4.20621	0.18050	2.32855
117.18750	12.31462	4.60942	1.38909	6.35743
121.09375	9.60466	5.01261	1.38888	5.14825
125.00000	2.97787	-3.85149	3.40327	-2.10488
128.90625	5.28681	-6.67166	8.23824	-1.70235
132.81250	7.68008	7.83410	1.38832	-0.49395
136.71875	13.15933	14.68416	-13.52036	-3.31483
140.62500	18.72466	9.04339	-2.23850	-2.50936
144.53125	16.40941	4.20847	14.28141	-4.52441
148.43750	16.80859	-6.26747	9.44595	-6.13660
152.34375	20.33010	-15.53457	5.81941	-8.15170
156.25000	20.41185	2.19462	6.62506	-4.52573
160.15625	20.17738	0.98614	2.19253	-0.89982
164.06250	19.79758	-13.51906	-5.06043	-4.92954
167.96875	17.07837	-4.25149	-3.44887	-8.15338
171.87500	15.64322	13.07470	1.78899	-8.95962
175.78125	11.10575	15.89549	0.57993	-7.75120
179.68750	7.51193	9.85172	-6.67312	-7.34870
183.59375	11.52822	6.62851	-3.85287	-8.96082
187.50000	12.94989	1.79363	-0.62966	-9.76709
191.40625	10.95149	-6.66756	-5.46500	-7.75283
195.31250	12.64116	-12.71120	-3.04756	-9.76788
199.21875	9.73394	-7.47284	0.57876	-15.00640
203.12500	4.49075	-0.62270	-7.07719	-15.81263
207.03125	4.82820	2.60108	-9.89795	-11.38078
210.93750	8.67839	3.40721	-5.06301	-6.54589
214.84375	10.11202	2.19862	-2.24273	-4.53154
218.75000	9.51396	4.61642	-6.67524	-2.11431
222.65625	10.76945	5.42252	-17.55463	-0.50292
226.56250	13.26513	-6.26212	-9.09331	-4.12969
230.46875	15.27719	-5.85884	-1.84079	-4.53297
234.37500	13.59435	4.61763	-7.07915	-10.17444
238.28125	13.29492	0.18565	-8.69107	-13.39834
242.18750	19.47977	-10.69329	-4.25907	-7.35484
246.09375	20.53148	-14.72239	1.38164	-4.13178
250.00000	17.45573	-11.49878	2.18723	-0.50576
253.90625	19.06122	3.40979	-4.66283	2.71727
257.81250	17.44637	6.63349	-11.91586	2.31391
261.71875	18.52795	1.39570	-6.27516	0.29887
265.62500	17.76247	4.21644	2.99197	0.29848
269.53125	16.02533	13.48406	6.61802	7.55087
273.43750	16.04059	9.45508	-0.63490	7.55049
277.34375	15.51925	-5.04997	-1.44091	4.72962
281.25000	22.81713	-2.63202	3.39396	9.16153
285.15625	29.93870	7.44143	3.79666	8.75819
289.06250	36.77787	-15.52543	2.99062	7.95196
292.96875	47.24665	-28.01619	-0.63606	6.74280
296.87500	45.78928	3.00952	-7.88906	-1.71911
300.78125	42.01138	13.88886	-17.15669	-4.94292
304.68750	41.74640	13.48614	-5.47194	-4.54033
308.59375	37.00700	7.84538	5.40696	-7.36126
312.50000	25.65161	5.42819	0.57160	-8.57037
316.40625	9.13488	7.84599	1.78019	-3.33264
320.31250	-2.06286	6.23456	2.58581	0.69631
324.21875	-10.07660	4.62320	-3.45845	1.90475
328.12500	-20.75544	-1.01759	-9.09977	0.69556
332.03125	-29.80128	-13.91115	-9.10002	-3.33415
335.93750	-34.40722	-23.58120	-7.08564	-2.93169
339.84375	-35.27151	-12.70181	-6.68290	-2.93210
343.75000	-37.69468	9.86265	-5.47433	-0.51490
347.65625	-38.59427	11.87750	-1.04236	-0.51531
351.56250	-36.50565	0.19272	10.64247	-3.73912
355.46875	-32.85826	5.02813	12.25397	2.70742
359.37500	-30.62326	9.46067	-4.66948	8.34802
363.28125	-26.60640	5.83455	-9.10200	9.95936
367.18750	-24.56615	5.43186	0.16516	8.34721
371.09375	-23.46758	6.64086	2.98535	4.72048
375.00000	-24.49621	0.59715	-1.44722	-0.92100
378.90625	-28.41659	-9.07283	-0.23859	-7.77120
382.81250	-26.37728	-8.26674	3.79053	-7.77160
386.71875	-23.79760	-7.46064	-7.89475	-3.33977
390.62500	-22.51272	-13.10135	-9.50667	-4.54892
394.53125	-20.19722	0.59844	-2.25411	-6.56386
398.43750	-14.95521	11.88074	-2.65727	-2.93782
402.34375	-15.65616	10.26920	-5.07510	-5.75866
406.25000	-17.34964	1.80793	-1.85195	-11.40003
410.15625	-13.08587	-4.23573	-7.09035	-9.38570
414.06250	-11.49723	-2.62376	-1.44954	-8.17727
417.96875	-11.19568	-1.41479	-2.65855	-7.37183
421.87500	-11.37236	5.03237	-7.89686	-6.96928
425.78125	-14.08778	12.68832	7.81720	-12.61070
429.68750	-14.12050	-1.41407	7.01111	-12.20825
433.59375	-15.71945	-7.45784	4.19029	-10.19401
437.50000	-16.33533	1.80985	10.63690	-9.38851
441.40625	-18.36637	3.82473	7.01026	-7.77714
445.31250	-25.29432	1.40736	-1.85447	-13.01567
449.21875	-25.20774	0.60162	-7.09282	-12.21025
453.12500	-23.99389	-1.00994	0.56256	-11.00189
457.03125	-25.54010	-7.85953	3.38281	-11.80817
460.93750	-20.92873	-0.20362	2.17381	-11.00276
464.84375	-15.51244	10.67577	5.39698	-8.98850
468.75000	-10.48204	17.12287	-2.25897	-4.95957
472.65625	-6.09635	5.03517	-1.45341	-2.13950
476.56250	-4.15963	-5.44068	3.78438	-0.52820
480.46875	-4.15691	-1.41115	2.57524	-2.54330
484.37500	-2.87698	-1.00810	5.79839	-4.96140
488.28125	-2.57754	-2.61966	3.78348	-0.12669
492.18750	-4.33011	0.20112	-1.85786	-1.73888
496.09375	-4.57603	1.81310	-4.27566	-3.75393
500.00000	-1.09744	-7.45411	0.96214	-3.75438
503.90625	0.92335	-1.40994	-0.24689	-2.14314
507.81250	4.55282	8.26059	-9.91755	2.28867
511.71875	0.65078	15.91647	-8.70903	1.88536
515.62500	-2.21006	21.55765	3.78150	3.09366
519.53125	-2.48739	9.46991	6.19868	-2.14489
523.43750	-9.35238	-2.21488	2.97503	-6.57750
527.34375	-9.63678	-0.60285	-2.66622	-2.14572
531.25000	-8.07013	-4.22903	-4.68109	-5.36956
535.15625	-8.74483	-4.63178	-1.45793	-8.19060
539.06250	-10.34597	-13.49615	2.16818	-9.39986
542.96875	-9.93568	-13.09312	-5.08477	-7.78852
546.87500	-6.06076	11.48570	-12.74070	-4.96845
550.78125	-0.67123	16.72395	1.36148	-5.37181
554.68750	5.63766	12.29191	7.80800	-6.98402
558.59375	8.76524	13.50106	0.95773	-7.79031
562.50000	7.62979	8.26329	-2.26605	-2.14979
566.40625	9.23816	1.81657	-2.26635	1.07327
570.31250	8.34802	1.01085	0.55383	3.08751
574.21875	4.67684	1.41386	7.40327	1.07241
578.12500	10.92359	-4.62996	-0.25264	-3.36022
582.03125	13.92562	-11.88253	-13.95248	-0.54014
585.93750	6.04086	-13.89697	-3.87943	1.47408
589.84375	-4.37663	2.62337	6.59653	-0.94395
593.75000	-5.98247	12.69671	1.76106	-2.95901
597.65625	-6.69420	9.87638	-4.68619	-3.36231
601.56250	-6.36494	16.32348	-6.70115	-0.94518
605.46875	-5.98267	11.48861	-3.88106	-1.75144
609.37500	-9.42622	8.66833	-5.09026	-2.55772
613.28125	-9.01068	9.47440	1.35634	-2.15526
617.18750	-12.25965	4.23655	8.60877	-2.55856
621.09375	-11.74641	-6.23939	-0.25595	-1.75313
625.00000	-10.31488	-15.90953	3.37014	-0.54474
628.90625	-8.81208	-9.86539	6.19034	6.30463
632.81250	-9.64257	-1.00084	2.16069	0.66317
636.71875	-12.62508	3.02858	9.01019	-5.78417
640.62500	-12.70094	3.43176	8.60694	-5.38162
644.53125	-13.00155	1.41726	2.96561	-6.99379
648.43750	-6.15540	7.46138	0.95048	-6.18837
652.34375	-2.63377	10.28215	-4.28785	-5.78581
656.25000	-8.19285	1.41798	-5.49693	-9.81551
660.15625	-5.20375	-8.65505	1.35250	-7.39838
664.06250	3.28100	-8.25185	-0.25954	-2.16067
667.96875	10.23232	-0.99888	-7.51259	-1.75807
671.87500	13.63254	5.04532	-4.28949	-1.35550
675.78125	7.48366	5.04557	2.55991	-0.14712
679.68750	-1.75083	-3.01279	4.17130	-0.14753
683.59375	1.86302	7.86643	-8.72273	7.10484
687.50000	6.50865	10.68705	-11.54358	12.74542
691.40625	-6.36840	3.83737	-3.08237	7.10402
695.31250	-21.19838	5.44937	-9.93252	0.65671
699.21875	-14.83773	0.61443	-0.66545	7.50607
703.12500	-3.96327	-2.20587	14.64558	22.41409
707.03125	-2.01371	1.42065	16.25698	19.99609
710.93750	2.64267	7.86763	13.83904	20.39866
714.84375	7.70301	1.01804	6.58601	31.68036
718.75000	13.14925	-7.84617	1.75061	34.50052
722.65625	14.40502	-0.19032	6.58547	34.09729
726.56250	10.05109	-2.20481	7.39098	28.05290
730.46875	7.63113	-13.08375	0.54081	22.41150
734.37500	7.15744	-8.24842	0.54049	22.81402
738.28125	4.03774	6.66013	0.13723	18.78435
742.18750	-1.05917	7.86899	-6.71293	13.14298
746.09375	-3.23059	-3.41287	-4.69864	10.32208
750.00000	-2.27673	-4.21852	4.97136	8.71001
753.90625	-0.26799	-4.21833	8.59735	9.91839
757.81250	2.14676	-9.05330	6.58237	15.15611
761.71875	4.03446	-7.84436	7.79083	15.15576
765.62500	6.08983	-2.60612	-5.10333	12.73777
769.53125	10.79982	4.24383	-12.35639	18.37846
773.43750	10.41247	4.24399	2.55178	21.60155
777.34375	9.08567	1.82658	6.98369	19.58644
781.25000	7.11660	-4.21709	2.55102	14.34798
785.15625	2.15068	-3.00809	2.95366	12.73582
789.06250	1.33457	-3.81383	-0.67302	14.34718
792.96875	1.32762	-9.05177	4.56471	12.73502
796.87500	2.69116	-7.84279	12.62292	11.52582
800.78125	-2.29500	-3.41046	6.17568	5.48153
804.68750	-7.39466	-0.18683	-5.91255	4.27238
808.59375	-7.29831	1.02212	-8.33053	2.25738
812.50000	-4.14769	4.24567	-5.51034	2.25703
816.40625	-1.72619	2.63414	-2.69016	5.48012
820.31250	-1.64142	1.82847	8.18860	2.65930
824.21875	-0.79017	1.02285	6.57658	3.86780
828.12500	3.84280	-2.60333	-2.28822	8.29969
832.03125	8.90003	0.21721	3.35238	10.31400
835.93750	5.50324	-3.40913	3.75495	5.07553
839.84375	5.84793	-6.22942	1.33702	6.28398
843.75000	9.46891	-2.19994	9.79825	9.50705
847.65625	12.19580	1.02363	11.81251	9.10379
851.56250	10.25531	1.02380	0.53013	10.31217
855.46875	7.85888	3.44163	2.14150	3.05905
859.37500	6.06481	11.90343	6.97636	-0.97063
863.28125	6.45558	13.11235	4.55838	3.46122
867.18750	5.67558	1.42757	0.12568	4.66961
871.09375	0.32748	-7.03376	-6.32171	4.26627
875.00000	6.95479	-5.42184	-3.09872	6.28056
878.90625	12.70493	0.21946	5.36244	10.30953
882.81250	10.71517	8.27828	4.95914	13.12973
886.71875	12.48922	8.68140	3.74995	15.14402
890.62500	13.37127	1.83166	2.54086	19.17297
894.53125	8.83699	-2.60041	-3.50345	15.14332
898.43750	6.42339	3.44367	-2.69797	13.12837
902.34375	12.16945	9.48778	8.18079	19.57490
906.25000	9.67025	10.29382	14.62730	18.76871
910.15625	5.06969	11.50283	14.22400	15.94786
914.06250	4.64376	9.48843	0.52390	11.91819
917.96875	-3.91895	7.87693	-7.53512	6.27674
921.87500	-4.49841	6.26543	8.98470	1.44120
925.78125	-1.57256	5.86262	16.23709	0.63499
929.68750	-4.82847	3.04233	5.76050	1.03750
933.59375	-7.63594	4.25133	2.53671	-0.57455
937.50000	-0.19315	-2.19547	6.96867	2.64858
941.40625	6.64049	-10.25402	3.74490	5.46876
945.31250	5.75672	-1.38945	-7.13461	7.08021
949.21875	4.23174	8.68411	-9.55258	-0.17288
953.12500	6.25150	8.68437	-9.15012	-5.41135
957.03125	4.70531	3.84944	-2.70359	-5.41171
960.93750	5.69045	6.67023	12.20448	-7.42682
964.84375	9.49507	7.47620	14.62160	-3.39784
968.75000	10.49618	5.46164	6.96559	-3.39819
972.65625	10.85257	5.86463	0.51828	-3.80153
976.56250	10.37188	7.47651	6.96480	1.03324
980.46875	6.74836	2.64156	11.39670	3.45050
984.37500	5.20799	-6.62576	-1.09445	2.64427
988.28125	2.28424	-3.40224	-14.79442	-1.38542
992.18750	0.53181	2.64189	-8.34798	1.03178
996.09375	5.12132	2.23914	-2.70739	1.83732
1000.00000	4.97378	4.25397	-8.75179	-2.19239
1003.90625	4.57725	10.29802	-3.91696	-4.61026
1007.81250	4.17765	3.85130	4.54423	-3.80478
1011.71875	-2.94767	-6.22180	5.75257	-2.59635
1015.62500	-7.01711	-1.38654	6.96101	-3.80550
1019.53125	-5.68257	3.44884	7.36356	-7.43223
1023.43750	-6.50336	5.86647	-3.11304	-10.25307
1027.34375	-5.98184	4.25483	-16.00710	-7.43292
1031.25000	-5.62379	-5.81830	-19.23087	-5.41852
1035.15625	-4.68660	-1.78882	-10.36684	-4.21013
1039.06250	-4.27273	7.47874	0.91471	-4.21051
1042.96875	-2.65342	1.43482	6.95823	-12.26948
1046.87500	-3.61339	3.44955	-1.90667	-12.26986
1050.78125	-4.67047	11.91122	-8.75678	-5.82337
1054.68750	-2.39060	11.50836	-2.31026	-2.60034
1058.59375	-1.27740	-2.99698	-0.69896	1.42857
1062.50000	0.81085	-0.17628	3.32995	-3.00408
1066.40625	-2.81872	13.12060	8.56763	-7.43675
1070.31250	-7.73789	-0.17590	5.74667	-4.21371
1074.21875	-1.73841	-1.38459	-0.29775	0.62112
1078.12500	-0.72947	10.30047	4.53699	3.84425
1082.03125	-0.54776	10.30056	-7.95423	0.62046
1085.93750	1.23800	7.88304	-17.62495	5.45521
1089.84375	0.89388	6.27148	-3.52276	7.87242
1093.75000	2.10849	-0.17522	5.74427	3.84272
1097.65625	0.99374	3.85422	13.80253	1.82763
1101.56250	0.91987	5.86895	15.41383	2.63302
1105.46875	-0.71268	1.43687	8.56362	4.64723
1109.37500	0.27595	8.28680	4.93684	1.42337
1113.28125	3.10915	2.64592	8.96568	0.21419
1117.18750	0.66622	1.84017	8.96521	-2.20381
1121.09375	0.37385	3.45211	-2.31726	-9.05399
1125.00000	4.62621	-5.81512	-9.57039	-6.63674
1128.90625	6.93528	6.67589	-11.18263	-2.60783
1132.81250	6.91100	15.54056	-7.95965	-1.80238
1136.71875	7.55523	13.92899	-1.91610	0.61481
1140.62500	12.31482	10.30261	8.96265	1.82324
1144.53125	7.17936	0.22942	15.00617	-0.59474
1148.43750	-0.07678	-2.18803	8.96182	-2.20690
1152.34375	3.04232	-3.39668	5.73799	-0.99849
1156.25000	2.72162	-0.57608	7.34924	1.01575
1160.15625	-0.73574	7.48256	6.54293	-0.19339
1164.06250	0.49659	6.27384	7.75128	-0.19379
1167.96875	-3.83395	6.27393	6.94505	-2.61180
1171.87500	-6.47738	11.10929	1.70651	-5.43264
1175.78125	3.89402	11.91535	3.31769	-2.20963
1179.68750	1.91238	5.87141	0.09382	-3.82171
1183.59375	-10.99376	3.05106	1.70519	-14.29826
1187.50000	-18.03301	7.08044	1.70481	-29.20705
1191.40625	-25.67186	7.08053	-5.54837	-27.99862
1195.31250	-37.27833	-5.81304	1.30095	-34.04298
1199.21875	-47.84078	-7.42469	6.94146	-55.80165
1203.12500	-57.91863	-0.17191	-0.71468	-69.90462
1207.03125	-71.28036	-7.02170	-11.99707	-80.78420
1210.93750	-77.10014	-12.25975	-13.20625	-88.84325
1214.84375	-85.73943	1.84285	-3.13340	-98.91692
1218.75000	-96.41038	7.08100	-2.73083	-111.40814
1222.65625	-97.16915	2.24596	-11.99862	-113.02026
1226.56250	-96.28487	-5.40958	-18.84884	-113.42349
1230.46875	-98.70465	-7.82695	-7.16422	-121.07951
1234.37500	-101.99881	7.48449	5.72905	-126.31797
1238.28125	-105.11844	15.14030	-1.92722	-128.73598
1242.18750	-106.18596	16.34934	-2.33055	-127.52753
1246.09375	-109.56609	15.54358	-0.71931	-128.33371
1250.00000	-118.28248	3.05278	-6.76372	-135.18382
1253.90625	-121.91461	-5.81153	-9.98760	-137.19881
1257.81250	-120.30564	3.05301	-10.39104	-134.37865
1261.71875	-122.04427	10.30575	-13.61495	-134.37898
1265.62500	-117.97430	6.67942	-17.24167	-126.72370
1269.53125	-116.48773	7.08242	-14.42157	-124.70943
1273.43750	-119.69563	15.14117	-14.82492	-128.73909
1277.34375	-115.38151	1.03879	-15.22838	-119.06911
1281.25000	-108.48617	-6.61680	-5.55853	-105.77275
1285.15625	-107.00529	4.66528	-3.94729	-100.53500
1289.06250	-106.61267	8.69454	-7.97706	-102.95291
1292.96875	-96.54644	7.88879	-10.79803	-94.08879
1296.87500	-88.33312	6.68027	-9.18680	-86.03053
1300.78125	-87.27544	2.65108	-13.21658	-79.98695
1304.68750	-73.84048	-3.39287	-18.45516	-68.30233
1308.59375	-61.25355	3.85988	-12.41168	-64.27345
1312.50000	-66.56475	11.51563	-6.77109	-62.25922
1316.40625	-62.53183	15.54502	-9.59209	-53.79809
1320.31250	-46.33009	13.93332	-14.42780	-44.12820
1324.21875	-36.21182	8.29228	-10.80186	-42.91983
1328.12500	-32.38499	3.05425	-4.75839	-40.50272
1332.03125	-26.52215	5.47187	-2.74426	-29.62399
1335.93750	-20.24882	-0.97501	-2.74474	-25.99804
1339.84375	-18.69539	-7.42179	-5.96868	-23.17788
1343.75000	-17.08906	-5.80991	-4.35742	-19.14897
1347.65625	-12.75048	-5.00403	-9.19314	-19.14934
1351.56250	-3.40892	1.03992	-7.58187	-9.47945
1355.46875	7.08841	-9.43625	6.11724	4.21980
1359.37500	5.69734	-15.07721	-1.13596	8.65167
1363.28125	3.67046	-5.80981	-13.22433	12.68058
1367.18750	15.38131	-8.63029	-3.15164	21.14177
1371.09375	25.74750	-7.01843	4.90650	25.17072
1375.00000	25.52502	-5.00374	1.27966	28.79676
1378.90625	25.63416	-2.98903	-1.13838	31.61689
1382.81250	27.67377	-1.37721	0.47289	27.18431
1386.71875	33.47717	-1.77997	10.94862	33.22789
1390.62500	42.82095	0.23479	2.48665	44.91251
1394.53125	43.52498	-5.80909	-8.79584	39.27110
1398.43750	40.70863	-13.86769	8.12666	30.00335
1402.34375	43.63432	-10.64424	3.29093	33.22641
1406.25000	45.97032	-5.40616	-10.00631	38.86704
1410.15625	44.59327	-13.46477	3.69283	39.67242
1414.06250	46.18203	-23.13514	9.33334	38.86611
1417.96875	46.48378	-8.62951	8.92998	34.43343
1421.87500	45.90446	7.08498	11.34698	36.44765
1425.78125	55.27723	2.24987	-2.35317	46.11757
1429.68750	54.03605	-9.03220	-10.00943	43.29670
1433.59375	48.81101	-13.46442	-0.74266	43.29634
1437.50000	53.83632	-7.01744	11.74762	44.10183
1441.40625	49.38798	3.05585	9.73248	37.65458
1445.31250	47.69836	8.29402	0.86748	38.86299
1449.21875	50.20269	3.05603	1.67291	42.48895
1453.12500	45.37265	-11.44944	-3.56567	37.25047
1457.03125	42.21477	-7.82309	-5.98374	31.20612
1460.93750	42.79697	1.04134	1.67148	29.19108
1464.84375	39.34893	6.27952	5.70022	29.19067
1468.75000	36.32082	7.89123	2.07324	31.60786
1472.65625	39.09484	8.69706	-4.77709	33.62209
1476.56250	41.03167	2.25009	-1.95712	35.23341
1480.46875	42.24329	-11.85251	0.05694	41.27708
1484.37500	44.73216	-4.19676	-1.55532	46.51479
1488.28125	45.83773	4.66780	4.48807	50.94674
1492.18750	48.11468	-5.40543	2.47278	48.93183
1496.09375	47.06333	-21.11964	4.88975	48.93156
1500.00000	44.90133	-17.49319	2.87459	52.55774
1503.90625	42.08747	3.45922	-5.99040	46.51351
1507.81250	38.06179	22.39689	-2.36453	43.69281
1511.71875	37.38366	19.97929	-0.75337	41.27504
1515.62500	36.94087	9.50307	-1.15687	36.03668
1519.53125	29.41125	4.26500	-1.15742	37.64811
1523.43750	26.17309	0.23576	2.87134	37.64783
1527.34375	31.12723	-1.37590	8.51167	38.85636
1531.25000	31.08261	-1.77871	9.31686	41.27372
1535.15625	34.84068	4.66823	14.95735	44.09400
1539.06250	37.67234	5.87694	8.10701	48.12311
1542.96875	37.27739	-3.39045	-9.62237	48.52593
1546.87500	41.95879	-9.03136	-8.01120	48.12286
1550.78125	44.12559	-2.58448	-2.77356	47.31694
1554.68750	39.15319	13.12960	1.65824	45.30228
1558.59375	37.44641	16.35300	4.07525	44.89936
1562.50000	37.92345	7.89154	-3.58100	43.69069
1566.40625	35.90620	-1.37579	5.28284	37.64688
1570.31250	33.00228	-4.59914	16.56435	27.97671
1574.21875	33.36126	1.04185	11.32574	23.94763
1578.12500	36.78834	8.69752	1.65493	27.97717
1582.03125	34.55309	5.07109	-6.00128	25.15692
1585.93750	34.72776	5.07099	-3.18136	23.14252
1589.84375	36.80192	2.25040	4.87667	24.75453
1593.75000	33.98813	-0.57012	2.45857	27.17247
1597.65625	28.44199	3.05613	2.45810	29.59038
1601.56250	25.54865	1.04133	5.27807	23.14378
1605.46875	25.12583	3.45895	-1.97518	19.51768
1609.37500	22.48906	-0.16733	-6.81084	14.68282
1613.28125	19.27910	1.44445	-6.40861	11.86261
1617.18750	17.23981	7.48834	-4.39459	12.66876
1621.09375	15.73935	1.84730	-10.84206	11.86318
1625.00000	15.96296	1.84730	-8.02213	9.44577
1628.90625	19.07839	15.54692	2.05054	9.04299
1632.81250	18.65162	23.20263	0.84122	9.04302
1636.71875	15.26684	15.54697	3.25829	7.43121
1640.62500	17.60912	-0.97314	0.43728	6.22228
1644.53125	15.29432	-5.40543	-6.01010	1.38694
1648.43750	9.65000	-0.97325	-2.38432	0.17789
1652.34375	9.94853	-8.22605	5.27066	-1.03120
1656.25000	12.04539	-10.64369	-5.60908	2.59487
1660.15625	10.60253	-6.21152	-12.45952	5.81790
1664.06250	5.79075	3.05584	2.44842	5.81742
1667.96875	1.46001	12.32332	5.67129	8.23446
1671.87500	1.63680	13.93520	0.02968	11.05449
1675.78125	4.75513	11.51766	2.44680	15.08324
1679.68750	8.81717	3.05616	2.44625	13.87388
1683.59375	16.05711	1.44452	-7.22468	16.29089
1687.50000	19.09071	2.25038	-10.44868	22.73713
1691.40625	25.95707	3.86206	2.04152	21.93069
1695.31250	36.91446	10.30891	4.86143	21.93006
1699.21875	35.61930	5.87655	-4.00362	21.12357
1703.12500	27.15300	-13.46420	-4.00422	18.30242
1707.03125	22.25265	-10.24079	5.66546	22.73393
1710.93750	22.07373	11.11459	9.29116	21.12157
1714.84375	20.28401	11.11465	3.24657	19.50918
1718.75000	14.44801	9.90589	-1.18625	21.12032
1722.65625	14.89772	13.93522	-4.00728	20.31392
1726.56250	16.18464	16.75580	-4.81381	22.73093
1730.46875	12.55573	10.71185	4.45286	21.92453
1734.37500	9.66419	3.05611	11.30201	17.49170
1738.28125	7.35023	7.48835	2.03395	11.04426
1742.18750	11.92341	7.89116	-2.39903	14.26711
1746.09375	10.96056	-5.40559	-2.39977	23.13095
1750.00000	6.67604	-14.67299	-8.44438	21.92153
1753.90625	2.23755	-3.39090	-10.86249	7.41541
1757.81250	-1.79489	7.89120	2.03069	-0.64380
1761.71875	-1.92223	-0.97324	-2.80496	3.78784
1765.62500	2.14732	-0.97329	-14.49056	3.78712
1769.53125	6.45382	14.33802	-13.28246	2.17464
1773.43750	6.46883	14.74096	-12.07422	-0.64650
1777.34375	6.75307	3.86183	-10.46308	-2.66180
1781.25000	5.99215	3.86184	-11.67258	-2.66252
1785.15625	9.48717	4.66765	-16.10543	-0.24564
1789.06250	19.14676	-2.18226	-8.45039	4.18587
1792.96875	20.34805	-3.79391	2.02516	2.97640
1796.87500	21.30820	-7.42032	-12.07804	-1.05355
1800.78125	28.81238	-10.24088	-18.52562	-4.68056
1804.68750	28.54740	3.05576	-11.67649	-4.68125
1808.59375	24.61396	9.90553	-17.31810	-1.45846
1812.50000	20.51133	5.07023	-13.69237	-5.08549
1816.40625	18.09718	2.24968	-15.70763	-4.28026
1820.31250	20.59895	3.86135	-20.14041	-2.26625
1824.21875	22.65832	3.45841	-11.67953	-1.86390
1828.12500	22.45557	1.44367	-7.65079	0.55314
1832.03125	27.51234	-2.98856	-8.05437	-0.25328
1835.93750	31.36799	-13.86769	-8.05503	3.37254
1839.84375	29.29494	-11.45016	-6.04105	2.56619
1843.75000	23.64835	-4.60035	-6.84758	-0.65775
1847.65625	19.92829	-7.82385	-5.63950	-0.65821
1851.56250	20.80821	-5.00338	-9.66949	-1.06164
1855.46875	20.42642	1.04059	-18.13168	3.37011
1859.37500	20.64696	-7.01805	-16.11772	3.77256
1863.28125	22.24653	-13.06208	-10.88029	2.96616
1867.18750	21.86954	-6.21244	-6.44871	4.17445
1871.09375	25.38582	2.65196	-1.21119	6.59154
1875.00000	21.53680	2.65198	-4.03225	7.39685
1878.90625	9.15504	-5.40666	-17.73251	4.57584
1882.81250	9.58278	-15.07701	-18.94194	5.38124
1886.71875	14.98314	-10.64485	-11.68981	6.18669
1890.62500	13.04468	1.04016	-4.43760	5.78342
1894.53125	11.33105	2.24894	-6.45288	6.18594
1898.43750	14.55857	-3.79505	-22.57065	6.99147
1902.34375	19.09570	-9.03316	-24.58592	10.61735
1906.25000	23.04328	-2.58629	-13.70753	11.42269
1910.15625	24.08373	-8.22736	-8.87303	8.19877
1914.06250	26.07548	-12.65957	-6.05321	9.81005
1917.96875	31.61542	-1.37750	-3.23338	15.04764
1921.87500	33.05086	-3.39223	-14.11313	16.65877
1925.78125	31.94759	-7.01865	-14.91966	17.86700
1929.68750	35.54159	-10.24211	-10.48812	20.68697
1933.59375	39.18114	-8.22750	-12.50340	21.49238
1937.50000	38.16253	7.48680	-14.51873	20.28310
1941.40625	35.32598	3.86047	-21.36929	16.25337
1945.31250	34.03950	-5.80982	-20.16120	11.41777
1949.21875	32.11186	-9.03334	-12.50616	14.64085
1953.12500	32.11735	-9.03339	-10.49210	17.46096
1957.03125	29.36278	-10.64516	-12.50742	13.02837
1960.93750	23.90141	-18.70364	-12.91100	8.59576
1964.84375	24.48292	-11.45080	-15.32927	4.96896
1968.75000	26.29032	1.44295	-9.28595	6.58031
1972.65625	26.64702	1.03989	-5.25724	6.98287
1976.56250	21.33135	-7.42170	-11.30187	6.98249
1980.46875	16.09638	-9.83928	-11.30262	5.37034
1984.37500	14.55625	-9.03361	-12.10913	4.96701
1988.28125	14.05024	-17.89825	-8.88632	8.59306
1992.18750	17.93898	-20.31584	-8.48414	10.20437
1996.09375	18.09642	-19.10718	-15.73751	10.20396
2000.00000	11.90510	-19.91312	-12.51466	7.78598
2003.90625	9.09110	-16.28677	-7.27721	3.35328
2007.81250	8.28877	-14.27217	-16.94821	1.33818
2011.71875	9.62518	-7.42245	-17.75478	3.75535
2015.62500	11.59985	-3.79613	-10.09971	3.75494
2019.53125	12.53155	-9.03431	-11.30917	-2.69241
2023.43750	17.35190	-7.01972	-12.11568	0.12766
2027.34375	16.26181	-7.01983	-8.49007	5.76831
2031.25000	12.18763	-2.18482	-5.26739	4.55910
2035.15625	10.30447	0.23267	-16.14716	0.52939
2039.06250	10.71825	-14.27294	-20.17710	-3.09749
2042.96875	16.76980	-19.51109	-10.10453	-2.29212
2046.87500	12.98931	-16.28765	-8.89645	-2.29261
2050.78125	7.90291	-21.92882	-16.55288	2.13915
2054.68750	10.58578	-21.92895	-26.62680	2.54164
2058.59375	11.69897	-14.67626	-21.79230	0.12357
2062.50000	12.17555	-7.02064	-15.74903	0.52609
2066.40625	8.94898	-2.18560	-23.80834	-1.08609
2070.31250	18.13235	-9.43840	-19.77977	1.73407
2074.21875	24.93764	-19.91465	-9.70720	2.94242
2078.12500	18.29068	-10.64736	-13.33435	-1.49015
2082.03125	14.04005	-2.58873	-20.99072	0.92705
2085.93750	15.42286	-7.42392	-25.02065	5.76193
2089.84375	15.88465	-8.22979	-29.05063	7.37328
2093.75000	10.65265	-9.43862	-27.84258	0.92604
2097.65625	9.53823	-16.69142	-26.23171	-4.31240
2101.56250	19.94093	-15.07979	-20.59139	1.32826
2105.46875	35.23181	-11.05064	-18.17445	5.76009
2109.37500	43.07055	-25.15334	-21.80153	5.75969
2113.28125	52.75380	-26.36221	-19.38463	3.34169
2117.18750	52.32584	-13.06561	-17.37066	6.56475
2121.09375	32.69308	-11.85711	-11.32734	10.19072
2125.00000	15.99334	-13.87186	-7.29871	7.77285
2128.90625	13.06457	-15.08059	-11.32875	9.78712
2132.81250	9.81702	-13.87191	-8.50904	8.57785
2136.71875	4.01448	-23.13944	-9.31567	7.77157
2140.62500	9.58013	-25.96007	-16.97209	17.03852
2144.53125	13.71220	-19.91618	-6.89958	18.24683
2148.43750	12.50014	-30.79535	-0.05048	9.38183
2152.34375	15.21637	-35.63059	-11.73625	7.36668
2156.25000	17.31337	-26.36324	-18.58682	9.38084
2160.15625	13.45321	-26.36338	-10.52895	8.97748
2164.06250	5.82128	-25.55759	1.55827	9.78285
2167.96875	1.49089	-23.94604	-1.66582	9.37947
2171.87500	0.86222	-32.40775	-5.69574	8.97621
2175.78125	-0.04829	-20.31987	-8.11409	10.18454
2179.68750	-0.01510	-18.70820	-19.39691	8.57243
2183.59375	0.37553	-33.61670	-20.60646	2.93102
2187.50000	-3.84324	-32.00497	-16.17490	-1.09860
2191.40625	-9.46747	-29.99040	-15.36966	-1.90483
2195.31250	-11.00059	-32.40813	-10.13222	-1.90521
2199.21875	-7.05745	-27.57306	-12.95353	1.72081
2203.12500	-2.22678	-24.75270	-13.76027	3.73506
2207.03125	0.93169	-22.33518	-12.14924	3.73466
2210.93750	6.39396	-21.93236	-12.55287	2.92836
2214.84375	11.85713	-25.96177	-12.55364	4.13674
2218.75000	14.48279	-25.96192	-14.16606	4.13631
2222.65625	13.72384	-29.99137	-18.19602	4.94171
2226.56250	10.57855	-31.60318	-24.24070	4.53837
2230.46875	10.97906	-23.54471	-21.01805	6.55255
2234.37500	14.93746	-26.36538	-12.96011	6.55211
2238.28125	19.07041	-27.17135	-12.55796	5.74581
2242.18750	28.47895	-19.91873	-12.96160	11.78927
2246.09375	32.35134	-22.73927	-12.96237	15.01227
2250.00000	26.45533	-22.73928	-15.38074	12.59421
2253.90625	22.82304	-25.55989	-11.35217	10.98209
2257.81250	19.59671	-27.17184	-10.94996	8.16110
2261.71875	13.02289	-27.57492	-19.41227	1.31084
2265.62500	9.43720	-29.18686	-19.41302	-0.30129
2269.53125	8.50606	-21.12843	-14.17571	6.14512
2273.43750	8.11867	-15.48749	-15.38524	5.74180
2277.34375	6.79178	-20.72567	-21.83286	2.51794
2281.25000	2.00222	-35.63424	-22.63951	2.92041
2285.15625	-3.36670	-38.45487	-14.58175	2.11413
2289.06250	-0.95933	-25.56114	-17.00005	6.94893
2292.96875	9.10701	-26.36715	-20.22420	13.79832
2296.87500	13.69410	-33.21706	-11.36051	13.39499
2300.78125	11.52850	-27.17323	-17.40524	9.36535
2304.68750	13.27873	-17.10014	-27.88221	10.97677
2308.59375	11.76339	-11.05641	-23.45075	12.58813
2312.50000	7.66120	-13.07118	-15.79591	12.58776
2316.40625	6.05328	-12.26553	-15.79671	12.18443
2320.31250	2.91455	-13.07150	-24.25900	10.16943
2324.21875	-0.66661	-21.93611	-24.25973	11.78082
2328.12500	-2.88361	-23.14511	-20.23120	12.58628
2332.03125	-5.88519	-19.51889	-17.00856	13.79471
2335.93750	-8.47620	-20.72776	-10.56255	11.37670
2339.84375	-9.34031	-28.78645	-11.77214	6.94410
2343.75000	-7.33112	-29.99543	-9.35530	8.55536
2347.65625	-5.81308	-17.50474	-15.40007	8.55492
2351.56250	-10.17115	-28.38408	-25.47412	6.53984
2355.46875	-8.94121	-32.01066	-24.66906	4.52473
2359.37500	-1.87091	-9.84970	-24.66982	2.10666
2363.28125	3.35495	-9.84986	-23.86475	11.37362
2367.18750	6.60420	-16.69981	-21.44793	22.25230
2371.09375	2.86771	-14.68534	-2.10804	12.98441
2375.00000	1.83931	-20.32655	-13.39086	8.95459
2378.90625	-0.06629	-28.38542	-28.70298	10.16280
2382.81250	5.19657	-17.90936	-8.96020	4.92423
2386.71875	6.16458	-9.04503	-24.27244	3.71502
2390.62500	-1.01207	-19.92443	-25.48208	4.52040
2394.53125	3.72107	-25.16277	-2.51585	-1.12107
2398.43750	4.53102	-21.93950	22.86793	-0.71849
2402.34375	3.83030	-18.71623	9.57046	3.31044
2406.25000	2.94301	-34.43068	-18.63545	-1.92802
2410.15625	0.76019	-33.62500	-0.90728	-1.52544
2414.06250	2.34909	-22.74601	13.19452	-2.33170
2417.96875	7.48622	-31.20772	7.14978	-3.94372
2421.87500	11.33923	-19.92588	-0.50673	-6.36169
2425.78125	14.26530	-10.25573	-10.98379	-3.13864
2429.68750	19.47110	-15.89694	-11.38763	3.30782
2433.59375	17.06662	-21.94110	-8.16509	-4.34832
2437.50000	14.03335	-25.16471	-14.20987	-5.15452
2441.40625	20.06126	-27.98539	-8.56964	1.69499
2445.31250	24.81853	-25.56811	-1.72056	4.91799
2449.21875	28.12863	-21.13614	-4.54184	8.94691
2453.12500	30.95421	-19.12162	-5.75142	8.14056
2457.03125	30.21399	-24.35981	-3.73751	6.12549
2460.93750	32.81099	-34.83614	-12.60281	12.57195
2464.84375	31.37775	-19.92786	-20.25930	13.78031
2468.75000	23.91759	-21.94260	-6.56056	5.72127
2472.65625	24.67722	-35.23945	6.33247	3.70617
2476.56250	34.67300	-19.92832	1.89945	0.07935
2480.46875	43.94355	-9.85523	-2.13065	-5.15914
2484.37500	35.95650	-9.04967	0.28611	-7.98004
2488.28125	22.55690	-11.87049	1.09110	-12.00975
2492.18750	19.99898	-16.30287	-0.92443	-8.78671
2496.09375	15.72440	-21.54119	-11.40142	-1.13148
2500.00000	9.53324	-19.92972	-13.41675	-4.35529
2503.90625	9.13693	-22.34746	-5.76178	-5.56440
2507.81250	10.34934	-23.15356	-10.19488	0.47913
2511.71875	10.47700	-23.95957	-3.74886	6.92565
2515.62500	9.63120	-21.13922	6.72647	6.11938
2519.53125	5.32480	-14.28959	5.11391	2.49265
2523.43750	2.89237	-15.09574	-1.33380	0.07464
2527.34375	-1.42118	-3.00808	0.67999	0.07420
2531.25000	-6.30120	0.61810	3.09672	0.07377
2535.15625	-7.78141	-18.72273	2.28997	-5.16472
2539.06250	-3.33814	-21.14049	4.30373	-2.34461
2542.96875	-1.31581	-11.87322	-2.14398	1.28140
2546.87500	-5.90216	-11.06752	-6.17406	0.07217
2550.78125	-8.16796	-13.08243	-2.54849	1.28055
2554.68750	-5.08214	-20.73838	4.70340	0.87724
2558.59375	1.67209	-26.37965	6.71721	0.47396
2562.50000	0.93984	-11.87424	-4.16272	-5.57040
2566.40625	-2.28675	1.01956	-4.56634	-3.55612
2570.31250	0.04676	-5.02450	6.71488	-2.34778
2574.21875	-1.20669	-12.27744	3.89342	-7.18332
2578.12500	-2.61557	-9.05415	-2.15144	-7.98955
2582.03125	-0.82227	-3.01038	-6.58455	-13.63099
2585.93750	2.97810	-7.44282	-5.37662	-14.03428
2589.84375	5.45441	-9.45769	2.68118	-13.63178
2593.75000	9.48962	-10.66669	5.09782	-14.84101
2597.65625	5.15154	-14.29321	5.09687	-14.03554
2601.56250	3.46612	-15.09924	6.70775	-13.23011
2605.46875	3.44536	-23.15806	4.69225	-10.81294
2609.37500	3.22527	-25.17288	1.46799	-8.39579
2613.28125	6.05849	-8.24994	4.69058	-6.78442
2617.18750	10.06240	1.01728	-6.99534	-1.94967
2621.09375	13.39641	1.42001	-19.48705	-2.35301
2625.00000	11.20180	2.62857	-5.38535	-8.39737
2628.90625	10.69026	7.86640	6.70172	-6.38313
2632.81250	13.08348	2.62815	10.73011	-1.54833
2636.71875	9.29544	-8.25123	10.72923	-5.98100
2640.62500	5.59345	-8.65445	3.47559	-11.62249
2644.53125	3.27859	-14.29568	-3.77805	-12.02584
2648.43750	-1.55997	-21.54864	-0.55551	-11.62341
2652.34375	-0.45556	-11.87857	5.89042	-10.01207
2656.25000	5.26770	-10.26698	-8.61586	-14.44470
2660.15625	5.83950	-8.65548	-13.45179	-10.81870
2664.06250	5.46011	-0.19424	-1.76766	-4.77517
2667.96875	8.78526	-14.29715	-0.96262	-2.76091
2671.87500	10.97689	-15.10325	5.08047	1.26802
2675.78125	12.08075	5.84885	7.90004	0.46178
2679.68750	10.50187	10.28087	-3.78576	-1.55323
2683.59375	11.69798	-0.59841	2.25730	-1.55355
2687.50000	9.89648	-9.46315	6.28572	-0.74806
2691.40625	8.70423	-10.26918	-6.20601	2.47502
2695.31250	9.58845	-7.44884	-7.81869	3.68341
2699.21875	7.48751	-9.06069	-11.44606	0.86241
2703.12500	12.31809	-7.04624	-7.01471	2.07078
2707.03125	11.85011	-1.80839	-7.41857	1.66747
2710.93750	10.86563	-9.06132	-9.83698	0.86116
2714.84375	13.10554	-7.44987	-0.16751	0.86075
2718.75000	13.71668	-3.82376	6.27847	2.87496
2722.65625	18.59902	-9.46511	9.09803	1.26285
2726.56250	17.87159	-17.52408	3.85906	0.85950
2730.46875	19.88408	-7.85398	0.23178	3.27670
2734.37500	17.79874	1.01035	-1.38091	-2.36478
2738.28125	12.26154	-8.66018	-8.23162	-1.55930
2742.18750	11.59695	-10.67507	-13.47065	-3.17150
2746.09375	7.41095	-9.06360	-8.63644	-8.00710
2750.00000	4.33555	-1.40824	5.46520	-10.42509
2753.90625	2.31510	-7.85529	-0.98265	-8.41081
2757.81250	-0.91104	-21.95808	-7.43049	-7.60539
2761.71875	0.17091	-15.51136	-2.59619	-7.20287
2765.62500	2.62927	-16.31734	-0.58241	-2.36809
2769.53125	2.90714	-12.28827	6.26651	-5.99481
2773.43750	9.77256	-1.81237	3.04220	-5.59227
2777.34375	11.26635	-4.23023	-1.39087	-3.17513
2781.25000	19.37070	-9.87147	4.65220	1.25672
2785.15625	28.91047	-11.48340	-0.58693	7.30028
2789.06250	11.97740	-16.31870	-4.61714	-5.19091
2792.96875	6.32948	-15.51308	1.02302	-9.62354
2796.87500	8.09590	-6.64885	-5.82770	-8.01220
2800.78125	0.28902	-9.06658	-15.49898	-7.60972
2804.68750	5.66535	-13.49909	-0.59142	-3.98372
2808.59375	6.16428	-13.90234	9.88385	-8.01342
2812.50000	1.25609	-13.90265	9.07702	-6.40212
2816.40625	6.90082	-3.82965	12.29958	1.65612
2820.31250	11.82063	-7.45633	9.47820	9.71428
2824.21875	7.83645	-15.51518	5.04509	2.86399
2828.12500	2.79885	-6.65092	5.44717	-5.19501
2832.03125	6.24424	-9.06870	3.43155	0.04268
2835.93750	6.07089	-16.72465	-0.59875	2.45987
2839.84375	0.37182	-11.08378	-3.42023	0.84772
2843.75000	4.79877	-6.65185	-2.61526	6.08539
2847.65625	9.94325	0.19779	-4.22796	8.50253
2851.56250	7.19704	-2.22000	1.81508	5.27863
2855.46875	9.63589	-14.30820	6.64934	6.48697
2859.37500	9.05071	-22.36709	-0.20143	6.08357
2863.28125	5.81518	-13.09991	2.21526	1.65092
2867.18750	8.66169	0.59943	8.66116	-1.57299
2871.09375	9.76066	-1.41545	10.67478	-3.18517
2875.00000	11.55300	-5.04200	11.47970	-0.36500
2878.90625	16.49749	5.03099	2.21144	2.85802
2882.81250	19.34306	4.22493	-1.41588	1.24596
2886.71875	17.08791	-13.50418	-3.02850	1.64859
2890.62500	13.53796	-8.26633	-5.84992	0.84237
2894.53125	11.42153	-4.23729	2.61068	3.25967
2898.43750	4.17306	-7.05800	3.01262	4.46817
2902.34375	0.65194	-5.44652	2.20581	5.27372
2906.25000	3.39110	-8.67021	3.81645	10.10856
2910.15625	3.62600	-2.62652	-1.42275	6.88488
2914.06250	7.22975	1.80533	0.18798	4.86987
2917.96875	10.75519	0.19335	5.42511	4.06369
2921.87500	6.95267	1.40189	5.82706	0.43702
2925.78125	7.46120	-1.41894	0.99098	1.24255
2929.68750	7.42890	-13.10415	-0.62168	1.24220
2933.59375	0.59238	-17.13373	1.39203	0.83889
2937.50000	-1.63491	-7.46365	-0.62349	-5.60833
2941.40625	-2.45681	-1.41987	3.80778	-6.81754
2945.31250	1.89764	-1.01708	3.80680	-6.01212
2949.21875	3.59628	0.99754	5.82046	-7.22135
2953.12500	0.37818	-4.64365	9.84879	-7.62472
2957.03125	2.45867	-11.89678	5.01251	-8.02803
2960.93750	5.86163	-15.12042	5.81731	-4.40214
2964.84375	8.45778	-5.85330	6.62226	-3.19378
2968.75000	6.23576	3.01083	4.60664	-7.62645
2972.65625	6.59249	1.80174	2.99389	-4.80636
2976.56250	6.51498	2.20442	1.78416	-9.23905
2980.46875	3.29465	-5.85445	-4.66360	-14.07462
2984.37500	6.99255	-3.43709	-10.30568	-5.61350
2988.28125	4.47201	2.20377	-1.03931	-5.61388
2992.18750	2.31689	-5.45219	8.63003	-10.85236
2996.09375	3.68320	-15.52570	4.19675	-9.64403
