 	TP9	AF7	AF8	TP10	
-1000.00000	2.53876	7.01475	-5.74103	-3.50643
-996.09375	-0.17761	4.19449	-1.30649	-5.52086
-992.18750	0.70606	-1.84921	-3.72182	-5.92357
-988.28125	1.32092	0.56860	-3.31657	-6.32622
-984.37500	-2.25696	-7.89264	-2.91130	-8.34066
-980.46875	-0.56095	-3.46008	4.74675	-5.11693
-976.56250	4.16037	10.64277	16.03109	-3.10201
-972.65625	5.76046	-7.48880	1.52792	-2.29583
-968.75000	10.02794	-19.97941	-6.52832	0.92787
-964.84375	15.42166	2.18198	2.33847	4.55447
-960.93750	19.71269	15.07603	-4.91193	6.16646
-957.03125	22.56325	10.64408	-17.40040	16.23997
-953.12500	22.87411	2.18279	-9.33939	21.07544
-949.21875	19.55930	2.58593	5.16851	19.06113
-945.31250	19.44200	2.18323	3.55919	15.83803
-941.40625	23.87879	-0.63701	3.15859	11.00323
-937.50000	24.00856	5.00420	3.16090	11.80941
-933.59375	12.95889	7.01910	-1.67194	6.97463
-929.68750	2.91321	0.57241	4.77731	5.76621
-925.78125	-1.47768	-7.88881	6.79436	4.96074
-921.87500	-6.18886	-9.50021	-7.30578	3.75236
-917.96875	-6.00576	1.37924	-8.91516	6.57329
-914.06250	-5.45389	10.64699	-6.09231	5.76789
-910.15625	-10.90529	4.20043	4.78932	0.53022
-906.25000	-13.89471	2.18603	12.44741	-2.28990
-902.34375	-11.65679	13.87129	-0.44406	-2.69249
-898.43750	-14.28855	14.27452	1.57290	-4.70675
-894.53125	-20.27893	3.39563	8.82801	-7.52685
-890.62500	-22.70823	5.81351	4.80103	-7.12359
-886.71875	-21.03423	3.79917	9.63851	-7.52614
-882.81250	-13.06964	-9.49731	5.61160	-5.91413
-878.90625	-7.28199	-2.64720	-10.10029	-3.09337
-875.00000	-5.73091	0.17357	-4.45689	-4.70479
-871.09375	-0.26809	-14.73459	1.99247	-5.10742
-867.18750	5.70865	-20.37527	-4.45195	-7.12177
-863.28125	0.45549	-3.45184	-7.27006	-8.73318
-859.37500	-3.11305	17.09791	-2.83554	-5.10658
-855.46875	3.13431	8.63661	1.59900	3.35523
-851.56250	8.46100	-0.22754	8.85404	6.57897
-847.65625	13.54755	0.57857	8.85635	6.17635
-843.75000	8.37388	-5.46516	-6.45267	9.80296
-839.84375	3.06009	-18.35876	-11.68843	11.01206
-835.93750	8.33220	-14.73215	-1.61288	13.42994
-832.03125	12.33819	-1.83801	-2.81940	9.80379
-828.12500	8.92577	-1.43474	-19.74010	5.77480
-824.21875	-0.99638	3.80368	-13.29090	8.59559
-820.31250	-6.08294	7.02746	0.81408	7.38703
-816.40625	-10.68614	11.45994	6.05460	6.58145
-812.50000	-14.83281	13.87779	9.68337	6.58181
-808.59375	-19.44373	2.59600	2.83590	3.76173
-804.68750	-22.01208	-3.44760	-2.80282	-1.87894
-800.78125	-18.04486	-1.02967	-1.59164	0.53903
-796.87500	-17.25203	-3.44693	6.06640	6.58336
-792.96875	-19.86972	-2.23801	2.84533	5.77790
-789.06250	-24.82581	-3.44651	-5.21088	-2.28030
-785.15625	-26.06378	-11.50489	-0.77628	-3.89167
-781.25000	-24.76147	-5.46058	2.44965	-0.26487
-777.34375	-25.46567	4.61302	-1.17431	-1.47327
-773.43750	-28.16176	6.62799	-10.03651	-7.51683
-769.53125	-28.98455	5.41951	-14.46636	-11.14284
-765.62500	-19.59793	3.80820	-5.59942	-9.93359
-761.71875	-15.34774	-5.86181	0.44696	-9.12727
-757.81250	-20.81833	-8.68200	-1.56522	-8.72386
-753.90625	-25.61014	-2.23487	2.06355	-9.52923
-750.00000	-25.88215	-0.62281	4.08062	-10.33468
-746.09375	-27.19395	-2.23425	2.87430	-5.90196
-742.18750	-27.67373	-14.32184	1.26500	-3.48391
-738.28125	-21.84071	-7.87469	-5.58236	-5.90110
-734.37500	-14.23254	6.63105	-1.55070	-2.27429
-730.46875	-6.66018	3.81097	6.91322	2.96420
-726.56250	-2.51612	5.42312	-1.54590	6.18804
-722.65625	0.72000	1.39421	-10.40790	11.82945
-718.75000	6.52682	-7.87277	-11.21142	6.18889
-714.84375	11.20742	-3.03719	-15.23833	0.14532
-710.93750	13.36424	-1.42504	-13.22125	-1.86890
-707.03125	16.96160	-9.88622	-1.93673	-1.86847
-703.12500	13.42831	-15.92976	7.33317	-2.67390
-699.21875	2.64164	-7.06495	8.54428	-5.49400
-695.31250	-4.49275	7.44078	7.33789	-3.47897
-691.40625	-4.09330	8.64987	2.90805	-1.46389
-687.50000	-4.22199	-3.03475	-6.35686	1.75996
-683.59375	-2.84152	-6.66068	-11.18957	4.98379
-679.68750	0.75833	1.39837	-6.75487	3.37242
-675.78125	5.95625	6.23384	5.73837	8.61089
-671.87500	7.44515	-1.42152	11.38188	10.62592
-667.96875	-2.00415	-5.45048	4.13168	-3.07334
-664.06250	-4.16654	-1.01789	-7.14790	-10.32571
-660.15625	4.10648	-3.03218	-8.75731	-6.69895
-656.25000	3.87355	-0.21126	-7.94902	-7.10155
-652.34375	4.86017	9.05653	-5.93190	-11.53339
-648.43750	12.32814	7.04223	-7.94413	-13.14480
-644.53125	8.24633	7.04259	-15.19440	-13.54738
-640.62500	1.00632	15.10150	-10.75963	-11.93539
-636.71875	0.54212	7.44611	-9.95127	-7.90580
-632.81250	2.65171	6.23761	-14.38099	-5.08497
-628.90625	6.13240	13.08766	-19.61656	-0.24941
-625.00000	9.82034	10.26740	-9.94382	2.57144
-621.09375	18.46097	2.61215	6.17585	4.18350
-617.18750	21.75266	5.83596	2.55186	4.98976
-613.28125	22.17170	9.46266	-5.10129	5.79593
-609.37500	24.93541	13.49231	-7.11345	7.81093
-605.46875	23.52428	14.70152	-1.47000	4.99085
-601.56250	21.42210	7.85212	-2.27335	4.99129
-597.65625	15.93368	2.61436	-1.06211	6.60340
-593.75000	11.43803	-0.60871	-3.07436	3.78334
-589.84375	9.90313	-3.02591	-15.56277	-1.05139
-585.93750	1.81156	-18.33696	-3.87538	-3.06568
-582.03125	-5.41674	-5.84584	1.76814	-2.25935
-578.12500	-8.45017	14.30117	-8.30267	-3.87078
-574.21875	-11.01790	5.43723	2.98175	-4.27338
-570.31250	-12.78021	0.19965	7.01348	-5.88479
-566.40625	-12.60817	4.63238	3.38954	-4.67565
-562.50000	-10.87803	3.42403	-5.47247	-1.45183
-558.59375	-6.26597	7.85671	-7.08170	0.56326
-554.68750	-10.54629	7.85706	2.18817	4.19002
-550.78125	-14.51243	0.60465	3.39937	0.96704
-546.87500	-12.48370	-7.05067	0.17845	0.56454
-542.96875	-16.31187	-11.88547	-9.48949	8.22068
-539.06250	-17.39866	-7.05001	-9.48711	8.22111
-535.15625	-20.18887	-3.42327	0.99153	4.99810
-531.25000	-23.90765	-3.42291	5.02331	-4.26882
-527.34375	-22.79941	1.81554	3.01113	-8.70059
-523.43750	-22.92282	6.65110	-3.43329	-7.08844
-519.53125	-16.86084	1.01056	-4.23663	-7.08797
-515.62500	-8.92035	-2.61526	3.82445	-1.04350
-511.71875	-6.31969	-1.40600	5.43867	1.37448
-507.81250	-7.29507	7.45887	1.00903	2.58372
-503.90625	-7.74032	3.83293	-0.60025	6.61346
-500.00000	-7.46729	-3.41946	-4.62706	12.25496
-496.09375	-4.94575	-1.40440	-3.81872	12.65828
-492.18750	-1.24162	1.41652	-1.80162	9.03236
-488.28125	0.58203	9.87834	1.02140	11.85330
-484.37500	3.04812	16.32556	3.03852	11.45080
-480.46875	4.74408	9.87906	-4.61465	9.83952
-476.56250	3.42136	2.62666	-17.10290	6.61649
-472.65625	1.39502	0.61241	-20.72668	0.17003
-468.75000	3.24475	-2.61052	-9.84503	0.17048
-464.84375	3.80305	-0.99837	-0.97798	1.37972
-460.93750	4.46746	-5.83312	1.84503	2.18599
-457.03125	14.16753	-6.63847	3.05636	1.38056
-453.12500	17.70130	-5.42918	7.08815	0.97805
-449.21875	15.99775	-14.69625	9.10534	4.60478
-445.31250	21.11812	-0.59324	4.27275	10.24624
-441.40625	12.66087	15.12150	-0.96288	0.97926
-437.50000	7.14933	9.48090	-6.19852	-9.89950
-433.59375	14.63421	1.42277	-11.43418	-3.45222
-429.68750	14.66160	5.04963	-13.84938	-3.45184
-425.78125	9.46458	9.07951	-7.40001	-10.70425
-421.87500	9.99109	0.21548	-2.56234	-12.71854
-417.96875	12.18848	-0.99278	-7.79795	-12.31525
-414.06250	19.99270	-1.79810	-7.39252	-9.09142
-410.15625	26.62884	-14.69145	1.47443	-6.27049
-406.25000	25.65371	-13.07919	5.90912	-3.44961
-402.34375	27.89131	-7.03473	10.74667	5.01234
-398.43750	25.66216	-5.01955	4.30228	4.60977
-394.53125	24.90948	7.87479	-10.60376	2.59551
-390.62500	31.34438	11.09869	-6.16907	2.59591
-386.71875	25.36250	5.86108	-3.34606	5.81981
-382.81250	12.77739	5.86167	1.08865	8.64078
-378.90625	10.10342	-0.58463	5.92627	1.38850
-375.00000	12.05735	-3.40452	2.30250	-0.22272
-371.09375	9.46154	-0.98635	-6.15648	2.59824
-367.18750	6.57373	-5.82090	-9.37735	0.98697
-363.28125	5.75274	0.62656	-3.73383	-1.43022
-359.37500	-5.87455	1.43294	-3.73135	-4.25031
-355.46875	-18.16215	-5.81926	-6.95224	-6.26454
-351.56250	-17.26789	-8.23634	1.10885	-6.66706
-347.65625	-16.21085	-10.65339	3.93187	-5.45784
-343.75000	-17.35549	-7.02647	-8.95937	-6.26328
-339.84375	-14.20806	3.04738	-10.97149	-7.06876
-335.93750	-7.32452	9.49482	-6.13385	-4.24782
-332.03125	-4.52771	1.83977	-2.50508	-3.84454
-328.12500	-5.52289	-5.00947	4.75018	-5.85879
-324.21875	-4.56636	1.03502	4.75271	-6.26134
-320.31250	-4.41517	7.07955	1.93470	-5.85810
-316.40625	-4.98953	7.88594	-4.10673	-4.64892
-312.50000	-5.51020	0.63382	-14.58040	-10.69247
-308.59375	-3.27163	-6.21535	-8.13096	-13.10965
-304.68750	-1.40812	-5.40885	-0.47274	-11.09453
-300.78125	-1.87346	-0.97611	-6.11117	-9.07942
-296.87500	0.12790	5.06838	-3.69116	-5.85552
-292.96875	5.97148	11.91877	-1.67405	-3.03457
-289.06250	7.05903	2.24901	-2.47735	-1.01940
-285.15625	4.20907	-2.58542	-8.92166	-3.03366
-281.25000	6.31700	5.87681	-4.08396	0.59321
-277.34375	12.05949	5.07149	4.38011	5.02588
-273.43750	19.43644	6.68388	2.77092	8.65261
-269.53125	28.28363	2.65530	-1.65882	8.65302
-265.62500	36.05822	-10.64074	-2.46212	8.65345
-261.71875	28.22026	-12.25197	-0.84776	7.44505
-257.81250	16.30250	0.23943	-0.84513	4.22202
-253.90625	9.09285	0.23998	-0.84257	4.22242
-250.00000	1.56781	2.65809	-1.64603	1.40231
-246.09375	-6.59407	3.06147	-0.83763	-3.43242
-242.18750	-12.31214	-6.20536	-7.68490	-3.83495
-238.28125	-14.13499	-5.39883	-10.90575	0.19476
-234.37500	-14.58546	4.67498	-7.67973	-1.41652
-230.46875	-18.69821	0.24330	-0.02153	-3.02785
-226.56250	-22.61285	-5.80001	0.38392	-1.01271
-222.65625	-22.60040	-3.78469	-4.04585	-2.22107
-218.75000	-22.43480	-7.00755	2.40359	-1.41479
-214.84375	-25.00712	-7.00688	2.00325	-3.42900
-210.93750	-24.86514	-1.36513	-2.82926	-9.47252
-207.03125	-24.08860	-1.76751	-3.22959	-6.65160
-203.12500	-32.86018	0.24770	-2.82400	-7.86002
-199.21875	-38.00611	-3.78102	1.20792	-15.51539
-195.31250	-30.63519	-11.83904	3.22502	-17.12667
-191.40625	-27.41534	-7.80912	3.22746	-16.32036
-187.50000	-27.54425	-4.58502	-3.21687	-11.08181
-183.59375	-27.37296	-11.83718	-11.67589	-9.06671
-179.68750	-25.78801	-15.86596	-5.62932	-6.24569
-175.78125	-17.76987	-7.00095	2.02900	-1.41009
-171.87500	-11.04313	2.67002	3.24033	3.82850
-167.96875	-12.43411	2.26765	1.63095	5.84365
-164.06250	-6.53819	-0.14937	-6.42520	6.24707
-160.15625	0.12290	-6.99856	-4.00499	8.26222
-156.25000	-2.12494	-5.78903	5.66779	8.26273
-152.34375	-1.54139	-1.35613	-0.77665	9.87490
-148.43750	3.50885	-6.59351	-5.60942	6.65195
-144.53125	5.06799	-2.96655	-2.78638	3.83199
-140.62500	2.66305	-0.54846	-6.41030	6.25012
-136.71875	-1.42773	-6.99482	-9.63129	7.05643
-132.81250	-8.18271	0.25856	-6.40535	3.83351
-128.90625	-11.95497	-2.15840	0.04408	1.41645
-125.00000	-14.71408	-17.87198	3.67292	-0.19477
-121.09375	-16.14695	-7.39514	0.45202	-3.82073
-117.18750	-17.28784	6.30503	0.05160	-4.22321
-113.28125	-14.04868	11.14080	4.48636	-1.80523
-109.37500	-10.88239	10.33555	-1.55517	-2.61061
-105.46875	-7.05582	3.48652	-7.99951	-5.43071
-101.56250	-0.29393	0.26376	-6.38529	-8.65375
-97.65625	3.48475	0.26443	-1.54767	-7.04162
-93.75000	5.43567	-0.54074	1.27530	-3.41479
-89.84375	7.12380	-0.94310	-0.33400	-2.20552
-85.93750	11.52260	-10.21001	-6.37554	-0.19036
-82.03125	16.38177	-10.61245	-8.79075	-6.23380
-78.12500	22.21250	-3.35912	-11.60870	-12.68019
-74.21875	22.86797	-7.79069	-7.17389	-9.05334
-70.31250	16.27026	-11.01349	9.34884	-2.20301
-66.40625	7.17470	1.07500	8.54559	-0.59083
-62.50000	-0.36280	10.34303	-2.73396	-9.05189
-58.59375	-3.00388	8.73202	-3.53735	-10.66317
-54.68750	-6.88153	5.10634	-4.34068	-5.02180
-50.78125	-10.44496	-6.98088	-1.51775	-0.58915
-46.87500	-9.62527	-6.98025	-3.12703	1.82887
-42.96875	-10.63308	1.88494	-7.15387	-0.58827
-39.06250	-9.70539	3.90013	-2.71918	5.05325
-35.15625	0.39796	-2.14339	0.90955	9.88884
-31.25000	5.54344	-0.93391	1.31491	7.87468
-27.34375	1.41335	12.36345	4.94372	7.47223
-23.43750	0.08093	3.09666	7.36385	2.63755
-19.53125	0.50169	-8.99063	0.91946	3.84680
-15.62500	5.62136	-7.78122	-5.92782	14.32345
-11.71875	1.37190	-1.73659	1.32738	8.68287
-7.81250	-6.05056	8.74037	12.20894	0.62476
-3.90625	-1.25794	13.97913	12.21149	5.86340
0.00000	-7.83502	5.11521	2.94658	3.84926
3.90625	-15.78985	-1.33102	0.53144	0.62630
7.81250	-16.11527	3.90772	2.54848	6.26787
11.71875	-14.29189	1.89364	-0.67258	3.04494
15.62500	-15.04961	-2.94103	-6.71403	-2.59559
19.53125	-17.38326	-2.13455	-4.69687	-0.58041
23.43750	-16.28864	1.89545	-4.69447	-0.57986
27.34375	-14.28599	6.73119	-13.55660	2.64416
31.25000	-16.86873	5.52300	-11.94245	-0.57873
35.15625	-19.13106	3.50897	-1.86675	-6.62212
39.06250	-16.85495	-1.32554	9.41776	-0.57762
42.96875	-18.43695	-5.35412	3.77914	1.03464
46.87500	-20.14112	-3.74175	-3.06825	-0.17367
50.78125	-14.99481	-0.92065	2.97817	0.22968
54.68750	-13.90386	1.09453	7.01000	-2.59037
58.59375	-13.09390	4.31854	2.17733	-2.58987
62.50000	-8.53237	4.72209	-5.47596	-2.18643
66.40625	-8.70338	-3.33593	-4.66767	-5.00651
70.31250	-2.22936	-9.78225	-3.05360	-9.43819
74.21875	12.71993	-4.14064	-5.87163	-9.43762
78.12500	10.82866	1.50113	-13.12181	-7.42241
82.03125	5.37019	5.12819	-8.68713	-2.18377
85.93750	3.50387	-1.72099	9.04421	-1.78036
89.84375	1.27530	-7.76431	11.06137	-5.40617
93.75000	4.32933	-10.98716	3.00531	-2.98809
97.65625	4.14908	-18.64235	7.44004	0.63883
101.56250	-0.49800	-5.74789	0.99562	0.63932
105.46875	-2.05685	4.32606	-2.22547	-2.58367
109.37500	-0.05456	6.74424	8.65608	1.44606
113.28125	4.43937	4.73017	3.42055	9.90807
117.18750	5.15058	-1.31317	-1.41214	10.71437
121.09375	5.29668	1.91088	-5.03609	12.72947
125.00000	4.02677	3.92614	-3.42191	10.31238
128.90625	2.63933	1.10620	1.41580	5.07470
132.81250	4.18332	-2.51952	2.62710	5.47804
136.71875	6.18242	-3.32477	3.83837	2.65801
140.62500	14.70128	0.30211	7.06437	3.86728
144.53125	13.29244	-0.90604	9.48449	3.06188
148.43750	10.55989	-6.14342	-2.19804	1.04769
152.34375	17.25759	-14.60429	-7.03073	3.86862
156.25000	18.93306	-19.03578	-0.17856	6.68956
160.15625	16.84201	-0.09728	-5.01130	9.51050
164.06250	14.86065	14.81176	-0.97956	5.48163
167.96875	14.03077	11.18599	1.03754	4.67624
171.87500	13.03526	1.91926	-3.79508	6.69136
175.78125	11.97690	-0.09470	-3.79253	4.67719
179.68750	8.50143	3.93528	-1.37246	2.66307
183.59375	3.09158	5.95061	-0.16123	2.66359
187.50000	4.98815	1.51903	1.85584	-1.76815
191.40625	7.22630	3.53442	5.88763	-1.36469
195.31250	5.86589	6.75863	5.89012	3.87391
199.21875	3.78836	-2.10509	3.87799	-0.96077
203.12500	0.55115	-9.35708	3.88049	-7.40719
207.03125	10.82652	-6.93888	15.56797	-4.58620
210.93750	27.62782	-9.35594	1.46793	-2.57106
214.84375	37.67110	7.56780	-17.87029	-2.16764
218.75000	39.77838	18.04472	-0.94469	-1.36138
222.65625	23.76204	7.16633	7.51935	-4.98730
226.56250	10.18613	7.97284	-0.13389	-6.19549
230.46875	4.93040	5.95883	-4.16068	-5.79206
234.37500	-1.80086	1.93024	-0.12887	-8.20914
238.28125	-3.19231	-1.69540	6.72342	-7.40272
242.18750	1.40980	-12.17085	8.74050	0.25346
246.09375	-1.77092	-11.36427	3.10189	1.46279
250.00000	-8.49036	-9.34895	2.29846	-1.76018
253.90625	-11.01157	-9.75114	5.12138	-2.56561
257.81250	-16.32712	-1.28886	8.34724	-2.96813
261.71875	-10.89762	0.32349	0.29106	-0.14711
265.62500	-4.09587	8.38276	0.69642	2.27088
269.53125	-7.40312	19.26266	11.98083	1.86846
273.43750	-14.13862	9.99592	4.32756	0.25716
277.34375	-20.97638	4.75842	-1.71389	-2.15997
281.25000	-19.19955	1.13261	2.72085	-1.35374
285.15625	-15.32553	-10.55173	-0.90312	0.25836
289.06250	-15.18399	-10.55106	2.32272	2.67639
292.96875	-10.78149	-0.87999	-0.49534	-1.75542
296.87500	-3.83924	6.37348	-12.58082	-2.15788
300.78125	-0.92701	7.58292	-11.77250	3.48354
304.68750	-1.61521	2.74842	-4.92031	3.48398
308.59375	2.40989	-4.90664	2.33480	4.29024
312.50000	-0.13723	3.55551	4.75481	1.47013
316.40625	-9.23379	11.61470	2.74258	-0.14118
320.31250	-10.06696	8.39192	1.53622	3.08266
324.21875	-11.71972	-0.47184	-0.47595	1.06842
328.12500	-10.63452	-5.70926	-4.09991	-0.94581
332.03125	-9.60837	-2.48515	-3.69454	-1.75132
335.93750	-14.18910	0.73892	-12.55661	-2.15384
339.84375	-12.36368	-3.28975	-22.22446	-0.54179
343.75000	-13.40320	-3.69206	-14.96928	-2.55605
347.65625	-14.43183	-0.87095	-8.11706	-4.57028
351.56250	-7.36739	-1.27319	-3.68240	-1.74937
355.46875	-9.43505	-1.27253	-2.87415	0.26571
359.37500	-5.79642	-4.09242	-0.85709	0.66909
363.28125	7.03557	-5.30043	-3.67514	3.08713
367.18750	5.92129	-0.06161	-3.26978	1.07293
371.09375	1.34292	-0.06090	-0.84970	-1.34421
375.00000	0.19521	-0.46312	-9.71169	1.47676
378.90625	-1.85173	3.56690	-9.30632	0.37392
382.81250	-2.94053	-6.10277	-6.48336	0.41147
386.71875	0.42932	-4.89326	-13.33088	-0.94870
390.62500	0.39903	4.77783	-14.53730	-5.24835
394.53125	3.30669	3.97276	-2.44693	-2.05501
398.43750	3.92970	0.34703	6.41994	-0.46398
402.34375	5.07640	3.16814	1.18428	-0.04426
406.25000	12.34697	1.15416	1.99255	3.08041
410.15625	11.47469	-4.88908	3.20379	2.46335
414.06250	10.05431	-7.70883	-0.42008	3.62737
417.96875	10.91511	-4.88763	4.82055	7.97270
421.87500	9.02581	-2.06646	6.03177	7.95961
425.78125	4.90279	-0.05103	-1.62151	3.87767
429.68750	10.08358	5.99372	-0.41037	1.70987
433.59375	16.83957	10.02387	-0.40798	0.45118
437.50000	7.82874	7.60704	-10.88173	-4.53526
441.40625	1.25390	3.57845	-11.28226	-4.18369
445.31250	-2.56708	1.16152	-2.01244	-7.01836
449.21875	-4.18244	-8.91108	3.22815	-9.52496
453.12500	-3.33364	-11.32798	6.05114	-6.34666
457.03125	-2.50428	3.98420	10.88876	-5.35026
460.93750	-1.71752	4.38786	4.04129	-4.23869
464.84375	-4.42627	1.97107	-9.25298	-4.62572
468.75000	-1.91477	7.20988	1.62865	0.18666
472.65625	1.51388	9.22525	14.12194	5.79692
476.56250	-0.33398	7.61429	3.24515	5.93110
480.46875	-7.13704	4.39166	-11.25798	1.34908
484.37500	-10.75047	1.57199	-11.65849	-2.64324
488.28125	-6.08518	-5.27697	-8.83559	-0.58467
492.18750	-2.86657	-11.72309	-2.78924	2.22893
496.09375	0.24296	-14.54289	4.06301	6.74479
500.00000	-1.70384	-6.88642	4.46847	6.13413
503.90625	-7.03693	-2.05049	3.66506	4.97384
507.81250	-2.59682	1.17378	-3.18241	10.32151
511.71875	-0.35931	11.65078	-14.05908	11.95912
515.62500	-3.99230	13.26330	-10.02735	9.58145
519.53125	-7.17182	0.77327	-3.98097	4.87941
523.43750	-11.82236	-1.24056	-0.75509	2.91515
527.34375	-11.19924	4.40125	2.87369	5.10281
531.25000	-10.30712	1.98445	-3.57077	2.34912
535.15625	-9.00649	4.80566	-9.20927	2.35326
539.06250	-6.21086	6.82103	-13.63896	-1.20502
542.96875	-11.00656	-3.25154	-11.62171	-6.80370
546.87500	-12.15584	-3.25084	-1.54598	-5.76515
550.78125	-6.92628	-8.08530	0.87407	-0.41204
554.68750	-3.51436	-8.89036	1.27940	0.37081
558.59375	4.40771	4.81010	3.69949	-1.23936
562.50000	12.73693	2.39327	7.32828	6.03811
566.40625	19.51083	-1.63525	11.76288	10.35473
570.31250	33.95696	-3.64905	8.94480	14.95646
574.21875	41.49945	-10.49805	3.70917	15.72136
578.12500	40.80772	-2.84165	4.51746	18.07402
582.03125	40.47162	4.00890	5.72871	23.71298
585.93750	43.09971	3.60660	4.92532	22.03407
589.84375	46.25771	1.99565	7.74828	26.29237
593.75000	47.86870	-8.47983	0.09505	29.06366
597.65625	49.40487	-11.70261	-4.33470	22.48674
601.56250	46.81385	-3.24033	-2.72053	25.67251
605.46875	38.05629	-0.41906	-5.94149	28.86992
609.37500	30.77710	-11.70033	-1.10397	25.93880
613.28125	25.26529	-6.86443	2.52481	21.45880
617.18750	13.28180	1.59788	6.55647	16.83418
621.09375	7.99313	0.38982	2.12664	14.73838
625.00000	12.03216	2.00227	-1.49726	20.78927
628.90625	7.25365	-4.04108	5.35493	20.34135
632.81250	2.29805	-2.42862	9.38666	14.26092
636.71875	6.98637	8.45122	8.98624	13.20466
640.62500	10.64257	6.84027	1.73588	11.46135
644.53125	10.95783	4.82638	0.52943	13.91010
648.43750	8.72256	0.79792	0.93476	13.12595
652.34375	8.38109	4.02221	-6.71860	9.88676
656.25000	6.75091	4.02293	-7.52207	7.97191
660.15625	10.44308	-2.02039	1.34485	8.99286
664.06250	18.30970	4.42724	-3.48780	12.66510
667.96875	17.85131	4.83092	-7.91759	9.93253
671.87500	16.51661	0.39936	1.75519	8.73790
675.78125	20.63912	-1.61456	5.38400	9.19459
679.68750	19.48722	-2.82256	5.38652	5.72257
683.59375	16.35722	0.40168	4.18023	4.56476
687.50000	13.68239	2.82002	2.16802	-0.52097
691.40625	10.18317	2.82074	3.37930	-4.49792
695.31250	16.42103	-0.80489	-0.24462	2.36705
699.21875	22.87081	1.61357	-1.85405	9.70973
703.12500	22.82710	0.40552	-1.04580	11.36758
707.03125	29.65280	-1.60843	-11.11661	9.56618
710.93750	38.13272	2.82456	-9.90539	6.03798
714.84375	34.39380	0.00481	-9.50001	2.39657
718.75000	29.06112	-4.02375	-2.64780	-2.01188
722.65625	33.28743	-2.00835	5.41318	-2.38309
726.56250	32.71711	-1.60466	-0.22537	-4.93383
730.46875	26.62581	0.81373	-1.02878	-5.99183
734.37500	32.25328	-2.40894	-1.02631	-0.38681
738.28125	36.04889	-4.42282	-1.42688	-1.23551
742.18750	35.65023	0.41306	0.59004	-2.03358
746.09375	36.56931	1.62264	1.39825	1.10724
750.00000	33.27744	-2.40588	0.59473	2.92762
753.90625	31.35719	-1.59931	-0.61180	3.68584
757.81250	30.94583	-11.26894	-6.25036	9.62114
761.71875	22.66376	-14.08879	-8.66546	8.79037
765.62500	12.99948	6.05850	-0.20154	5.12507
769.53125	4.89642	4.04465	5.84474	4.59002
773.43750	-2.94440	-4.01325	2.22074	3.73479
777.34375	-2.76232	-0.78895	0.61145	5.17448
781.25000	-6.87856	0.82370	2.62846	1.07943
785.15625	-11.80629	1.22742	9.07773	1.07636
789.06250	-11.78217	3.64574	6.25952	6.24749
792.96875	-14.64300	2.43764	-6.63187	3.78859
796.87500	-12.68876	-2.39677	-4.61479	1.13938
800.78125	-13.08390	2.43910	-0.98601	0.21951
804.68750	-15.28778	-0.38067	-7.83344	1.04946
808.59375	-9.91394	1.23174	-10.24868	4.27238
812.50000	-10.58829	11.30569	-1.38182	3.44278
816.40625	-8.49846	5.26240	3.85861	4.36533
820.31250	-6.02225	-5.61586	-5.40647	4.19685
824.21875	-7.11871	-1.18287	-8.22460	4.64178
828.12500	-7.63668	-0.77932	5.07465	5.91655
832.03125	-8.51029	-3.59908	7.89758	4.30791
835.93750	-7.91581	2.44566	-1.77038	4.77915
839.84375	-8.65707	5.26690	-10.63241	5.75993
843.75000	-8.65717	2.85018	-9.42117	6.61607
847.65625	-4.55318	-1.17833	0.65452	4.32957
851.56250	-0.75422	-11.65376	6.70081	3.56241
855.46875	-0.05620	-11.65295	7.10605	0.76901
859.37500	-2.44815	-0.37013	0.25845	-5.56621
863.28125	-6.20453	-0.77225	0.66369	-5.51740
867.18750	-4.29516	0.03449	9.53054	-0.89178
871.09375	-1.42491	9.70546	5.10078	3.62256
875.00000	-3.85314	4.87101	-3.76135	-0.41263
878.90625	-4.31373	-4.39554	1.88209	-3.99303
882.81250	-4.19412	2.45512	3.89912	-2.74670
886.71875	-3.64513	-0.76753	-0.53072	-2.09223
890.62500	-2.86992	-1.97556	0.68052	-2.36254
894.53125	-6.00655	2.86034	1.08583	-2.39254
898.43750	-6.59268	3.66683	3.10277	0.81026
902.34375	-1.81988	0.44412	7.94021	3.24467
906.25000	2.22695	-2.77841	4.71912	2.74294
910.15625	0.95170	0.04306	0.28923	-1.50044
914.06250	-2.88633	-3.98555	0.69453	-5.97746
917.96875	-0.81700	-0.35849	-0.51189	-0.02042
921.87500	-3.51241	10.52123	-5.74762	2.78704
925.78125	-5.62108	4.47807	-9.77458	2.73433
929.68750	-2.05234	-5.99722	-5.33997	6.61046
933.59375	-6.98176	6.09158	0.70633	2.93417
937.50000	-7.53136	14.95685	0.30575	3.58873
941.40625	-2.42153	3.27260	2.32266	6.35787
945.31250	-7.45148	-3.17351	2.32490	1.10560
949.21875	-16.72280	-5.18733	-4.52256	-5.02734
953.12500	-17.48596	-9.21586	-1.29672	-7.08719
957.03125	-16.25394	0.85822	3.54091	-5.28484
960.93750	-17.88499	12.54398	-1.29174	-4.57620
964.84375	-12.13235	8.11262	-3.70689	-3.75434
968.75000	2.86972	4.08410	3.54821	-2.97133
972.65625	15.96858	4.89078	1.13300	-3.80795
976.56250	27.41711	2.87696	-8.13211	2.77314
980.46875	32.29878	5.29528	-12.15906	6.65264
984.37500	33.52025	0.86390	-9.73918	3.46622
988.28125	37.78242	-10.41735	5.17155	1.09250
992.18750	41.80667	-13.64007	4.77089	2.69739
996.09375	39.67788	-6.78952	-0.86786	2.78101
1000.00000	33.29866	-4.37113	7.59610	2.17031
1003.90625	19.10081	-1.14682	1.95753	1.41305
1007.81250	0.97655	11.34495	-4.48706	-6.13308
1011.71875	-11.69469	9.73406	2.36505	-8.52481
1015.62500	-18.95432	4.09390	10.42604	-7.27619
1019.53125	-26.16341	7.72105	3.98146	-5.93433
1023.43750	-30.41126	6.11016	-8.91005	-4.27224
1027.34375	-28.57949	-1.54474	-13.34003	-3.69630
1031.25000	-31.31388	1.27652	-2.45866	-4.43535
1035.15625	-34.44553	1.68029	13.25789	-1.61075
1039.06250	-36.88790	-5.97464	9.23092	1.27774
1042.96875	-36.84832	-3.55634	-1.64590	0.11132
1046.87500	-35.57988	2.08537	-2.04643	-2.87951
1050.78125	-40.42352	-1.94326	4.40280	-1.15277
1054.68750	-34.99693	-5.97175	4.80812	4.86815
1058.59375	-25.06022	-3.95623	-1.63646	7.69016
1062.50000	-24.78961	2.89443	2.79804	5.70021
1066.40625	-31.31249	9.74496	-0.42313	2.76398
1070.31250	-29.35735	6.92521	-12.50873	4.94809
1074.21875	-27.05307	-2.74442	-4.04490	6.51880
1078.12500	-30.56543	-1.13186	9.65694	6.05092
1082.03125	-30.90171	7.73339	12.88265	6.85457
1085.93750	-32.30307	10.55461	10.06453	7.19024
1089.84375	-28.33931	6.52604	0.79945	7.82221
1093.75000	-26.72840	-1.53181	-0.40705	9.38468
1097.65625	-29.62463	-7.97793	-2.41943	8.44873
1101.56250	-31.00702	-2.73899	-4.83475	1.15837
1105.46875	-27.27392	2.90287	-6.04120	-0.07650
1109.37500	-27.70344	2.90368	-10.87420	3.84216
1113.28125	-25.55980	0.08411	4.43944	6.21201
1117.18750	-19.41159	-0.31796	16.52975	6.82551
1121.09375	-21.47703	-0.31717	-0.39108	3.52091
1125.00000	-21.06468	3.30987	-11.67081	2.31911
1128.90625	-14.56136	8.54870	-1.99815	2.67708
1132.81250	-12.66757	4.11734	3.24221	2.64057
1136.71875	-12.00899	3.71520	6.46787	1.58425
1140.62500	-14.80007	2.50718	4.05262	1.45269
1144.53125	-14.88812	0.09047	-3.19792	5.91601
1148.43750	-15.10919	6.13529	-4.00159	10.36997
1152.34375	-21.89792	5.73314	-1.58180	10.75711
1156.25000	-17.88740	-1.51883	5.27033	8.84222
1160.15625	-10.56924	-0.30925	2.45212	7.84851
1164.06250	-4.71768	0.90027	-0.36606	8.70019
1167.96875	1.27028	-12.39569	4.06838	6.77338
1171.87500	1.54683	-7.15676	6.48812	3.56390
1175.78125	-1.58398	2.91732	5.68448	-0.81474
1179.68750	-3.13948	0.09759	-1.16308	2.56282
1183.59375	-5.46416	4.53058	2.86850	5.83711
1187.50000	-8.94529	3.32265	1.66198	1.96002
1191.40625	-10.83320	4.12945	-5.99141	2.01233
1195.31250	-10.63980	8.96543	-1.15402	0.81866
1199.21875	-11.84610	6.14569	-1.55472	-2.31487
1203.12500	-11.08442	6.54932	-4.37296	-4.28346
1207.03125	-7.48277	2.52078	2.07626	-2.86146
1210.93750	-4.24150	2.92454	0.86982	-2.76334
1214.84375	-5.56332	4.13419	2.08090	-6.00178
1218.75000	-7.27004	-7.95295	9.73880	-4.36620
1222.65625	-11.90865	-16.41371	7.32347	-4.33453
1226.56250	-13.28539	-11.98070	0.87873	-4.87071
1230.46875	-7.69219	-0.69787	-1.53665	-7.13758
1234.37500	-3.67688	-7.54682	1.28614	-7.97952
1238.28125	-4.71694	-8.35182	-5.96433	0.03620
1242.18750	-4.31019	6.15450	-14.42358	3.67042
1246.09375	-1.37681	7.36409	-3.94513	2.78194
1250.00000	-2.65455	7.36484	4.11570	-3.45624
1253.90625	-0.54591	10.18604	9.35598	-4.30964
1257.81250	6.29504	11.39567	14.59629	2.02856
1261.71875	9.29459	6.56137	6.94293	3.61536
1265.62500	9.30023	-3.51100	-1.91922	5.59112
1269.53125	15.70223	-5.52480	-3.93172	10.29418
1273.43750	17.93424	-1.89765	-3.92954	10.24480
1277.34375	18.11592	8.17652	4.93714	8.46104
1281.25000	25.28124	8.98326	10.17740	6.78350
1285.15625	28.81458	-0.28325	0.50925	3.55697
1289.06250	22.79440	3.34396	-9.15879	2.68402
1292.96875	14.29222	6.97111	-5.93316	-0.17785
1296.87500	11.81393	2.53966	0.51588	-3.23010
1300.78125	8.19486	0.52592	-0.28766	-4.95587
1304.68750	15.25795	6.97363	0.52048	-5.73770
1308.59375	26.67540	4.95969	5.35792	-4.12663
1312.50000	30.43285	2.54285	2.13662	1.08766
1316.40625	25.67231	5.76715	-5.91989	-1.61633
1320.31250	3.97218	2.14162	-5.11190	-21.52852
1324.21875	-5.98918	-2.69279	-5.91555	-32.36577
1328.12500	-5.29874	-3.09483	-6.71928	-32.29991
1332.03125	-10.20203	0.12949	-3.89655	-31.49099
1335.93750	-19.27834	2.54781	-6.71486	-37.06385
1339.84375	-28.88455	1.74270	-6.71255	-44.14175
1343.75000	-26.06458	0.53472	-8.72491	-41.27103
1347.65625	-23.97559	2.14735	-13.96082	-44.36344
1351.56250	-28.23562	1.34226	-11.94401	-47.95116
1355.46875	-27.94079	-4.29792	-8.71843	-45.50657
1359.37500	-25.49792	-1.47659	-11.13388	-47.00668
1363.28125	-16.76385	1.34472	-12.34053	-44.54039
1367.18750	-17.27241	2.95725	-11.12955	-50.79399
1371.09375	-31.72856	2.55512	-5.88926	-59.57640
1375.00000	-31.33660	5.77941	-4.27529	-51.12082
1378.90625	-22.93300	0.54212	-3.87006	-43.01631
1382.81250	-26.03714	-1.87461	0.16141	-44.99346
1386.71875	-31.93537	-1.06777	0.16359	-43.53316
1390.62500	-30.75753	-8.72257	2.58335	-37.35660
1394.53125	-28.25346	-9.12471	3.39148	-31.34266
1398.43750	-30.04859	-0.66237	-1.84438	-32.16925
1402.34375	-28.90253	12.23222	-6.67733	-33.36121
1406.25000	-28.07949	18.27692	-14.33076	-26.20724
1410.15625	-28.95239	11.42787	-15.94037	-24.80962
1414.06250	-33.59677	3.77292	-1.02978	-27.27205
1417.96875	-35.55710	0.95321	6.62805	-25.34431
1421.87500	-31.40316	-4.68698	-0.21951	-22.53692
1425.78125	-28.27402	-7.10364	0.18563	-18.56024
1429.68750	-19.46756	-2.26763	-0.21515	-12.26651
1433.59375	-12.71228	-4.28140	-1.42174	-9.49588
1437.50000	-12.05342	-19.59190	2.60977	-10.85595
1441.40625	-6.54094	-15.56175	2.61194	-11.31020
1445.31250	-3.10963	8.21204	-1.01225	-9.71265
1449.21875	-8.75494	16.27152	-5.44239	-5.77229
1453.12500	-15.15946	10.63139	-7.45494	-0.57938
1457.03125	-13.52477	0.55908	-1.81178	0.41719
1460.93750	-17.17074	-5.08098	3.42851	1.52877
1464.84375	-17.46235	-5.08010	1.41612	3.96235
1468.75000	-15.75732	-5.48223	-1.40221	1.52203
1472.65625	-23.61119	-2.66088	0.61468	-3.74678
1476.56250	-26.26548	-1.04838	4.24328	-9.25360
1480.46875	-23.39883	-3.86819	5.45424	-4.97109
1484.37500	-22.17772	-6.28484	-1.39342	0.30410
1488.28125	-21.13951	-3.86639	-0.18242	1.55679
1492.18750	-17.11589	0.16377	1.43155	3.96751
1496.09375	-12.79824	3.38799	-0.17802	6.46863
1500.00000	-6.28418	10.23873	1.83874	13.11073
1503.90625	-3.15655	9.03085	-9.44121	17.99446
1507.81250	-6.77592	2.98780	-12.25955	12.86587
1511.71875	-9.77750	-6.27868	-0.16947	10.47409
1515.62500	-9.78506	-10.30704	-0.97322	11.31969
1519.53125	-6.92157	-5.47110	-7.82096	7.42331
1523.43750	-10.36429	2.58828	9.50728	6.66779
1527.34375	-16.18887	4.60380	16.35925	1.60261
1531.25000	-9.65650	5.00758	5.07937	-1.15117
1535.15625	-5.53608	5.41133	-0.96241	2.88220
1539.06250	-2.33823	-3.45222	3.47199	4.15891
1542.96875	6.56509	0.98092	7.90640	2.99249
1546.87500	6.62403	1.78766	-0.14994	1.21046
1550.78125	7.42071	-4.65835	-4.57998	-0.28631
1554.68750	15.26412	-3.04568	-6.18953	-1.51821
1558.59375	17.14159	-4.25361	-6.18743	2.91551
1562.50000	23.85853	-11.90849	1.87325	9.38710
1566.40625	22.57323	-14.72816	4.29294	7.25678
1570.31250	8.00771	-16.33901	2.68326	-3.04991
1574.21875	11.52024	-3.44426	-6.98498	-4.29969
1578.12500	15.26009	8.64457	-12.62392	3.69387
1582.03125	8.87937	4.21329	-3.75728	3.28878
1585.93750	5.46278	5.82588	-0.93466	-2.01663
1589.84375	7.41129	8.24438	3.09678	-0.98184
1593.75000	8.61870	5.82767	0.68129	3.80396
1597.65625	9.34825	2.60505	-4.55469	3.67379
1601.56250	14.41222	1.39708	-1.32908	5.24774
1605.46875	13.30964	-0.61667	-5.35625	4.41571
1609.37500	9.65613	-2.22747	-9.38351	2.29031
1613.28125	13.41088	-7.46474	-4.54637	5.06293
1617.18750	16.73801	-13.50779	-2.52961	4.06453
1621.09375	17.89547	-9.07464	-10.58604	1.96871
1625.00000	16.29260	-1.41807	-8.16636	1.57267
1628.90625	14.73681	2.20921	3.52071	-3.71046
1632.81250	9.78028	8.25409	2.31404	-5.76176
1636.71875	4.39447	6.24035	-1.31019	-2.38591
1640.62500	-1.21769	-4.23498	-0.90504	-2.92050
1644.53125	-4.93264	0.19814	-3.32046	-2.88947
1648.43750	-3.54243	3.82541	-7.34766	-3.27080
1652.34375	-3.88465	3.02043	-6.53980	-1.67491
1656.25000	0.93139	3.02131	-2.10561	2.45411
1660.15625	6.23456	-1.81300	-8.14756	1.86327
1664.06250	3.22133	-6.64727	-10.96591	-1.71734
1667.96875	3.97106	-8.25810	-2.09926	-3.24124
1671.87500	5.85913	-5.83976	1.52931	0.80210
1675.78125	5.54868	-3.01837	3.94901	1.25863
1679.68750	6.41070	-3.82336	6.36876	1.00992
1683.59375	9.72687	-0.19604	5.16214	5.49304
1687.50000	13.49832	-3.82155	6.77604	13.30092
1691.40625	13.62492	-11.07343	3.95766	15.36792
1695.31250	10.59469	-2.61103	-1.27842	13.36843
1699.21875	9.38824	4.64252	-21.01996	9.83199
1703.12500	9.74694	-6.23576	-19.00321	5.04296
1707.03125	7.70757	-8.65245	0.74252	3.64451
1710.93750	2.89019	5.04821	-0.06118	4.54850
1714.84375	-4.87848	9.07849	-0.86488	5.33934
1718.75000	-4.16773	6.66184	7.19583	3.34846
1722.65625	-5.18004	1.42469	5.98911	3.78307
1726.56250	-11.79481	0.21688	-2.87320	2.44108
1730.46875	-7.81334	0.62071	-5.69160	-1.84044
1734.37500	-7.42449	-3.00471	7.60718	-3.08536
1738.28125	-9.67338	-1.79505	11.23565	-5.14293
1742.18750	-6.44618	-0.58539	2.37329	-3.52334
1746.09375	-7.94508	-0.98742	1.56951	-5.21762
1750.00000	-6.40225	4.25166	2.37744	-8.23231
1753.90625	-3.08484	2.64091	3.99126	-9.08576
1757.81250	-9.13765	-1.38748	-0.43886	-14.43251
1761.71875	-16.61424	-1.38654	-4.86903	-18.48672
1765.62500	-28.69665	-2.19139	-3.25531	-19.73453
1769.53125	-35.59145	-2.59339	-3.65611	-21.88128
1773.43750	-36.98587	1.03382	-2.84815	-26.76578
1777.34375	-45.66871	5.06391	-4.86064	-34.59338
1781.25000	-50.59134	1.43838	-5.26148	-35.86797
1785.15625	-55.11668	0.63332	-1.23011	-41.10906
1789.06250	-64.36053	-2.58929	-4.04851	-50.84641
1792.96875	-71.25129	-0.57365	-1.62881	-60.96104
1796.87500	-77.75911	12.72401	8.84951	-72.87758
1800.78125	-86.21350	9.50156	3.61345	-81.85601
1804.68750	-98.49122	-3.79427	-6.45791	-91.90517
1808.59375	-100.37069	-10.64313	-10.08224	-97.54671
1812.50000	-100.64268	-3.79242	-4.03620	-110.06126
1816.40625	-105.40327	3.46112	4.02449	-118.80908
1820.31250	-105.34521	-3.79083	-1.21158	-120.99223
1824.21875	-112.08317	3.05991	-10.47693	-130.21761
1828.12500	-115.82497	8.70181	-4.43087	-130.95752
1832.03125	-116.69900	-2.57930	4.43576	-128.53676
1835.93750	-114.09045	10.71836	-1.20321	-125.24519
1839.84375	-114.42936	13.13699	-14.49789	-121.44392
1843.75000	-114.02714	-0.96449	-17.71938	-118.57318
1847.65625	-105.49152	3.06579	0.41458	-114.00987
1851.56250	-101.29019	9.51358	4.44602	-110.34485
1855.46875	-100.18980	3.06750	-1.59585	-103.06503
1859.37500	-90.09161	-5.39323	1.22674	-92.47719
1863.28125	-79.34314	-1.36306	2.84047	-81.54928
1867.18750	-70.18171	5.89057	4.05119	-72.49149
1871.09375	-65.70049	13.14424	5.66493	-65.55958
1875.00000	-64.90582	13.14523	-4.40626	-59.52158
1878.90625	-51.26443	11.13156	-16.08905	-48.59657
1882.81250	-35.83400	9.11782	-10.04295	-33.65061
1886.71875	-22.79484	7.50702	3.25586	-20.50534
1890.62500	-13.55866	3.07564	5.27253	-9.89667
1894.53125	-5.01081	-4.98210	5.67751	-1.06222
1898.43750	8.10215	-8.60766	8.90306	11.40786
1902.34375	16.50066	-12.63607	2.05528	18.67740
1906.25000	24.97905	-5.78541	8.10115	23.81669
1910.15625	29.34397	-0.14353	16.56468	30.85527
1914.06250	27.92268	11.13946	7.29941	38.86900
1917.96875	29.58839	7.51411	2.06341	43.61722
1921.87500	32.53332	-7.39342	-1.56087	44.00710
1925.78125	36.87093	-0.54275	-3.97635	47.17790
1929.68750	44.87127	6.30798	1.26394	52.26275
1933.59375	45.98523	-4.57024	3.68365	55.03332
1937.50000	44.62927	-22.29828	3.68573	55.28490
1941.40625	49.33571	-21.89446	6.10538	56.44226
1945.31250	49.94627	-0.13526	4.89862	51.99578
1949.21875	45.91256	4.70084	3.69187	52.71254
1953.12500	43.13425	2.68710	5.30552	55.48781
1957.03125	43.55999	7.52325	2.48706	53.66376
1960.93750	45.95787	7.92710	-3.95782	56.38693
1964.84375	44.45726	4.30167	5.71451	55.59703
1968.75000	48.57975	4.70550	7.32825	57.18589
1972.65625	50.39600	4.70654	-13.62204	59.97569
1976.56250	45.32393	-5.76864	-6.36719	55.27470
1980.46875	42.54934	-3.35006	10.55792	47.06637
1984.37500	37.32328	1.08319	10.15697	39.85067
1988.28125	35.54088	-1.73637	4.92088	42.71503
1992.18750	36.74398	2.29389	5.72882	47.14041
1996.09375	37.43516	-0.92861	10.96898	47.22405
2000.00000	37.09927	-8.98628	6.94170	49.03096
2003.90625	34.18277	-6.56780	-3.12949	50.69125
2007.81250	28.95165	0.68581	-9.97731	47.17454
2011.71875	22.72673	1.89556	-7.15488	47.20044
2015.62500	22.31629	0.68778	-13.19683	48.85207
2019.53125	21.55337	-6.56396	-8.76252	40.12067
2023.43750	20.52826	-4.54837	6.55084	36.94759
2027.34375	17.52416	4.31711	8.97040	35.50890
2031.25000	17.60960	4.72102	4.94295	33.15816
2035.15625	18.50651	6.33376	4.54204	35.98277
2039.06250	13.64577	8.34945	4.54402	35.24494
2042.96875	11.26695	5.12698	3.74006	35.28732
2046.87500	10.92288	3.91909	-3.91377	35.11701
2050.78125	8.09302	0.69659	-10.35877	29.59101
2054.68750	6.26603	-3.73478	0.52233	24.32989
2058.59375	6.53156	-6.15146	-5.92254	25.54020
2062.50000	3.98079	-13.80622	-15.18790	28.38543
2066.40625	0.68055	-20.65502	3.75188	23.83750
2070.31250	1.02313	-0.91044	10.20069	21.18655
2074.21875	4.13245	19.23698	9.39681	23.16018
2078.12500	2.63385	8.76169	6.17532	19.06586
2082.03125	-0.92677	3.12164	4.16257	19.86950
2085.93750	-1.12021	4.33142	10.20840	18.99630
2089.84375	2.84261	0.30304	2.95753	13.98715
2093.75000	-1.59137	0.70685	6.18284	13.13189
2097.65625	-5.29422	3.12549	12.22869	11.38997
2101.56250	3.79880	5.94703	-1.06603	12.96395
2105.46875	9.94872	3.12749	-11.13729	18.57885
2109.37500	12.33895	2.32254	-1.46498	19.67696
2113.28125	16.89936	-1.70589	10.22195	16.40571
2117.18750	18.21165	-8.55474	4.98581	15.00455
2121.09375	15.74257	-1.30103	-2.26495	17.74396
2125.00000	17.76602	-0.09130	-4.68051	18.55675
2128.90625	21.85118	2.32722	-4.67862	18.91476
2132.81250	18.90923	11.59554	-5.07967	12.02835
2136.71875	13.12044	5.95541	-1.45132	7.74854
2140.62500	8.71710	-2.10226	4.59454	8.42288
2144.53125	11.04606	1.92796	-2.65625	12.88621
2148.43750	13.64493	7.56994	-5.07189	12.90793
2152.34375	10.88494	3.54153	5.80916	10.87743
2156.25000	8.44805	-6.53074	11.85495	10.97719
2160.15625	3.67783	-9.35019	1.38065	5.55125
2164.06250	-6.99112	-10.96088	-5.87007	5.19422
2167.96875	-11.47964	-11.36284	0.98173	4.87924
2171.87500	-3.54762	-0.48288	6.62471	6.10223
2175.78125	7.82692	7.17370	5.41779	8.57359
2179.68750	13.92702	8.78621	0.58453	10.33970
2183.59375	11.60220	4.35489	-3.44288	17.64351
2187.50000	7.71810	-2.09096	-2.63513	23.03411
2191.40625	7.03903	-0.47824	-3.84198	27.51898
2195.31250	5.21783	1.94025	-2.63119	28.74332
2199.21875	-2.03238	-9.34089	3.41474	20.77514
2203.12500	-10.94085	-4.90771	1.40203	13.16604
2207.03125	-16.20350	-0.07165	-6.25171	7.33587
2210.93750	-18.60315	-0.47364	-9.87620	3.00233
2214.84375	-23.95415	3.95947	-5.84516	-3.86202
2218.75000	-22.43737	-2.48660	5.43871	-1.42011
2222.65625	-20.62897	-6.91788	9.46988	-2.19377
2226.56250	-22.81146	-1.67889	3.42783	-17.23487
2230.46875	-12.38297	6.78367	-0.19666	-12.24843
2234.37500	-2.32363	6.38183	-3.82111	1.41568
2238.28125	1.47156	6.78570	-13.48954	8.22314
2242.18750	9.93697	9.60717	-11.87584	12.66366
2246.09375	13.67629	2.35530	7.06377	12.17856
2250.00000	19.24849	-2.47911	15.12435	10.37309
2253.90625	27.40104	-6.50757	3.84410	13.14643
2257.81250	28.19800	-3.28313	4.24878	13.84403
2261.71875	36.83851	9.61157	5.86241	13.01360
2265.62500	36.44110	5.18018	-2.19437	11.76625
2269.53125	23.90526	3.97234	-0.17790	10.02274
2273.43750	16.86958	0.34698	1.03274	13.60003
2277.34375	11.00699	-6.09893	0.22882	11.41353
2281.25000	9.71039	10.01922	1.03658	8.52743
2285.15625	13.24334	11.63184	-6.61719	10.53907
2289.06250	12.05776	-0.45534	-8.22709	9.66628
2292.96875	12.82236	-1.26034	-11.44872	10.43085
2296.87500	13.56688	5.18750	-8.62634	11.81089
2300.78125	15.18530	7.60607	-3.78934	7.66744
2304.68750	23.85952	12.03930	-2.57870	6.88555
2308.59375	21.17369	4.78752	-2.17399	6.07900
2312.50000	17.67773	-12.53757	-1.36621	5.24931
2316.40625	21.37821	-16.16301	6.29127	5.76872
2320.31250	26.27092	-0.44778	5.89021	2.37652
2324.21875	28.79978	12.04401	-0.15194	2.82114
2328.12500	29.89247	9.62743	-0.15011	5.30441
2332.03125	24.58567	4.39029	-3.37165	5.71014
2335.93750	18.32924	6.80881	-11.02552	9.40439
2339.84375	15.97505	8.01856	-6.18857	9.17611
2343.75000	7.91521	6.40779	3.08061	6.80853
2347.65625	-2.08435	1.57352	-3.36435	2.90995
2351.56250	-2.31573	-4.87240	0.26387	4.96302
2355.46875	-4.43913	1.57538	2.28030	7.81032
2359.37500	-6.02616	10.44092	-4.56763	7.92169
2363.28125	-1.72482	12.85952	-0.53643	7.56727
2367.18750	-3.84574	4.39896	1.48007	6.14854
2371.09375	-6.61743	2.78808	1.48194	6.23038
2375.00000	-2.19659	2.78902	-5.76895	-2.64035
2378.90625	4.99772	-4.86570	-19.06383	-5.81821
2382.81250	3.50479	5.61135	-21.07668	-2.55760
2386.71875	-0.37939	18.10320	-8.98704	-5.52986
2390.62500	-2.82847	3.59862	-2.94138	-6.20360
2394.53125	-4.35426	-3.65327	-1.32785	-5.42819
2398.43750	-2.52361	-2.04059	2.30036	-2.22583
2402.34375	1.03949	-5.26312	8.74914	1.41692
2406.25000	3.87658	-6.06796	16.80958	5.34704
2410.15625	10.25597	-6.87275	6.33515	10.77363
2414.06250	11.25214	-0.82784	-6.95977	6.29626
2417.96875	7.67959	-9.69141	-5.34623	4.19438
2421.87500	9.81841	-16.94324	-2.12111	9.82210
2425.78125	14.96160	-4.85439	-14.20721	10.57505
2429.68750	13.69415	3.20504	-21.86107	10.82453
2433.59375	12.79312	9.24980	1.51074	13.19199
2437.50000	11.83974	4.81845	15.61507	13.84643
2441.40625	8.89006	-3.23927	13.60226	12.18316
2445.31250	11.11195	4.82020	11.18661	12.57170
2449.21875	13.12183	4.41828	10.78552	11.27371
2453.12500	9.94020	-7.66873	7.16093	8.00492
2457.03125	13.18595	-9.68253	3.53639	12.62755
2460.93750	18.80679	1.19747	2.73236	13.33595
2464.84375	10.85874	11.27158	-6.93619	10.53114
2468.75000	1.68404	8.04905	-10.96374	2.04650
2472.65625	5.11156	6.84118	-11.76789	-3.22254
2476.56250	5.27703	12.08028	-8.13975	0.53776
2480.46875	-0.72146	3.61966	0.32365	2.40239
2484.37500	-3.53034	-6.04979	4.35474	0.42456
2488.28125	1.93954	1.20387	3.55066	6.10923
2492.18750	7.17148	8.86045	-3.29732	14.56377
2496.09375	7.86216	6.04091	4.36014	15.05009
2500.00000	7.52577	0.40091	14.03231	14.43934
2503.90625	4.20598	-2.01573	7.58724	14.48779
2507.81250	5.82412	1.20863	3.96267	12.58261
2511.71875	9.26893	3.62713	7.59078	9.78783
2515.62500	8.45494	5.23994	-0.86899	8.61882
2519.53125	9.30318	0.00288	-4.89657	9.55762
2523.43750	10.69511	-13.69576	-0.86552	7.19035
2527.34375	6.48163	-8.85970	-0.46080	2.93104
2531.25000	2.13437	-1.20314	-1.66783	2.59488
2535.15625	3.43374	-1.60510	-0.05435	1.79310
2539.06250	5.82516	-4.02165	2.36500	3.47274
2542.96875	3.44589	-19.33205	-4.08011	-4.14064
2546.87500	4.71303	-14.89881	-8.10759	-10.75782
2550.78125	8.32975	2.83120	-16.97025	-4.59892
2554.68750	4.08478	6.45856	-13.74494	-3.41322
2558.59375	8.37924	7.66835	-4.87864	-4.62059
2562.50000	16.30437	3.64009	-2.05635	-3.79005
2566.40625	17.43605	-6.43215	-2.86043	-0.68231
2570.31250	23.01660	-1.19315	-6.08219	1.90467
2574.21875	27.73759	5.65764	-6.08050	2.66946
2578.12500	18.98631	-0.38533	-2.04947	1.79858
2582.03125	15.82876	-2.80196	-1.24182	3.40814
2585.93750	19.66471	-4.00987	1.98340	4.95250
2589.84375	19.19549	-11.26167	1.58222	9.61372
2593.75000	20.80556	-20.52812	-8.08632	11.17610
2597.65625	17.90874	-3.20115	-8.48742	6.61368
2601.56250	10.07880	21.37870	-3.24761	-1.48269
2605.46875	10.58777	15.73873	-5.26049	-0.29997
2609.37500	10.56041	-5.21273	4.81449	4.42450
2613.28125	4.24171	3.65276	-1.63076	2.76493
2617.18750	-1.29584	17.75640	-18.14924	2.16955
2621.09375	-1.75039	4.86361	-9.68594	0.87959
2625.00000	-1.33877	-7.22332	0.79202	1.69235
2628.90625	-2.49194	-14.47519	1.59960	4.06487
2632.81250	-4.22526	-16.89189	-1.21919	4.83415
2636.71875	-2.76166	-5.20592	-1.21746	7.40410
2640.62500	-1.92723	8.09182	-0.00696	7.67540
2644.53125	-4.43364	6.07820	-7.66083	5.28882
2648.43750	-1.83495	7.28790	-2.82399	7.32505
2652.34375	2.25458	-3.99323	6.04218	5.29455
2656.25000	-0.58554	-6.40985	4.02926	1.76783
2660.15625	-9.78844	3.66436	1.61336	0.77400
2664.06250	-14.41398	-0.76685	-8.86118	4.84898
2667.96875	-12.45617	4.06923	-14.90346	10.17488
2671.87500	-12.18047	3.66713	-6.84319	6.56248
2675.78125	-12.89455	-4.39057	2.02302	4.19837
2679.68750	-17.67426	-1.56912	13.30683	3.54661
2683.59375	-20.80568	7.29636	17.74078	4.80616
2687.50000	-20.25829	-0.35835	10.48973	8.18174
2691.40625	-25.77335	-15.26576	7.26785	6.21932
2695.31250	-26.78964	-2.37099	6.46360	-0.21256
2699.21875	-23.56454	8.91206	0.01847	2.69780
2703.12500	-24.01247	2.86899	-2.80019	7.17605
2707.03125	-23.23212	4.88455	-0.78384	5.37459
2710.93750	-20.79747	3.27377	3.65001	2.65221
2714.84375	-22.52304	-3.17223	5.66629	1.02546
2718.75000	-20.20134	0.85805	5.66798	3.46668
2722.65625	-17.99102	3.67955	-3.59774	1.08069
2726.56250	-15.33924	9.32160	-1.58153	3.76790
2730.46875	-14.58208	5.69617	8.89621	9.15657
2734.37500	-19.43216	-12.03171	4.06266	6.29990
2738.28125	-21.27886	-17.26875	1.64675	3.83928
2742.18750	-23.69344	-15.25312	0.84265	5.45874
2746.09375	-21.16385	4.08847	-3.58790	9.00244
2750.00000	-19.62188	5.70115	-4.79506	7.59930
2753.90625	-21.14043	0.06116	-0.36117	4.32811
2757.81250	-18.32963	-4.37007	0.04336	7.44285
2761.71875	-17.74843	-12.42766	1.25374	9.83541
2765.62500	-13.31129	0.46718	-5.19149	6.97589
2769.53125	-11.34225	4.90041	-6.80160	2.00846
2773.43750	-19.18419	1.67791	-6.79991	-4.48789
2777.34375	-16.58560	1.67881	4.48384	-3.85411
2781.25000	-15.86795	-1.54371	11.73828	0.91513
2785.15625	-20.39400	4.90415	-1.95970	-1.90863
2789.06250	-22.78864	0.87581	-8.40490	-9.22855
2792.96875	-23.23313	-13.62869	-8.40324	-10.07599
2796.87500	-19.66845	-16.04527	-5.98400	-4.66684
2800.78125	-15.63268	-3.15048	-8.39989	-3.57242
2804.68750	-16.22619	4.50619	-5.57781	-5.16039
2808.59375	-15.68886	-7.58073	-2.35275	-3.14662
2812.50000	-13.54409	-1.93865	0.87232	-1.15608
2816.40625	-17.49954	13.37368	4.09738	-2.24861
2820.31250	-12.20414	9.34540	-2.75091	-2.01457
2824.21875	0.80068	-0.32394	-1.54055	-2.77891
2828.12500	4.71375	-3.94934	-8.38871	-2.31050
2832.03125	-2.20497	3.70718	-14.02811	-0.29318
2835.93750	-7.65579	6.52861	-1.93859	4.20673
2839.84375	-8.80130	-0.72320	6.12171	5.58996
2843.75000	-12.02630	-7.16905	4.91457	-5.64227
2847.65625	-9.53544	-12.00312	3.30442	-3.49708
2851.56250	-0.90290	-6.36103	0.88850	4.19666
2855.46875	3.01712	2.50451	-0.31862	-0.20915
2859.37500	5.45871	-1.52387	2.90654	-2.51579
2863.28125	7.34171	-4.74626	1.29645	-4.88530
2867.18750	7.23475	-5.95410	-5.95466	-5.90153
2871.09375	1.23880	0.09083	-7.56473	-8.23773
2875.00000	0.82369	8.55328	-3.93679	-7.84148
2878.90625	7.21141	21.04499	1.30297	-0.94636
2882.81250	1.28558	22.25478	3.31928	-1.31245
2886.71875	-7.83733	0.09462	1.70917	-5.09092
2890.62500	-7.46644	-1.51607	-0.30386	-6.16776
2894.53125	-13.82784	2.91722	-1.51100	-10.22771
2898.43750	-19.25043	0.50066	5.34037	-10.65183
2902.34375	-14.88190	-1.91592	7.35661	-8.21792
2906.25000	-12.44811	1.30857	1.71725	-7.10829
2910.15625	-11.30721	9.77111	2.52467	-2.89053
2914.06250	-3.86455	6.95153	2.52623	3.10827
2917.96875	-1.39349	-0.70313	-7.54546	2.21520
2921.87500	-3.68717	-1.91097	-1.09698	-3.84200
2925.78125	-0.15590	3.73109	6.56031	-1.07443
2929.68750	3.81479	0.50888	3.33846	1.59273
2933.59375	4.52549	-7.54864	-11.56832	3.55726
2937.50000	3.97512	-1.10071	-16.80482	0.18241
2941.40625	2.63742	3.73543	-3.90955	-4.70421
2945.31250	1.23314	4.13935	2.13598	2.13140
2949.21875	-0.38307	8.57252	-0.28008	3.65415
2953.12500	4.89715	11.39395	-1.89031	1.99725
2957.03125	6.53142	6.55979	0.52887	7.42595
2960.93750	3.28794	-7.13886	-4.70765	6.52294
2964.84375	6.21928	-5.52626	-9.94420	3.31551
2968.75000	9.93844	-0.69014	-2.68993	5.30740
2972.65625	11.35140	0.92250	0.93799	5.27677
2976.56250	21.18756	5.75851	0.93957	1.78464
2980.46875	33.72421	-3.91088	-1.07355	6.47015
2984.37500	25.67757	-15.99790	-1.07202	8.52185
2988.28125	15.43349	-5.92364	2.95882	8.96871
2992.18750	15.83058	4.55361	-0.66614	10.97651
2996.09375	11.68642	5.36055	-6.70858	6.62790
