 	TP9	AF7	AF8	TP10	
-1000.00000	10.57544	5.64992	-3.15408	2.37955
-996.09375	4.46555	-3.61745	-10.80983	-0.03859
-992.18750	7.85298	-6.43797	-7.98942	-0.03914
-988.28125	9.10624	9.67921	-2.75152	-1.24850
-984.37500	13.10667	8.47037	4.50096	2.78022
-980.46875	16.10854	-2.00582	8.53006	3.98854
-976.56250	11.30107	6.85879	5.70946	1.57045
-972.65625	12.10957	6.85891	-1.14053	3.18168
-968.75000	8.46545	-7.64646	3.69453	2.37534
-964.84375	7.21575	-0.79657	11.75301	5.19531
-960.93750	5.97076	4.84453	7.72359	3.98592
-957.03125	3.98075	-5.22871	0.47071	-1.65572
-953.12500	11.04856	-7.24344	-5.17051	0.35840
-949.21875	9.43562	-4.01999	-4.76769	1.56665
-945.31250	4.62677	0.00933	1.27620	1.96904
-941.40625	7.57126	2.42700	-1.14150	-2.46372
-937.50000	9.51110	7.66520	-2.75336	-6.89644
-933.59375	9.90500	8.47109	-0.33600	1.16176
-929.68750	7.57269	6.85939	-3.96258	5.19055
-925.78125	4.12659	5.24762	-0.73939	0.75778
-921.87500	1.98172	-8.85486	6.11023	-1.25741
-917.96875	4.53365	-11.67528	1.27502	-2.46678
-914.06250	1.02180	-1.60204	0.46911	3.97955
-910.15625	-2.37365	-0.79617	1.67780	7.20242
-906.25000	1.67897	1.62155	-1.14287	-4.48312
-902.34375	2.50615	-2.40774	2.88631	-9.31873
-898.43750	-1.26983	-3.21362	8.93017	-4.48408
-894.53125	-5.52738	5.65082	8.52709	-6.90218
-890.62500	-5.50641	6.45662	0.06551	-8.51436
-886.71875	-1.51534	9.68003	-3.15796	-2.87384
-882.81250	-2.13149	8.47123	-5.97859	-2.06851
-878.90625	-0.23139	8.06836	5.30325	1.15444
-875.00000	-6.11413	3.63613	6.51195	-2.06948
-871.09375	-12.71553	-9.25769	-2.75549	-3.68170
-867.18750	-6.27164	-2.40785	4.90004	3.57052
-863.28125	-1.85332	3.23319	2.88528	6.39053
-859.37500	2.82627	1.21871	0.46770	10.01637
-855.46875	3.69797	1.21887	2.07938	8.00127
-851.56250	0.16533	-0.79570	3.69109	1.95686
-847.65625	4.72585	5.24831	6.51148	9.20917
-843.75000	5.76093	1.21909	1.27325	14.04395
-839.84375	3.88623	-5.22764	1.67612	14.44654
-835.93750	4.17071	-0.79539	-2.75624	12.83443
-832.03125	-3.94227	-0.79534	-7.59155	5.58137
-828.12500	-6.81314	-1.60111	-3.96527	5.98404
-824.21875	-1.04647	-0.39224	11.34592	13.23638
-820.31250	1.34829	0.81659	21.01613	10.41547
-816.40625	4.98174	5.24878	6.10760	3.16234
-812.50000	4.36886	6.45762	1.67529	0.74436
-808.59375	-4.63611	-4.01851	2.07800	-4.09113
-804.68750	-3.74119	-7.64478	-3.96607	-2.47973
-800.78125	-3.56700	-2.40663	-2.75737	-3.28585
-796.87500	-3.93351	2.83148	-2.35460	-6.50959
-792.96875	2.12621	8.47251	-2.35467	-0.06300
-789.06250	14.06494	13.30778	-4.36932	10.00992
-785.15625	25.07299	9.27854	-1.14595	14.03887
-781.25000	6.87936	-1.60061	3.28614	2.35356
-777.34375	-6.85125	-3.61525	-0.34035	-8.12301
-773.43750	-3.42168	-4.01816	-1.95216	-10.13808
-769.53125	-4.31251	-1.19754	4.89749	-4.90049
-765.62500	-3.25340	3.63765	12.15016	3.96360
-761.71875	-4.77594	-6.43559	12.15011	-3.28955
-757.81250	-4.56671	-0.79457	10.13534	-5.70754
-753.90625	-1.80066	12.90508	-3.56442	-0.87275
-750.00000	1.86795	5.24945	-11.62321	7.99128
-746.09375	1.53019	-1.60025	-1.54998	8.39385
-742.18750	-0.24623	-2.40602	5.29973	3.96118
-738.28125	4.94657	0.01162	11.34361	10.40762
-734.37500	7.39222	0.81760	11.34361	8.79543
-730.46875	6.00134	-6.43508	6.50848	3.55681
-726.56250	2.74946	-2.80868	4.89670	5.57095
-722.65625	-1.28334	3.63826	7.31413	12.01742
-718.75000	1.55416	-1.19689	9.32858	14.43460
-714.84375	0.78842	-1.19691	0.46402	3.95798
-710.93750	1.22670	5.24995	-8.40062	3.95748
-707.03125	8.45398	8.87640	-9.60958	10.40387
-703.12500	5.01162	0.41488	-8.80383	8.79161
-699.21875	2.99728	-1.19678	2.07520	4.35898
-695.31250	5.79062	4.84720	9.73091	1.53795
-691.40625	-1.58689	-4.82309	9.32788	-4.50649
-687.50000	-5.94514	-5.22590	4.89553	-9.34211
-683.59375	2.12170	-1.19655	6.50717	-0.88106
-679.68750	10.89995	-0.79360	0.46315	-0.88152
-675.78125	13.13640	1.62409	0.86605	0.72969
-671.87500	12.05704	4.04175	6.50709	-2.09126
-667.96875	10.71305	-1.59929	-4.37210	-6.92690
-664.06250	10.19474	-8.04616	-11.62491	-4.50976
-660.15625	12.38055	-4.82264	-0.34297	-2.89844
-656.25000	10.74475	0.01261	9.32726	-2.09298
-652.34375	1.45529	6.45960	3.28317	-1.28758
-648.43750	-6.05165	6.05677	0.05966	2.33835
-644.53125	-5.82413	6.45970	4.49192	7.57596
-640.62500	-1.41374	12.50376	4.08890	11.20193
-636.71875	-6.21148	1.22183	3.68596	7.17221
-632.81250	-8.41674	-4.01624	-1.55215	3.14250
-628.90625	0.56144	-2.40445	-0.74633	2.33622
-625.00000	5.23460	-10.46292	12.95326	4.75339
-621.09375	1.76194	-9.65694	18.19135	1.93248
-617.18750	0.55534	-1.59832	5.70044	-6.52951
-613.28125	0.97135	5.65447	0.05926	-0.88892
-609.37500	1.12614	17.74246	0.05913	-2.90403
-605.46875	2.67132	13.71324	0.05910	-11.76895
-601.56250	-0.24368	0.41661	1.26790	-8.54599
-597.65625	-3.19329	-4.82148	7.31177	-6.12893
-593.75000	-5.43810	-6.83610	10.13222	-7.33828
-589.84375	-1.14676	-9.25362	0.05901	-2.10072
-585.93750	0.17949	-14.49164	1.67069	3.94266
-582.03125	-5.00514	-12.87980	10.53504	1.12164
-578.12500	-4.14984	2.83457	12.95259	-2.50524
-574.21875	-2.66459	-1.19466	4.89385	-3.71455
-570.31250	2.99836	-10.46198	-2.35898	-0.89451
-566.40625	-0.63595	2.02890	-6.79131	1.52253
-562.50000	-5.66492	4.44640	-0.74755	3.53671
-558.59375	-0.69014	1.22296	8.51985	0.71580
-554.68750	0.02588	2.83471	9.72869	-0.09048
-550.78125	-1.35793	4.44639	10.53458	4.74414
-546.87500	-4.61861	-0.38867	-1.55316	0.71431
-542.96875	-1.81454	-5.62672	-11.22350	-3.31545
-539.06250	3.16903	-0.79150	0.86432	-5.33053
-535.15625	7.06858	-4.41777	10.53459	2.32473
-531.25000	13.57635	-6.43240	6.10224	10.38287
-527.34375	11.18890	-2.00015	2.47580	-1.30262
-523.43750	2.52038	-3.20886	-1.95661	-7.75000
-519.53125	-0.21595	3.23797	-1.15089	-4.52697
-515.62500	-6.91695	5.65556	8.11649	-6.54203
-511.71875	-4.18642	-4.41765	13.35461	-5.73660
-507.81250	-0.77012	-8.44691	1.26673	-2.51358
-503.90625	-5.55166	-5.62639	-10.82123	-4.52872
-500.00000	-3.98297	-2.80583	2.87827	-4.12622
-496.09375	-5.25773	-2.80572	12.14566	-8.15592
-492.18750	-7.10842	-6.02909	5.29583	-3.72421
-488.28125	-5.45231	-7.23782	-2.36001	6.34856
-484.37500	-2.25773	6.05903	-1.55420	3.12458
-480.46875	-2.47940	11.29720	-3.16600	-5.33747
-476.56250	-1.64598	4.44736	-1.15138	-6.94970
-472.65625	0.77423	5.65613	15.36871	-7.35308
-468.75000	-3.27281	-2.40243	4.08667	-10.97995
-464.84375	-4.52259	-10.05800	-7.59834	-9.77162
-460.93750	-1.73818	-4.81984	7.31004	-4.53398
-457.03125	5.13629	-1.99934	7.31002	3.52412
-453.12500	13.01001	3.64177	2.87780	8.76172
-449.21875	8.97955	3.23886	-3.56907	4.73199
-445.31250	8.60301	-0.38746	-1.95751	7.95505
-441.40625	10.33874	-1.59621	2.47468	10.77511
-437.50000	7.84631	-5.22252	-4.37522	-0.50741
-433.59375	7.83724	-1.19316	-5.98701	-9.37233
-429.68750	5.10204	5.65674	-7.59882	-4.94062
-425.78125	0.44715	-1.59599	-2.36075	-0.91173
-421.87500	0.71993	0.01571	5.69787	-2.12104
-417.96875	6.89829	11.70074	10.53305	4.72824
-414.06250	6.20698	1.22459	4.89210	7.14535
-410.15625	7.64681	-6.02811	-5.58405	3.11562
-406.25000	10.49069	-5.62518	-1.15198	5.53275
-402.34375	4.46801	-5.22227	8.11527	4.32353
-398.43750	2.70672	-6.43106	9.32397	-4.13854
-394.53125	0.86684	-11.66908	4.89165	-7.76541
-390.62500	-3.54429	-1.59580	2.47399	-6.15412
-386.71875	-2.77656	2.83653	-1.55532	-0.51357
-382.81250	-0.16913	-8.84832	-8.00220	2.30659
-378.90625	0.52230	-0.38668	-4.77878	-2.12606
-375.00000	2.29538	6.06027	7.30909	-0.51476
-371.09375	2.94684	8.47788	8.11487	2.70830
-367.18750	4.15278	12.10431	-0.74962	3.51372
-363.28125	5.75067	6.46323	2.47382	8.75138
-359.37500	3.98347	6.06029	1.26499	5.93052
-355.46875	5.25812	3.64268	2.87659	-0.51670
-351.56250	2.12835	-6.02764	10.12926	-1.32298
-347.65625	-4.99612	-5.22171	4.08534	-2.12931
-343.75000	-4.36384	-4.01290	0.86192	4.31713
-339.84375	-5.43267	-10.86263	4.89117	9.55477
-335.93750	-10.78900	-8.04220	0.05601	2.70447
-332.03125	-4.79936	5.25446	-2.76447	3.10707
-328.12500	-3.64087	8.07503	-0.34689	6.33010
-324.21875	-4.72416	7.26911	0.86200	9.55305
-320.31250	2.10280	1.22521	-8.00241	6.73202
-316.40625	-4.73992	-8.44497	-6.79360	-2.93868
-312.50000	-4.94992	-2.80394	4.89133	-0.52158
-308.59375	1.75932	6.46346	-1.15261	2.70131
-304.68750	-0.16650	9.28409	-5.98775	-4.55205
-300.78125	-4.82758	0.01670	2.07083	-6.56728
-296.87500	-10.43229	-6.02725	8.92066	-5.76205
-292.96875	-14.44600	-12.07116	2.87660	-3.74802
-289.06250	-14.99819	-16.10033	-1.15274	3.10130
-285.15625	-15.67519	-14.48853	6.50301	-2.13732
-281.25000	-6.46960	-7.63863	-3.16729	0.68260
-277.34375	4.37844	3.64344	-15.25519	4.71128
-273.43750	0.15221	0.01710	-3.57016	7.53113
-269.53125	2.08179	0.42017	-0.34678	14.38038
-265.62500	7.57309	8.88170	-1.55553	7.93297
-261.71875	9.27396	0.42006	3.68256	5.91781
-257.81250	7.87136	-8.84734	1.26488	7.12615
-253.90625	7.01104	-3.20625	0.86183	4.70806
-250.00000	7.05317	4.85245	-1.55579	-1.73937
-246.09375	3.49181	2.03202	-5.98813	-5.36627
-242.18750	0.90946	-4.41483	0.45873	2.69178
-238.28125	3.28181	1.62920	1.66750	7.92940
-234.37500	2.90685	8.07611	0.86154	0.67620
-230.46875	-3.31925	1.22620	1.66744	-5.36825
-226.56250	-4.95949	-2.40016	-1.95892	-2.54825
-222.65625	-4.56008	-4.01192	-2.76476	-2.14578
-218.75000	-8.97536	-8.44407	-0.75015	-3.35507
-214.84375	-8.53231	-8.84699	4.08494	0.27083
-210.93750	-4.06474	-6.42933	8.51714	-0.53547
-207.03125	-4.89617	-1.19113	8.51712	-0.53596
-203.12500	-1.08575	-1.19110	10.53181	7.92510
-199.21875	-1.89132	-5.22044	7.71138	7.11878
-195.31250	-9.17127	-13.68199	7.30850	-2.55195
-191.40625	-6.87854	-14.48787	2.47330	-9.80511
-187.50000	-5.19291	-0.78824	-8.40595	-11.82024
-183.59375	-7.19928	9.68800	0.05560	-11.41770
-179.68750	-2.45025	9.68805	5.69668	-7.38876
-175.78125	-0.61671	6.86751	1.26441	-3.76280
-171.87500	-9.35173	4.04700	6.09954	-4.97201
-167.96875	-5.86056	-4.41449	11.33773	-2.95770
-164.06250	0.87390	-8.84667	10.12901	3.89166
-160.15625	-2.98416	1.22669	2.47339	3.89127
-156.25000	-7.03748	-3.20539	4.89095	-0.13833
-152.34375	-5.85072	-15.29330	4.48805	3.89059
-148.43750	-2.47855	-8.84639	-9.61461	13.96342
-144.53125	-4.66875	4.85320	-12.43516	9.12787
-140.62500	-6.70517	5.25604	-6.79413	-4.16918
-136.71875	-4.25013	7.27067	-4.37657	-9.81059
-132.81250	-2.82900	9.28547	0.45865	-6.58755
-128.90625	-1.10360	1.22697	3.27914	-2.15576
-125.00000	3.97244	-2.39927	-1.15312	-1.35030
-121.09375	3.32043	5.25645	-1.15303	-6.18568
-117.18750	5.74033	5.65943	1.26466	-7.79768
-113.28125	5.75344	1.22714	-4.37632	-6.99217
-109.37500	0.67013	5.25643	-9.61431	-9.41004
-105.46875	2.61829	1.63011	2.07085	-8.60448
-101.56250	0.50920	-1.19040	6.50320	-4.57547
-97.65625	-5.66380	8.88284	-0.74951	-12.63441
-93.75000	-8.31146	14.12093	-6.39052	-6.59080
-89.84375	-9.66097	6.46523	-1.55533	8.72023
-85.93750	-13.97568	0.42134	0.86215	-4.97977
-82.03125	-17.14551	-1.99619	-5.58472	-12.23291
-78.12500	-8.63443	2.03323	-7.19640	-4.17464
-74.21875	-6.34331	2.83910	4.48868	-0.95158
-70.31250	-11.55937	-1.19019	13.75613	-0.54907
-66.40625	-13.58192	-5.21943	8.51811	-2.16115
-62.50000	-14.17860	-6.42815	7.71228	-3.77333
-58.59375	-3.56277	-16.50143	12.14441	-0.55033
-54.68750	-4.05555	-24.96289	12.14432	-4.17715
-50.78125	-16.72141	-8.44274	5.29455	-11.83332
-46.87500	-15.54997	-4.01053	-4.77855	-8.61034
-42.96875	-6.29911	3.64523	5.29474	-6.99916
-39.06250	-2.12144	7.27156	8.11518	-12.64063
-35.15625	-5.47466	-1.59289	-5.98738	-17.87919
-31.25000	-7.83133	6.86871	-10.01665	-12.23864
-27.34375	-11.02462	8.48040	-16.06054	-4.18043
-23.43750	-11.23163	2.03356	-8.40492	-12.64245
-19.53125	0.53746	5.65988	2.47419	-13.04584
-15.62500	5.92435	10.89794	-1.15223	-0.55542
-11.71875	3.41665	4.85409	-1.15229	-0.55591
-7.81250	4.01252	-7.23378	0.45947	-2.57098
-3.90625	3.66314	-3.20439	1.26541	-1.36257
0.00000	4.42593	0.82495	-0.34629	-1.76594
3.90625	2.74823	-3.60722	-8.80778	-0.15458
7.81250	0.49452	-4.81599	-14.04588	0.24789
11.71875	-4.29619	2.43672	-1.55498	1.85918
15.62500	-6.74262	8.07778	1.66858	1.05288
19.53125	-7.77008	-1.99552	-1.15190	-4.58857
23.43750	-9.75710	-3.60721	7.71259	-10.22991
27.34375	-9.35150	-0.38367	5.69793	-10.63324
31.25000	-3.72826	-9.24806	-4.37536	1.85720
35.15625	1.46890	-11.26266	-5.58411	5.88606
39.06250	-13.07281	1.63107	-4.37535	-15.87262
42.96875	-13.04825	4.45153	-3.16646	-21.11115
46.87500	6.91337	-3.20411	-3.56929	-2.17383
50.78125	6.10630	-6.42757	-3.16638	-4.99484
54.68750	5.72963	-1.99538	7.30984	-11.03929
58.59375	9.88280	1.63105	5.29524	-0.16059
62.50000	11.82259	4.45159	0.05717	7.09168
66.40625	13.42500	-0.38348	-1.55453	5.07644
70.31250	10.68964	-3.20392	-6.79264	-0.56524
74.21875	2.81117	-1.18921	-4.77802	-2.98345
78.12500	-2.15443	1.22838	0.05714	-2.58119
82.03125	-0.40851	7.67528	7.71286	2.25337
85.93750	-3.92055	10.09294	-0.34576	1.04392
89.84375	-8.12201	12.51058	-5.98674	-2.58314
93.75000	-6.48720	2.03449	5.29533	1.44554
97.65625	-6.06325	-6.02415	10.93654	1.04206
101.56250	-2.98962	-4.00944	8.51911	5.07076
105.46875	3.63168	-7.23284	-1.15118	1.84668
109.37500	2.04068	-7.63576	-3.16579	-2.98909
113.28125	-4.04181	-4.81529	-2.76272	0.23371
117.18750	-3.04638	2.43745	5.29590	0.23312
121.09375	-0.34056	8.07852	7.71352	-0.57325
125.00000	-0.17954	9.69024	-5.18025	-6.21479
128.90625	0.47165	4.85505	-8.00073	-4.60366
132.81250	4.49770	-0.38308	1.66968	9.49843
136.71875	2.87194	-0.78600	1.66975	5.87152
140.62500	-1.71602	0.42276	7.31077	2.24474
144.53125	-3.66505	1.63154	12.95177	4.66183
148.43750	-3.16863	7.67553	4.89311	0.63204
152.34375	-4.24934	5.25792	-4.37414	-5.00951
156.25000	-5.63195	-2.80065	-6.38865	-0.98069
160.15625	-7.90972	0.82574	-4.37395	1.03345
164.06250	-12.05748	-3.20365	-3.56803	-9.04028
167.96875	-16.14126	-10.05351	-2.76207	-11.05537
171.87500	-14.57989	-1.99483	2.87908	-6.62354
175.78125	-12.03688	2.43744	2.87909	-9.44444
179.68750	-8.43347	-3.60653	-1.55310	-9.44482
183.59375	-2.38259	-10.45634	-1.15022	-5.01305
187.50000	-1.38392	-5.62121	5.69968	-1.79002
191.40625	-5.95674	9.69006	3.28222	-0.98451
195.31250	-8.28536	12.91347	-11.22317	-7.43177
199.21875	-12.54351	-0.78609	-14.44661	-13.87908
203.12500	-8.47776	4.45210	4.08823	-9.04434
207.03125	-0.80641	12.10783	18.59382	-0.58318
210.93750	-3.77626	-1.59183	14.56466	-4.20995
214.84375	-6.06498	-7.63577	6.50620	-4.21036
218.75000	-6.93267	-2.80058	8.11799	-0.58445
222.65625	-9.78420	-1.99464	7.71517	-3.40538
226.56250	-9.57806	0.42299	-3.16390	-6.62925
230.46875	-7.24543	2.03466	-12.43123	-1.79456
234.37500	-2.55988	4.45216	-11.22237	3.04023
238.28125	0.34984	11.70492	-7.19301	-2.19825
242.18750	6.20011	6.86980	-8.80461	-3.40744
246.09375	5.74275	0.02001	-5.58101	2.63616
250.00000	1.75570	-4.00923	-7.19266	9.88857
253.90625	-0.19376	-3.60628	-1.95452	5.45597
257.81250	-4.38781	8.07871	2.47782	-9.04992
261.71875	-1.20956	5.25817	6.10426	-5.42394
265.62500	3.25074	-1.59157	5.29848	0.21666
269.53125	4.27743	2.84072	-2.76000	-3.00712
273.43750	3.04024	-8.44128	-13.23610	-5.82808
277.34375	3.43976	-1.59148	-9.20676	-7.03733
281.25000	3.05379	12.91401	7.71644	-2.20253
285.15625	1.88504	8.88470	12.55168	-4.21754
289.06250	1.11447	0.82611	7.71655	-4.62087
292.96875	-0.92573	-0.38260	1.67268	-1.39778
296.87500	-5.57685	3.24379	-2.35658	-6.63629
300.78125	-1.54726	8.88484	-1.14769	-5.83084
304.68750	2.45490	9.28784	-4.37102	2.22744
308.59375	-6.93725	-3.20294	-3.96799	1.42119
312.50000	-8.87785	-13.67911	2.47896	-1.80260
316.40625	-6.85493	-8.03813	-4.77377	-4.22047
320.31250	-6.94100	4.45270	7.71717	-9.45892
324.21875	-6.71910	7.67617	18.99938	-5.43000
328.12500	-5.38085	8.88499	11.74675	-0.59523
332.03125	-3.09845	-0.78533	8.52337	-2.20734
335.93750	-8.04906	-12.87318	0.46480	-8.25171
339.84375	-14.32475	-2.79987	-4.77332	-10.66973
343.75000	-12.73713	-1.18802	2.07649	-9.86425
347.65625	-3.08878	-5.62021	4.09123	2.22334
351.56250	0.28344	-2.39672	9.32945	3.83463
355.46875	-13.18870	-4.41134	6.91193	-11.88007
359.37500	-9.58414	2.43847	-2.75831	-7.44821
363.28125	1.33238	10.49711	-0.74358	3.43049
367.18750	-6.91671	6.06496	-2.75812	4.23605
371.09375	-5.19121	5.66205	-2.35513	13.90594
375.00000	-8.57669	-4.41113	7.31531	7.45864
378.90625	-9.22881	-3.60525	13.76235	1.41438
382.81250	-2.37689	5.66218	4.89790	-5.43577
386.71875	-4.37848	5.25926	8.92724	-10.27127
390.62500	0.61152	10.09443	19.80637	3.42799
394.53125	1.75378	8.48263	10.13603	3.42769
398.43750	4.88274	2.43864	6.10675	1.41273
402.34375	6.36544	-1.59061	4.09220	3.42705
406.25000	2.91187	0.02119	-1.14577	-0.19963
410.15625	9.21803	7.27403	-5.98081	1.00881
414.06250	7.32090	2.03607	-7.18955	2.21719
417.96875	7.77738	-6.42544	4.89843	-2.21545
421.87500	11.45320	-2.39612	11.34545	-3.42461
425.78125	12.93855	-0.78440	10.13675	0.20136
429.68750	8.93128	3.24488	10.94269	6.24497
433.59375	-0.34415	11.30346	6.51042	8.66211
437.50000	-4.16430	10.49752	-2.35403	4.63243
441.40625	-4.02464	8.07996	-5.17445	2.61738
445.31250	-4.51736	2.84185	-8.80074	0.60235
449.21875	-3.48351	0.02131	-15.24749	-2.62146
453.12500	-1.90905	0.02133	-11.21803	-1.41308
457.03125	-5.14907	2.84191	-5.17404	0.60108
460.93750	-7.82124	4.05069	4.89923	-1.01111
464.84375	-5.93633	2.03604	10.13738	-3.02625
468.75000	-6.68128	-1.59037	1.67596	-3.83263
472.65625	-7.05402	-4.00804	0.87013	-3.43013
476.56250	-2.02288	-4.00805	6.10836	1.00167
480.46875	-1.93881	1.23005	5.70559	-1.81937
484.37500	-7.83391	-3.60509	2.07926	-7.05792
488.28125	-9.53567	-13.27540	-1.54697	-7.05840
492.18750	-6.11940	-1.99336	-7.59085	-6.25303
496.09375	-10.09509	3.64766	-5.97894	-5.04477
500.00000	-10.94396	6.06529	-5.57583	-6.25393
503.90625	-6.17483	5.66239	-1.54647	-3.03090
507.81250	3.65938	2.03608	-4.76981	8.25066
511.71875	14.58292	6.46832	-7.59026	10.66772
515.62500	3.67488	3.24489	2.88606	-1.42057
519.53125	-12.66397	-8.03717	-3.56062	-12.70300
523.43750	-1.75728	-13.27526	0.46882	-0.61551
527.34375	11.54209	-12.87232	11.34805	14.29256
531.25000	8.70381	-10.05179	14.57160	13.88923
535.15625	15.51276	-13.27521	11.75123	20.73874
539.06250	20.31182	-17.70743	4.49857	25.17060
542.96875	13.48671	-18.91628	5.70741	23.96151
546.87500	18.94291	-14.88697	4.09573	25.97586
550.78125	31.02969	-6.02251	-9.60382	31.61653
554.68750	30.65317	-2.79903	-11.21539	31.21330
558.59375	28.76248	2.84205	-9.60359	29.19825
562.50000	29.09063	6.06547	-1.54483	33.22724
566.40625	20.62001	0.42435	2.88752	30.80930
570.31250	12.24381	-1.99332	2.88766	21.94452
574.21875	12.42402	0.02134	13.36399	18.72082
578.12500	12.69674	4.05077	9.73781	18.31755
582.03125	15.65160	-1.59019	6.11150	14.28795
585.93750	17.78086	-10.45458	1.67935	14.28761
589.84375	19.62356	-1.59011	-4.76748	14.69019
593.75000	18.03514	14.12420	-6.78206	9.04890
597.65625	14.02721	5.25966	-1.54382	5.01930
601.56250	15.48938	-2.79895	2.48564	8.64534
605.46875	16.06703	0.02154	1.27694	13.07731
609.37500	15.28222	-7.63416	9.73858	12.27124
613.28125	9.60296	-8.84303	8.52992	7.43577
617.18750	6.56928	-2.39614	-1.54315	-0.22020
621.09375	5.24590	-1.18733	1.68047	-3.84692
625.00000	5.40710	-0.78445	9.33624	3.40554
628.90625	10.49060	-1.99326	-8.39260	8.64342
632.81250	9.68163	0.02146	-15.64518	4.61403
636.71875	8.86185	-2.79899	-0.73657	6.22587
640.62500	12.33281	-1.18725	-2.75108	13.47894
644.53125	11.18994	-6.02252	13.76907	11.46474
648.43750	4.43400	-8.03722	20.61884	6.63004
652.34375	-0.67551	-2.79915	7.72519	4.61598
656.25000	3.18063	2.03604	4.09892	4.61675
660.15625	6.54451	9.28884	-4.76535	5.82637
664.06250	4.41205	3.64780	-12.01794	3.81254
667.96875	3.95543	0.82723	-4.76509	-3.03631
671.87500	7.53220	3.64764	-4.76505	-2.22945
675.78125	5.24114	1.22999	-5.57090	4.21862
679.68750	4.81630	-4.41102	4.90521	-3.03283
683.59375	8.45077	-8.84332	4.50237	-5.85207
687.50000	3.00376	2.03578	-2.75035	-7.46240
691.40625	2.05848	6.46792	-8.39140	-14.71377
695.31250	12.62488	0.42395	-6.37677	7.85175
699.21875	13.60612	1.22972	1.27887	14.70307
703.12500	1.55586	2.03546	2.08465	-7.05363
707.03125	-2.05364	2.03535	-1.13881	-11.08146
710.93750	2.23051	-2.39701	1.68171	-7.05079
714.84375	1.95757	-2.80012	2.08456	-2.61723
718.75000	4.71753	3.24373	-7.98855	8.66618
722.65625	5.89649	0.82616	-10.80896	5.44409
726.56250	1.26858	-1.18854	-5.97386	-9.46299
730.46875	-2.44167	-2.39747	-0.73576	-5.43240
734.37500	-6.21675	-11.66502	5.71119	-2.61076
738.28125	-4.51492	-11.66515	6.11413	0.61370
742.18750	-6.31951	0.01961	2.89075	2.22641
746.09375	-9.19371	-0.78634	-1.54140	-2.20502
750.00000	-8.34495	-7.63613	-4.76486	-3.01016
753.90625	-5.45872	-6.02439	-5.97356	6.25786
757.81250	-2.80251	-2.80089	-7.98804	13.91398
761.71875	-4.86205	0.42263	0.47362	3.03529
765.62500	-5.23662	0.82566	8.12941	-5.02299
769.53125	-8.64186	-8.44162	8.53250	-1.79921
773.43750	-10.68479	-4.00936	10.14428	1.02157
777.34375	-11.09096	6.46685	7.72688	2.63339
781.25000	-12.28272	1.63176	8.93589	-3.81338
785.15625	-13.45132	-1.18867	6.51850	-7.84262
789.06250	-11.80427	0.82599	-2.34586	-0.58988
792.96875	-9.41212	-0.78573	-5.16622	0.61890
796.87500	-6.81051	3.24366	-2.74848	-3.41043
800.78125	-5.19848	0.82624	0.07212	-1.79879
804.68750	-7.24034	0.82637	6.92201	3.84219
808.59375	-5.75354	-0.38236	10.14560	5.45378
812.50000	9.63169	-0.78524	3.29593	15.52700
816.40625	12.05745	0.02071	0.07264	19.15326
820.31250	1.89796	-1.59084	5.71395	10.69156
824.21875	11.38697	-0.78491	0.87904	14.72069
828.12500	25.61889	1.22978	-8.79098	29.22602
832.03125	37.57145	-1.18766	-5.97026	41.31380
835.93750	40.67937	-0.78472	-7.58182	44.93998
839.84375	42.05906	1.63299	-9.99926	43.32819
843.75000	44.04942	-1.99321	-3.95526	42.11929
847.65625	40.80371	-7.63407	2.89465	55.01296
851.56250	43.36983	-9.24578	-6.77539	64.28024
855.46875	48.02939	2.43929	-14.83381	50.58045
859.37500	48.81321	4.05114	-8.38671	42.92457
863.28125	45.62704	-4.81332	-12.01276	45.34194
867.18750	45.43623	4.85704	-5.96857	43.72999
871.09375	47.16148	12.51266	11.35760	44.53558
875.00000	40.55235	11.30398	13.77537	42.92350
878.90625	36.67657	8.08068	12.16383	40.10277
882.81250	35.46972	2.43974	12.56705	38.49089
886.71875	28.63283	3.24563	9.34378	35.26721
890.62500	23.14643	-1.99243	3.29994	34.46109
894.53125	24.28853	-4.40986	-1.13212	32.84917
898.43750	29.83496	1.63414	-4.35528	31.23726
902.34375	29.70576	7.27515	-6.36973	27.20764
906.25000	24.23744	-3.60396	-11.60767	27.20734
910.15625	24.09651	-6.42442	-6.36934	33.25110
914.06250	22.19925	7.27527	3.70416	21.56584
917.96875	20.23804	9.69291	9.74828	17.53625
921.87500	23.51073	5.26064	10.95731	22.37108
925.78125	22.17537	4.05189	8.53994	19.95318
929.68750	22.19724	5.66364	15.38990	24.38520
933.59375	21.78619	0.02259	10.95785	20.75863
937.50000	20.78639	-8.43891	1.69060	18.34073
941.40625	21.32882	-3.20070	6.92883	20.35509
945.31250	16.40368	4.05207	10.15257	18.34020
949.21875	14.21397	4.45496	0.88545	19.14577
953.12500	17.40006	8.08139	-8.78459	17.93668
957.03125	20.20393	11.30483	-1.12872	19.54826
960.93750	17.53178	6.46965	3.30367	17.93635
964.84375	13.77560	0.42574	-5.56068	10.68342
968.75000	11.01583	0.02283	4.91562	8.26571
972.65625	12.25476	1.63459	13.37739	9.07141
976.56250	16.88288	1.23163	2.49852	20.75622
980.46875	13.74350	-1.18584	-1.53051	20.75603
984.37500	11.07179	-7.22979	0.48436	13.50312
988.28125	13.39927	-6.82684	7.73720	15.11462
992.18750	7.54804	-1.18579	11.36367	9.47343
996.09375	5.18399	-5.21504	5.31990	9.07020
1000.00000	7.15544	-4.40912	2.90250	10.27869
1003.90625	6.28345	3.24652	5.32025	9.47257
1007.81250	5.23853	0.02310	1.29109	7.45765
1011.71875	4.88004	-13.27352	1.69416	5.84584
1015.62500	4.85106	-13.27346	10.15574	10.68078
1019.53125	1.00279	-4.00606	6.93250	6.24824
1023.43750	5.46238	1.63495	2.50061	1.41269
1027.34375	12.71749	-2.79731	1.29211	7.05338
1031.25000	11.08772	1.23193	-1.12525	13.09691
1035.15625	13.86707	11.70802	4.11300	17.93165
1039.06250	15.44238	8.08167	8.14242	24.37813
1042.96875	11.84037	-1.18568	3.30747	15.11030
1046.87500	7.62584	-15.28826	-1.93033	9.46886
1050.78125	8.83311	-15.69118	1.29338	12.28897
1054.68750	6.03863	-9.24438	2.90521	12.28865
1058.59375	-1.09036	-1.99163	-9.98840	9.46784
1062.50000	1.65510	9.29039	-10.79404	7.45285
1066.40625	8.49563	9.69323	6.53220	12.69068
1070.31250	9.78955	-2.39467	10.96471	11.07875
1074.21875	9.56667	-8.43869	3.30920	9.46674
1078.12500	3.79527	-5.61825	1.29471	12.28694
1082.03125	5.13825	-0.78312	4.92117	8.25739
1085.93750	8.07318	1.63448	4.92139	2.21318
1089.84375	-1.36629	-6.82708	-5.55448	3.42169
1093.75000	-6.58117	-13.67691	-9.18070	0.60099
1097.65625	-4.94823	-7.63301	-4.74830	1.00378
1101.56250	-5.90372	-1.99199	-6.35990	-2.21982
1105.46875	-0.89381	-1.58894	1.29608	-5.84634
1109.37500	3.15651	-15.69147	0.49054	1.00351
1113.28125	2.71540	-26.57063	2.50531	5.83857
1117.18750	4.51682	-10.45339	10.56401	10.27068
1121.09375	-2.44749	3.64913	8.54953	1.00311
1125.00000	-10.74785	2.03744	7.74386	-9.47327
1128.90625	-6.47013	2.44033	2.10293	-3.42947
1132.81250	-4.45854	0.82867	0.49133	0.59960
1136.71875	-4.47253	0.42580	2.90899	5.43446
1140.62500	3.83350	-1.58884	3.31212	11.47837
1144.53125	-1.74169	-11.25928	-3.94038	8.65778
1148.43750	-9.70655	-14.48279	-4.34307	2.21078
1152.34375	-7.56368	-3.20073	2.10402	3.82237
1156.25000	-3.70797	0.42554	-14.41595	1.00183
1160.15625	-1.95622	-6.82724	-14.81867	-8.26562
1164.06250	1.95481	-7.63309	0.49303	0.19583
1167.96875	6.33279	-3.20079	2.50787	4.22509
1171.87500	7.89425	6.87253	6.53730	5.83671
1175.78125	5.19943	7.27548	8.14921	10.26891
1179.68750	4.77367	2.44034	7.34361	7.04534
1183.59375	5.98955	2.03738	5.32924	5.83641
1187.50000	0.54145	-6.42425	0.09144	-2.62525
1191.40625	-0.00198	-11.25950	4.92675	-4.63999
1195.31250	1.29581	-4.00678	7.74739	1.40388
1199.21875	-0.94765	4.45472	-2.72864	3.01555
1203.12500	4.32689	6.46935	-8.77237	2.20965
1207.03125	5.55146	7.27517	-11.18970	-1.81975
1210.93750	8.22276	13.31915	-18.03918	5.43292
1214.84375	9.56050	6.87229	-13.20381	7.04454
1218.75000	2.64895	-3.20091	3.31650	5.83563
1222.65625	5.03555	-3.20092	15.80762	11.47664
1226.56250	3.63003	-13.27424	19.83723	7.04426
1230.46875	1.12746	-14.88594	10.97303	0.19421
1234.37500	3.39543	-12.87125	6.54103	-3.02930
1238.28125	5.49937	-0.78334	9.76472	0.19401
1242.18750	0.06761	15.33390	3.31803	1.40271
1246.09375	-2.40447	6.06653	-2.72569	-1.41802
1250.00000	2.47276	-1.58912	-3.53136	-1.82133
1253.90625	3.34366	5.66373	2.51278	0.99891
1257.81250	1.16414	0.42574	-3.53090	1.80443
1261.71875	-2.50781	0.82878	-1.11303	0.99816
1265.62500	-3.68882	-0.37998	2.51366	-1.41993
1269.53125	-5.88596	-8.43848	-11.18575	-7.86739
1273.43750	-9.54128	-6.82663	-0.70928	-10.68855
1277.34375	-10.35121	-4.00602	12.18477	-9.88354
1281.25000	-6.70857	-3.19999	2.11186	-6.25803
1285.15625	-11.50432	-10.85561	-4.33471	-9.07947
1289.06250	-13.88742	-5.61747	-1.11094	-15.52730
1292.96875	-7.46687	2.84420	3.72458	-7.46975
1296.87500	-6.07492	5.66489	6.14244	-4.24734
1300.78125	-1.24043	6.06805	6.14276	-4.24844
1304.68750	-0.46272	4.45647	-1.51259	-2.63792
1308.59375	-2.20025	5.66545	-9.16804	-1.02732
1312.50000	-0.11257	8.88911	-1.10919	5.82142
1316.40625	-3.73157	8.08335	0.09995	1.38810
1320.31250	-5.43037	2.03949	-5.54075	-10.29794
1324.21875	-3.19480	-5.61603	-2.31713	-10.70197
1328.12500	-7.09552	-2.39245	0.50369	-7.88250
1332.03125	-3.20212	-2.39225	5.33920	-9.89812
1335.93750	-1.30359	-6.42139	3.32495	-8.28719
1339.84375	0.47858	3.65191	-1.10704	-6.27325
1343.75000	0.05091	10.09889	2.51961	-12.72079
1347.65625	-4.40398	12.11359	2.92281	-13.12432
1351.56250	1.38539	7.27845	1.31141	-2.64857
1355.46875	2.01542	-0.78010	-0.30013	1.78329
1359.37500	1.59042	4.45808	-1.50866	4.20055
1363.28125	0.82178	10.50213	-6.74651	2.58854
1367.18750	-2.59243	4.86116	-3.52278	-3.45559
1371.09375	-0.86702	-6.01802	6.14780	-1.44107
1375.00000	-0.62610	-9.64439	2.92448	1.37931
1378.90625	-2.88998	-0.78000	-3.11946	0.97636
1382.81250	-0.47016	6.06978	-3.52218	-0.63538
1386.71875	-2.47169	0.83162	1.31326	-4.66462
1390.62500	-11.58421	-3.19772	2.52233	-7.08214
1394.53125	-11.65066	-3.19778	2.11959	-7.88790
1398.43750	-5.29809	-3.60081	4.53738	-1.03794
1402.34375	-8.24754	-2.39211	3.32878	-2.24663
1406.25000	-8.47752	2.44296	-0.70037	-8.69342
1410.15625	-3.78289	-4.00402	-6.34119	-3.85806
1414.06250	-3.26215	-2.79532	-4.32622	3.39491
1417.96875	-9.65530	4.05450	3.32975	-5.87231
1421.87500	-8.39681	-10.45109	-1.50520	-12.31904
1425.78125	-8.52302	-15.68929	-7.14613	-8.69245
1429.68750	-12.93295	-1.18385	1.31556	-9.09522
1433.59375	-10.12016	6.06880	3.73333	-6.27446
1437.50000	-5.88143	3.65116	10.58325	-4.66261
1441.40625	-5.33853	-1.18396	14.20977	-8.69179
1445.31250	-7.84569	2.84521	6.15142	-9.09455
1449.21875	-10.43790	2.44207	-1.10110	-9.90018
1453.12500	-12.89241	-3.19904	-15.20346	-10.70579
1457.03125	-9.28220	-1.99039	-14.80038	-4.66158
1460.93750	-0.26906	-0.78170	3.73464	8.23246
1464.84375	4.83960	2.03875	8.16694	7.02388
1468.75000	2.08035	-5.21402	0.51145	-4.25789
1472.65625	0.09623	-10.85512	-1.10013	-4.66060
1476.56250	9.55984	-5.21416	8.16748	-0.22809
1480.46875	12.86767	7.27657	9.77947	-3.45127
1484.37500	7.37570	6.06775	6.15324	-5.06278
1488.28125	4.46545	-4.81144	-2.30807	0.98152
1492.18750	-0.17661	-2.39386	-11.57525	7.42865
1496.09375	-4.15207	1.23241	-7.54582	1.38493
1500.00000	-7.82139	-1.58818	2.93057	0.17637
1503.90625	-6.27544	-2.39411	2.93084	9.04109
1507.81250	-0.87327	-0.78242	10.58676	14.27936
1511.71875	-4.45505	-7.22934	14.61623	6.22093
1515.62500	-4.88668	-4.81181	7.76665	0.17718
1519.53125	-4.30222	2.84385	-2.30645	9.84777
1523.43750	-4.67738	1.23205	-12.37954	8.63914
1527.34375	-0.64518	1.23197	-0.29148	1.78957
1531.25000	-3.48314	-1.58854	3.73803	-7.47761
1535.15625	0.50545	-9.64715	1.72359	0.17825
1539.06250	9.73703	-5.61786	-1.09670	14.28113
1542.96875	-14.81681	2.03780	-13.18435	-14.72956
1546.87500	-37.56558	1.23182	-7.14018	-38.90514
1550.78125	-37.56647	0.02294	2.53042	-38.09905
1554.68750	-43.98684	4.05224	3.73950	-46.56038
1558.59375	-49.10069	4.05219	11.39539	-53.81290
1562.50000	-56.42803	6.87261	3.73992	-65.49764
1566.40625	-64.09258	11.30486	-12.37713	-76.77950
1570.31250	-69.64808	12.91654	-10.36220	-85.24086
1574.21875	-74.70579	9.69304	-11.16778	-90.88175
1578.12500	-65.16549	-7.63299	-13.98808	-78.39071
1582.03125	-56.56941	0.02259	-5.52637	-66.70551
1585.93750	-59.67811	11.30462	-3.91453	-70.73461
1589.84375	-56.62646	1.23129	-11.97293	-71.94321
1593.75000	-46.52974	-0.38041	-6.33168	-56.63168
1597.65625	-41.67319	0.02239	-1.49624	-48.57290
1601.56250	-40.21088	3.64873	-2.70483	-52.60199
1605.46875	-38.82721	5.26039	3.33936	-50.18419
1609.37500	-36.38837	-2.39536	8.57770	-44.54289
1613.28125	-36.42645	-8.03654	6.56325	-38.49876
1617.18750	-34.62479	-11.66298	1.32537	-35.27524
1621.09375	-31.91867	-8.84247	-5.52424	-38.09573
1625.00000	-28.93678	4.85722	1.72866	-29.63409
1628.90625	-28.68826	2.43966	-3.91221	-28.02226
1632.81250	-27.48242	-8.43940	-24.46145	-31.24566
1636.71875	-21.04934	1.63385	-9.95566	-22.78403
1640.62500	-13.54912	4.85726	14.22039	-19.56053
1644.53125	-14.69208	-9.24541	10.99718	-26.00732
1648.43750	-19.03056	-12.06597	-1.09058	-29.23074
1652.34375	-16.88767	-10.05134	-3.50786	-24.79840
1656.25000	-14.64364	-7.23085	3.74509	-23.99241
1660.15625	-8.05672	-10.05138	15.02728	-15.53071
1664.06250	-2.13108	-4.81335	6.16294	-13.51597
1667.96875	-4.60297	12.51262	-4.71595	-15.53052
1671.87500	-2.63849	8.48331	-1.08938	-9.88939
1675.78125	3.53118	7.27448	-14.78878	5.01918
1679.68750	2.29969	0.82773	-18.01186	7.43682
1683.59375	-0.51364	-11.66306	2.13492	-6.26273
1687.50000	-3.14112	4.45412	7.77619	-5.05401
1691.40625	-0.05813	12.51273	8.17933	3.81056
1695.31250	0.83682	1.23071	-3.50536	-1.42747
1699.21875	-2.61527	3.64833	-12.36967	-6.66552
1703.12500	-0.16116	6.46881	5.76234	-7.06837
1707.03125	1.86928	-0.38101	2.94191	-3.84478
1710.93750	0.51138	-4.81327	-8.74271	0.99051
1714.84375	2.25209	4.85707	2.94252	2.60229
1718.75000	9.44321	5.26000	0.52521	5.82589
1722.65625	17.06796	-1.99274	3.34587	5.02020
1726.56250	13.64790	4.45413	18.65735	3.00571
1730.46875	2.68402	6.46885	13.01658	7.43811
1734.37500	0.51982	2.43964	-5.11506	4.61777
1738.28125	2.22079	-0.38087	0.52626	-1.02315
1742.18750	0.41539	-4.81315	13.01732	3.40908
1746.09375	1.16687	-2.79839	14.22629	5.02090
1750.00000	-1.20846	-3.20116	6.57090	0.58870
1753.90625	0.87134	-0.78363	1.33306	1.39455
1757.81250	1.10959	-6.02175	8.98899	1.39457
1761.71875	1.06439	-5.61884	12.21259	2.60342
1765.62500	3.10709	-1.99255	11.00401	7.84157
1769.53125	5.34262	-4.41013	5.76608	5.82692
1773.43750	3.70248	6.46890	3.75173	3.40933
1777.34375	4.90788	10.09523	7.37832	2.20057
1781.25000	5.32782	5.26002	3.34922	1.79758
1785.15625	-1.48187	2.43952	-3.50038	-4.24634
1789.06250	0.97102	-8.03674	5.36426	3.40931
1792.96875	5.78069	-20.52765	11.00562	11.06500
1796.87500	7.17360	-8.84273	3.75321	5.42402
1800.78125	1.53287	6.46859	2.94755	3.40941
1804.68750	-2.12072	7.27446	13.82690	6.22992
1808.59375	-1.03684	-0.38120	8.99195	7.84161
1812.50000	-0.96291	3.64808	4.15690	11.87091
1816.40625	0.65698	3.24508	4.15697	8.64744
1820.31250	1.37665	3.64799	-3.90144	-1.42576
1824.21875	-2.43083	7.67727	-1.88649	-5.85797
1828.12500	-6.33072	-2.39600	-7.52725	-5.05211
1832.03125	-5.25714	-14.88688	-11.55630	-5.05210
1835.93750	-6.58125	-10.05182	7.78463	-6.66375
1839.84375	-4.39539	6.06538	19.46981	-2.23141
1843.75000	0.81869	5.25950	11.00857	10.25957
1847.65625	-0.81499	-1.18735	3.75602	9.85681
1851.56250	-2.27777	1.23016	2.95025	1.39546
1855.46875	-4.46779	8.88589	-3.09350	2.60441
1859.37500	-7.31006	9.28897	1.33903	0.58991
1863.28125	-6.06378	5.25964	7.78619	-2.23044
1867.18750	-7.86600	3.64787	4.56300	-5.45377
1871.09375	-4.93164	1.63317	8.18963	-5.05079
1875.00000	-7.51117	-1.59036	8.18987	-1.42433
1878.90625	-7.35735	-9.24610	2.95200	-1.42425
1882.81250	7.95624	-5.21670	-7.52399	6.23158
1886.71875	10.78997	2.84204	-12.76199	19.12546
1890.62500	3.69207	5.66266	4.56421	11.06698
1894.53125	1.20795	5.25971	11.01134	5.82898
1898.43750	0.71062	-0.78429	4.56467	10.26135
1902.34375	0.58160	2.43907	2.55029	0.18814
1906.25000	1.15739	2.03609	5.77403	-3.03513
1910.15625	0.21074	-13.27533	6.98306	-2.63207
1914.06250	1.94002	-8.44014	4.56578	-1.42321
1917.96875	1.99356	4.05074	-5.10428	-2.22897
1921.87500	-3.19504	6.46833	-6.31279	-1.01998
1925.78125	-5.73897	1.23024	6.98412	2.60652
1929.68750	-7.73155	-1.99323	-0.26840	-1.42263
1933.59375	-8.54535	-12.46947	-5.90911	-5.45180
1937.50000	-7.46193	-15.69292	0.53813	-4.54509
1941.40625	-4.40406	0.02125	2.95594	-3.70893
1945.31250	-2.07582	6.87111	0.13566	-5.20112
1949.21875	-6.64021	-0.38162	-14.77257	-3.12737
1953.12500	-9.99528	-8.03730	-11.54894	2.30261
1957.03125	-12.26414	-8.44016	0.53923	-2.47075
1960.93750	-15.81631	-4.00803	0.94239	-13.91143
1964.84375	-11.33457	2.84176	11.41887	-12.59971
1968.75000	-6.37470	0.42417	9.80744	-3.90135
1972.65625	-5.79753	-4.41096	-3.48905	-1.96132
1976.56250	-2.47603	-4.81383	-5.90638	-1.98538
1980.46875	-3.81902	-9.64886	-12.35290	-5.96461
1984.37500	-4.53364	-10.05176	-7.92039	-4.69780
1988.28125	-0.14316	-4.00779	4.57064	2.14984
1992.18750	2.03181	4.45380	7.79432	5.05107
1996.09375	-2.67988	11.30369	6.18279	3.75906
2000.00000	-4.66638	5.66267	2.15372	-2.02722
2003.90625	-4.63137	-1.59008	5.37739	-1.63885
2007.81250	-6.48513	-3.20181	-1.06934	-4.31510
2011.71875	-4.24890	0.42452	-3.88970	-5.67494
2015.62500	-6.02987	2.03640	-6.70990	0.25462
2019.53125	-8.27493	2.43950	-9.53009	-4.51503
2023.43750	-2.75185	3.64834	-2.68001	-0.19565
2027.34375	0.38496	3.24524	-5.90316	10.55073
2031.25000	9.19420	5.25977	-9.93202	14.20923
2035.15625	11.24055	-0.78417	-1.87312	16.10690
2039.06250	7.92732	-1.59002	6.99153	11.95815
2042.96875	12.39833	2.03636	11.02115	9.70865
2046.87500	7.97580	-6.42516	8.60374	12.49906
2050.78125	4.87698	-11.26033	0.54531	13.12522
2054.68750	6.01080	-8.03690	-6.70721	15.85487
2058.59375	5.66940	3.24511	-3.08054	8.71210
2062.50000	3.76211	6.46851	-9.12408	4.70787
2066.40625	-0.63412	4.45380	-3.48268	6.76951
2070.31250	-4.31819	-0.38135	1.35277	-1.27374
2074.21875	-4.80516	0.42454	0.54715	-0.90740
2078.12500	1.07355	4.85680	8.20296	7.90861
2082.03125	3.98908	-8.84290	3.36808	6.96678
2085.93750	-2.47470	-16.09574	-1.46671	-0.18880
2089.84375	-3.89607	-6.02257	2.56290	-0.38162
2093.75000	3.36131	2.03604	-4.28668	6.11000
2097.65625	0.59014	-2.79921	-12.74795	-0.52534
2101.56250	-0.20476	-6.42559	-5.89783	-0.03110
2105.46875	4.07079	4.85644	-7.50931	5.72860
2109.37500	-0.71554	5.25929	-10.73246	2.09953
2113.28125	-0.12351	-4.81397	-12.34397	0.23592
2117.18750	0.99767	-8.84327	-18.38754	2.74957
2121.09375	-0.74849	-3.20227	-12.34325	5.87810
2125.00000	2.89179	8.88556	0.14779	0.75165
2128.90625	1.58919	8.48254	-2.67252	2.54229
2132.81250	-1.16884	0.02089	-13.55147	7.25504
2136.71875	-3.74824	-1.99382	-10.73061	-0.80188
2140.62500	-7.30093	-8.03777	-13.95371	-9.95404
2144.53125	-4.79522	-6.82895	-23.62377	-3.43108
2148.43750	-3.43536	2.84137	-17.98246	2.55778
2152.34375	-4.62238	-0.38213	-10.32654	-0.23570
2156.25000	-3.17332	-2.79976	-9.11739	-0.30220
2160.15625	-0.10748	3.24418	-10.32590	2.03522
2164.06250	0.36010	5.25881	-17.17544	8.89769
2167.96875	-2.09386	0.02071	-14.75767	1.74256
2171.87500	-2.84061	-0.78516	-6.69878	-4.51096
2175.78125	-2.92212	-5.62031	-10.32498	3.44057
2179.68750	-2.12505	-12.47018	-6.29544	7.59885
2183.59375	1.04214	-5.62045	-4.28051	7.11875
2187.50000	-2.85101	-3.20297	-7.50374	-3.93269
2191.40625	-3.89502	-8.03822	-4.28001	-10.40961
2195.31250	-1.38870	-6.82940	-5.48840	-2.87314
2199.21875	-3.67464	-1.18826	-13.54677	-2.52893
2203.12500	-8.37880	-3.60584	-6.29380	-5.13808
2207.03125	-13.76622	-10.05273	0.95923	-8.02009
2210.93750	-12.63214	-2.39704	-2.26388	-7.86107
2214.84375	-6.23524	8.88495	-13.94853	-3.12848
2218.75000	-3.53990	6.06443	-25.63328	-6.99132
2222.65625	-3.31158	5.66153	-26.84184	-3.28995
2226.56250	-4.21598	-4.00887	-16.36538	1.56955
2230.46875	-4.88814	-13.27639	-3.06841	-4.52410
2234.37500	-10.21796	-7.23239	-2.66519	-11.02854
2238.28125	-13.80314	-6.42640	-6.69425	-9.01128
2242.18750	-9.12889	-6.82935	-6.29105	-2.24191
2246.09375	-4.01494	-6.82938	-2.66430	-6.18773
2250.00000	-4.04369	-3.20298	-9.11091	-10.47431
2253.90625	3.57639	5.66151	-10.72235	0.82265
2257.81250	5.83254	0.42348	-12.73676	5.51387
2261.71875	4.40155	-7.63512	-21.60095	3.24765
2265.62500	5.37601	-1.99422	-18.37723	7.79463
2269.53125	5.60575	2.84099	-17.97396	10.54994
2273.43750	3.70831	-4.41168	-16.76498	5.02197
2277.34375	-0.63806	-7.63522	-10.72071	0.72288
2281.25000	-1.79236	-6.42657	-7.09405	-0.92050
2285.15625	-5.04827	-4.41196	-6.69081	-2.81779
2289.06250	-3.34748	0.82616	-5.88467	0.52537
2292.96875	3.86575	-1.99439	-0.24331	4.38689
2296.87500	4.25815	-6.82952	-10.31615	9.65535
2300.78125	1.71532	-2.39730	-24.01551	5.00024
2304.68750	-0.62812	-1.99446	-24.41825	-0.54959
2308.59375	4.14475	-0.78567	-15.95646	10.62276
2312.50000	5.64842	-7.23262	-4.27118	7.37460
2316.40625	-1.23815	-15.29129	-6.28548	-3.55120
2320.31250	-1.98705	-2.39750	-11.92617	-4.77507
2324.21875	-0.29205	9.28752	-11.12005	-4.73828
2328.12500	-1.73929	8.07865	-7.89633	-1.46609
2332.03125	-7.07323	6.86975	-5.07557	-6.56798
2335.93750	-2.62491	9.28735	2.58033	-3.84420
2339.84375	2.82509	2.43759	-5.88101	1.18407
2343.75000	-3.62722	-5.21799	-21.19215	-1.68094
2347.65625	-4.48318	-6.42685	-12.73053	1.73126
2351.56250	1.14623	-3.20351	-13.53623	1.64030
2355.46875	1.30225	0.82570	-17.56530	4.74533
2359.37500	5.28203	-4.00956	-14.74450	4.74838
2363.28125	9.12153	-4.00958	-13.53538	2.58298
2367.18750	3.97042	4.85487	-5.07354	0.87558
2371.09375	4.50707	12.91347	-6.68486	5.00014
2375.00000	2.88076	5.25778	-12.72858	0.85951
2378.90625	-11.12865	-8.44184	-17.16063	-11.40685
2382.81250	-9.17716	1.22840	-11.92231	-2.82258
2386.71875	-3.37503	5.66063	-7.89270	6.04059
2390.62500	-4.25524	0.01963	-14.74225	0.28480
2394.53125	-2.32935	0.42259	-17.15954	-1.80557
2398.43750	1.54825	3.24311	-11.51829	-0.13835
2402.34375	2.73465	8.07840	-6.27989	-0.16504
2406.25000	2.89665	12.10778	-8.69713	2.31948
2410.15625	2.65064	1.63159	-10.71148	1.19135
2414.06250	-1.04107	-4.41244	-19.97869	-4.05903
2417.96875	-1.81118	-4.81540	-17.15792	-1.33567
2421.87500	6.59065	-1.18890	-5.47275	4.91827
2425.78125	5.05976	-0.78599	-12.32239	4.21997
2429.68750	-4.60253	-12.87389	-21.99244	3.68845
2433.59375	-0.92058	-11.66509	-18.76868	3.36315
2437.50000	0.55419	-2.80069	-15.94784	5.14754
2441.40625	-4.84948	5.25792	-12.72418	-0.06021
2445.31250	-8.96816	6.86977	-11.91803	-3.96985
2449.21875	-7.48867	4.04930	-17.55880	-5.92541
2453.12500	-1.97933	7.27265	-17.96128	-2.91292
2457.03125	-2.63644	2.03451	-7.48479	-0.43345
2460.93750	-5.38278	-4.00955	-7.08160	-1.80077
2464.84375	0.30770	-1.99493	-3.85791	5.55502
2468.75000	4.86445	4.85488	-1.84303	11.43292
2472.65625	3.02388	4.85495	-15.54241	3.29972
2476.56250	-6.54852	-0.38309	-24.00366	-3.17109
2480.46875	-5.87700	-14.48568	-22.39164	-1.91215
2484.37500	-5.38281	-21.73837	-19.97372	-3.86870
2488.28125	-12.67730	-1.59181	-23.19670	-13.94404
2492.18750	-1.63786	10.89899	-12.72025	-5.80446
2496.09375	2.11212	8.48137	-0.63207	-1.85815
2500.00000	0.12566	2.84037	-10.70514	-9.25595
2503.90625	4.99584	3.24317	-11.10781	-2.42044
2507.81250	9.99185	7.67530	-9.49580	-1.87304
2511.71875	13.03398	6.06354	-24.80683	-6.45617
2515.62500	7.22366	1.22830	-17.95657	-6.97325
2519.53125	4.17273	-8.84495	-3.45071	-7.71347
2523.43750	4.86077	-14.08307	-3.45044	-2.18506
2527.34375	6.78893	-13.27722	-9.49416	0.50287
2531.25000	7.13671	-9.65081	-7.88207	2.14683
2535.15625	-3.71063	4.45172	-12.31395	2.03005
2539.06250	-10.24718	10.09275	-24.40151	3.11975
2542.96875	-2.55276	5.25749	-11.91039	10.13797
2546.87500	1.08338	-4.81580	-5.86615	10.91391
2550.78125	-6.44772	-12.06856	-11.50689	9.92852
2554.68750	-6.11962	-7.23346	-10.29782	8.62907
2558.59375	-0.01404	-4.41295	-17.95316	4.30699
2562.50000	-0.30957	-1.99539	-13.92349	3.12340
2566.40625	-3.09398	-2.80119	-5.46161	-0.05284
2570.31250	2.48936	-1.59238	-11.10239	-2.45494
2574.21875	7.64348	-4.00999	-19.16074	-1.68551
2578.12500	5.46362	-4.41293	-15.53413	6.32476
2582.03125	3.14124	6.86910	-17.14550	1.75676
2585.93750	0.70684	7.67498	-18.35396	-5.80176
2589.84375	1.30021	2.43687	0.58402	-1.56219
2593.75000	0.49902	0.42219	5.82230	3.31792
2597.65625	-6.30125	-9.24809	-15.53276	5.14449
2601.56250	-5.08144	-10.45666	-19.56172	2.41558
2605.46875	-1.20882	-1.18917	-14.72623	-4.31538
2609.37500	0.85474	8.88401	-18.35227	-0.28853
2613.28125	3.86438	15.73376	-17.14317	5.50379
2617.18750	2.16494	3.64585	-13.11358	8.01764
2621.09375	3.23939	-1.18933	-14.72506	5.50534
2625.00000	8.08837	0.82533	-20.76873	8.43761
2628.90625	3.56225	-9.65085	-17.14206	7.00488
2632.81250	0.40132	-6.42740	-7.06854	3.25627
2636.71875	5.88062	-8.44206	4.61672	5.27284
2640.62500	8.37194	-8.44207	4.61704	6.59695
2644.53125	11.28067	9.68975	-5.45586	13.92600
2648.43750	15.86400	4.04871	-19.96104	15.07979
2652.34375	21.92976	-11.26270	-21.97537	15.91291
2656.25000	19.34963	-12.47150	-7.46968	14.63783
2660.15625	-9.41594	-18.11253	-11.49878	-10.02104
2664.06250	-12.97774	-13.68031	-18.34835	-20.88739
2667.96875	-2.13506	-0.38356	-14.72173	-9.50766
2671.87500	-10.13454	4.04881	-24.79462	-9.71716
2675.78125	-6.58967	6.06355	-24.79426	-15.46531
2679.68750	-6.19546	-1.99511	-0.21526	-16.54498
2683.59375	-9.47515	-3.60686	7.03767	-16.21921
2687.50000	-10.54777	6.46635	1.79984	-10.75031
2691.40625	-12.39763	-3.60695	-6.66148	-2.72162
2695.31250	-11.90604	-10.45684	-14.71985	-6.06425
2699.21875	-16.60967	-2.80124	-17.94287	-17.40494
2703.12500	-13.25524	2.83983	-13.10745	-12.76120
2707.03125	-9.37533	-0.38365	-18.74823	-3.55520
2710.93750	-15.89703	-8.84526	-17.53909	-12.26057
2714.84375	-13.12662	-6.02481	0.99600	-9.94547
2718.75000	-8.81956	0.42208	-0.21248	-4.13785
2722.65625	-11.00887	-8.44236	-6.25612	-15.34482
2726.56250	-7.07810	-10.85995	-15.12032	-10.48515
2730.46875	-6.94444	-7.63645	-13.50837	-5.69959
2734.37500	1.02235	-1.18949	-7.86700	-6.96584
2738.28125	-4.98046	0.42220	-14.71652	-5.75430
2742.18750	-13.19990	-0.78663	-16.32789	-9.05797
2746.09375	-3.65376	2.03390	-10.28364	-7.36253
2750.00000	1.15265	11.30127	-7.05985	-4.79928
2753.90625	3.53458	10.89822	-15.52102	-8.00774
2757.81250	5.79072	-8.03964	-21.96761	-6.53973
2761.71875	7.18027	-9.24843	-15.52044	-6.38820
2765.62500	9.76645	3.24247	-9.47624	-0.63231
2769.53125	10.39898	7.67475	-7.05838	1.31716
2773.43750	8.90450	2.03377	-11.08732	-6.22523
2777.34375	7.37862	-6.83078	-16.32506	3.98124
2781.25000	4.61250	-8.03966	-7.86317	6.77002
2785.15625	11.83277	7.27160	0.59878	4.06689
2789.06250	15.54810	15.33016	-13.50340	0.96319
2792.96875	11.07629	8.07737	-22.36748	-1.62220
2796.87500	7.84232	1.63046	-19.54662	5.66102
2800.78125	4.09056	-5.62237	-15.51688	4.22937
2804.68750	8.59691	-4.01072	-11.08416	6.33520
2808.59375	5.71398	-0.38430	-10.68080	9.44896
2812.50000	-2.85566	-3.60778	0.19863	4.58910
2816.40625	-2.08659	-6.42833	7.85464	4.13955
2820.31250	-0.41796	-5.21960	-4.63592	6.54216
2824.21875	2.88868	3.24185	-1.41219	7.78797
2828.12500	3.85900	-0.38449	5.43792	9.44868
2832.03125	0.94271	-9.24897	-0.20279	12.80860
2835.93750	0.15302	-6.02554	-3.02298	16.74141
2839.84375	2.78240	-1.59338	-3.02269	12.50253
2843.75000	6.00040	-1.19055	-5.03696	5.60843
2847.65625	3.53270	0.42108	-11.88641	9.82660
2851.56250	-0.10542	0.01807	-2.61878	11.75031
2855.46875	-0.35228	2.03278	-4.63315	4.78220
2859.37500	-0.80469	-3.60830	-14.70616	3.17362
2863.28125	-0.18867	-12.47286	-15.91466	-3.42406
2867.18750	-2.92216	-7.23479	-13.89974	-3.51972
2871.09375	-3.59428	-5.62306	-7.45257	4.63426
2875.00000	-3.60874	-4.01137	-13.09323	5.32898
2878.90625	-3.11269	-2.80251	-17.92807	5.95640
2882.81250	1.25627	0.01803	-9.46632	2.85580
2886.71875	0.20867	-4.81710	-5.43668	2.45167
2890.62500	8.99876	-0.78782	-3.01886	17.24546
2894.53125	19.78905	16.13527	-5.83911	23.61681
2898.43750	-0.91208	9.68839	-9.86814	7.55522
2902.34375	-15.44002	-5.62299	-8.65910	-8.18553
2906.25000	-11.24865	-7.23478	-6.24130	-4.89498
2910.15625	-8.27114	0.42100	-16.71724	-0.78486
2914.06250	-7.93344	-7.23463	-23.56679	-5.22924
2917.96875	-13.13574	-8.84632	-12.28448	-13.78780
2921.87500	-14.40420	1.62990	-11.07546	-18.00990
2925.78125	-9.08518	8.07685	-21.14847	-13.47010
2929.68750	-5.04764	4.04762	-17.11882	-4.33115
2933.59375	-4.58896	-11.66663	-11.88038	0.98476
2937.50000	4.13876	-8.04027	-1.40396	3.57512
2941.40625	8.80859	0.01838	12.29588	6.02329
2945.31250	0.66072	-4.01087	-0.59758	-5.13892
2949.21875	-3.90374	-2.80207	-9.86475	-11.92942
2953.12500	-1.21483	2.03308	-6.64110	-6.09616
2957.03125	0.14264	1.63009	-3.41739	-6.03410
2960.93750	3.03737	4.04768	-14.69919	-0.14849
2964.84375	3.89266	2.83890	-32.02489	3.58114
2968.75000	-3.23546	-13.27829	-17.51915	4.62400
2972.65625	0.96798	-7.63718	5.04516	13.81706
2976.56250	4.69236	1.63028	1.82193	7.34641
2980.46875	-0.27706	-4.81663	-3.41599	-3.48239
2984.37500	2.23181	5.25664	5.44871	-1.81237
2988.28125	1.78715	9.28599	-0.19199	-1.81437
2992.18750	-0.47010	1.22723	-15.50291	-4.55396
2996.09375	3.27989	0.01837	-22.35230	-7.45735
