 	TP9	AF7	AF8	TP10	
-1000.00000	8.40896	2.62432	5.00989	2.14937
-996.09375	3.57496	1.81935	3.80085	4.97099
-992.18750	-1.66198	2.62609	5.00945	1.74872
-988.28125	-2.46669	-0.99942	7.82975	0.94404
-984.37500	-0.45093	-4.22193	5.00908	6.18331
-980.46875	2.37071	0.21116	2.99428	11.42262
-976.56250	1.96888	4.24134	2.59116	4.97688
-972.65625	8.01402	4.24221	0.57634	-0.66299
-968.75000	10.83568	5.04900	-0.63261	2.96454
-964.84375	4.38988	3.84110	0.97893	12.23316
-960.93750	7.61442	3.03615	4.20222	12.23433
-957.03125	7.21259	1.42529	1.78452	3.37106
-953.12500	-0.84494	-0.18554	0.17261	0.95469
-949.21875	-11.72297	-2.19932	-0.23045	-3.87926
-945.31250	-15.34823	-1.39259	-1.03654	-6.69864
-941.40625	-7.28849	2.23464	1.78383	-6.69745
-937.50000	0.77133	1.42970	2.99244	-4.27866
-933.59375	-5.27158	-0.98701	5.00690	-1.45700
-929.68750	-4.86751	0.22270	4.20080	5.79692
-925.78125	2.38640	0.22362	4.20061	7.81283
-921.87500	1.58173	-0.17837	0.57410	1.36722
-917.96875	-2.04350	1.83718	-1.03785	-9.91373
-914.06250	-2.04234	1.83807	3.79714	-7.49499
-910.15625	13.27021	1.43600	0.97639	2.57939
-906.25000	19.71822	0.63106	-1.03842	5.40112
-902.34375	8.43742	-0.17388	-0.23265	3.38770
-898.43750	1.18582	0.63285	-0.63575	0.16546
-894.53125	-0.42477	1.43962	-1.84474	7.01642
-890.62500	-0.82649	2.64937	-3.05376	7.01761
-886.71875	3.20406	4.26202	0.16947	7.01884
-882.81250	1.59362	3.05424	-1.03957	1.37907
-878.90625	0.38612	0.63760	-3.45734	0.97736
-875.00000	5.62552	1.44441	-1.84589	17.09585
-871.09375	11.26786	4.66881	-3.05493	8.63571
-867.18750	10.46325	3.05808	-2.65219	-4.65974
-863.28125	12.88212	0.64143	-0.63773	0.17673
-859.37500	10.06287	-1.37230	-1.84668	6.22194
-855.46875	6.84066	-3.78900	-0.63802	10.25249
-851.56250	12.07996	0.64417	1.37647	14.68597
-847.65625	9.66357	3.46560	-1.84714	3.80805
-843.75000	-0.40844	0.64601	-3.05610	-6.26395
-839.84375	-3.22775	-0.15892	-0.23570	-0.62164
-835.93750	0.39976	0.64784	-1.04176	9.04996
-832.03125	2.01261	3.06636	-1.44483	8.24542
-828.12500	-5.23899	2.66435	-0.63916	3.00851
-824.21875	-4.83490	-0.15520	-1.84813	0.59203
-820.31250	0.40431	-1.36307	-1.44534	1.39911
-816.40625	-4.42970	-2.16801	-0.23670	3.01205
-812.50000	-0.39928	-2.16710	0.16605	2.20741
-808.59375	5.64580	0.65433	1.77764	-3.43252
-804.68750	-1.20289	2.66991	0.56870	-8.26647
-800.78125	-3.21645	1.46204	-1.04319	-0.20663
-796.87500	-4.02126	-0.14872	-1.84917	2.61505
-792.96875	-7.64648	1.06105	-1.84930	-1.81597
-789.06250	-8.45119	3.07666	-3.05825	-7.05289
-785.15625	-8.04713	1.86883	-4.67011	-7.85756
-781.25000	-7.24003	1.86983	-2.25266	-3.82711
-777.34375	-4.82122	1.06497	0.97059	-0.60249
-773.43750	-8.04351	-2.15752	-1.04419	-1.00422
-769.53125	-11.66873	-0.54487	-1.04430	-0.60004
-765.62500	-7.23541	2.67955	0.97027	0.60994
-761.71875	0.01853	1.47171	0.97019	-1.80639
-757.81250	-4.00957	1.06978	0.16425	1.82120
-753.90625	-9.64937	3.08541	-0.23873	2.62834
-750.00000	-5.21592	3.48932	0.56703	-3.01136
-746.09375	-3.19994	3.49033	-1.44768	0.21330
-742.18750	-6.82513	3.08844	-2.65654	2.63206
-738.28125	-5.61508	2.68651	0.96973	-4.21645
-734.37500	-2.79329	3.09048	1.37261	-11.06495
-730.46875	-5.20957	1.88270	1.37253	-13.07830
-726.56250	-6.81993	0.27196	-0.23927	-11.06238
-722.65625	-4.40102	1.07889	-0.64232	0.22089
-718.75000	0.43539	1.88578	0.16346	9.08654
-714.84375	1.64540	3.49852	1.77516	0.62624
-710.93750	-0.77101	2.69370	2.17800	-2.59590
-707.03125	0.03608	-0.12574	1.77505	1.43464
-703.12500	-1.57436	-0.12470	0.96907	-4.60811
-699.21875	-6.00536	0.68215	-3.46321	-9.44198
-695.31250	-8.42167	0.68318	-4.26914	-11.85829
-691.40625	-6.80878	0.28128	-1.85169	-13.06578
-687.50000	-10.03099	-2.53817	-0.24002	-5.81176
-683.59375	-8.82090	-4.14881	1.37160	-1.78112
-679.68750	-6.40200	0.68738	0.96856	-1.37686
-675.78125	-14.05645	0.68840	-1.04617	1.44505
-671.87500	-11.63761	-3.33988	-1.44913	-9.02981
-667.96875	-0.75727	-4.54766	0.56548	-15.87833
-664.06250	-5.18832	-3.33785	0.56545	-11.84771
-660.15625	-11.63394	-3.33683	4.99769	-8.62292
-656.25000	-16.46788	-4.54457	4.59471	-13.85968
-652.34375	-20.89877	-6.55814	0.16242	-12.64950
-648.43750	-9.61537	-5.75121	0.56534	1.05151
-644.53125	-3.97302	-4.54134	3.38581	-2.97643
-640.62500	-5.58339	-2.12270	3.78873	-7.81017
-636.71875	-1.14984	1.50470	0.16226	-1.76478
-632.81250	0.06019	0.69990	2.17685	-2.56922
-628.90625	-4.77365	-0.50783	2.98271	-8.20889
-625.00000	-7.18990	0.29911	-1.85254	-11.02799
-621.09375	-3.96504	2.31484	-3.06139	-4.98262
-617.18750	-1.14310	-0.90754	-0.24088	4.28619
-613.28125	3.69339	-2.51820	2.57959	2.67585
-609.37500	7.72404	1.10927	2.17661	-0.94907
-605.46875	6.11373	2.72205	2.98249	0.66407
-601.56250	11.75615	3.52899	-1.44977	1.87436
-597.65625	13.36933	3.12719	-3.46443	-1.75048
-593.75000	1.68576	0.30773	0.16192	-4.97239
-589.84375	-4.75969	-0.89997	-1.04687	0.67010
-585.93750	-9.99640	-2.51059	-1.04687	-1.74600
-582.03125	-16.44198	-4.52417	-0.24096	-2.55037
-578.12500	-14.82886	-4.92606	2.17656	-0.93721
-574.21875	-11.60400	-4.11908	-0.64398	-8.59149
-570.31250	-14.82601	-4.11800	-7.49380	-18.26038
-566.40625	-9.98940	-2.50519	-6.28510	-21.88537
-562.50000	-7.97330	-1.69822	-5.47924	-16.24289
-558.59375	-6.36014	-2.90592	-7.49392	-13.42098
-554.68750	0.49106	0.72157	-7.49392	-8.98722
-550.78125	0.08949	4.34897	-5.47928	-7.37396
-546.87500	-3.53548	5.55881	-5.47929	-3.34311
-542.96875	-8.36921	2.33638	-3.06173	-1.72988
-539.06250	-6.75613	0.72572	0.16173	-5.35484
-535.15625	2.51253	3.54726	-1.85294	2.70518
-531.25000	6.94606	0.32485	-0.64416	6.73595
-527.34375	-3.12583	-5.31507	-0.64416	5.93149
-523.43750	-5.54211	-4.50817	-1.04710	5.12711
-519.53125	-1.91436	-0.07488	0.96756	9.56082
-515.62500	-10.77731	-0.07380	0.56466	5.93582
-511.71875	-7.95537	-4.10204	-1.85294	1.90794
-507.81250	0.10460	-5.30978	-4.27047	-0.10528
-503.90625	0.91195	-7.72631	-3.46464	-9.37125
-500.00000	-3.11585	-6.91938	-4.27051	-11.78739
-496.09375	-11.17301	-3.69487	-4.67348	-16.62107
-492.18750	-13.18621	-4.49966	-1.85301	-12.99319
-488.28125	-7.94665	-3.28980	0.56459	-3.72434
-484.37500	-9.95981	-2.48286	0.56462	-0.49946
-480.46875	-11.97299	-4.89938	0.96754	3.93421
-476.56250	-9.15105	-8.12173	0.56466	1.92105
-472.65625	-8.34375	-9.32935	2.57934	-4.12142
-468.75000	-7.53650	-6.50774	2.17640	-10.96970
-464.84375	-9.54972	-6.50664	-3.46458	-16.60917
-460.93750	-8.33948	-5.69970	-1.85288	-15.80171
-457.03125	0.12349	-1.26635	-0.24112	-10.15911
-453.12500	0.52796	-0.45940	-3.86752	-10.96344
-449.21875	-7.52912	-4.48759	-4.27039	-12.17067
-445.31250	-7.52763	-6.50114	-3.06163	-5.72218
-441.40625	-0.67634	-5.29121	-2.65866	-2.49716
-437.50000	-0.67483	-6.09592	-1.85278	-2.49564
-433.59375	-3.49387	-6.90073	-1.85276	1.13218
-429.68750	-3.89540	-6.89965	-1.44978	-0.88097
-425.78125	-0.67052	-4.07802	-1.85266	-4.10289
-421.87500	-1.07193	-4.07693	-4.67308	-2.08671
-417.96875	-0.26459	-2.46411	-5.07598	-0.07054
-414.06250	0.54272	-1.65715	-4.67297	-2.88947
-410.15625	-1.47045	-4.07356	-7.89640	-11.75239
-406.25000	-1.46891	-2.05775	-7.09054	-13.76546
-402.34375	-10.33191	0.36095	-6.68756	-11.34632
-398.43750	-10.73334	1.97387	-6.68752	-8.12135
-394.53125	-5.49373	3.18383	-6.28459	-12.14913
-390.62500	-6.70101	-0.03845	-7.49331	-12.14764
-386.71875	-8.31115	-0.84320	-5.07574	-8.51981
-382.81250	-9.92132	-4.87133	-1.04640	-2.07140
-378.90625	-5.48753	-6.88481	0.96830	9.21224
-375.00000	-1.45673	-5.27192	-0.24038	2.76692
-371.09375	-7.09629	-5.27076	-1.44910	-2.46957
-367.18750	-11.52701	-3.25496	0.16270	0.35250
-363.28125	-6.69039	-2.44796	-2.25474	-3.27234
-359.37500	-2.65954	-0.83509	-3.86642	-10.12059
-355.46875	-7.09023	-2.04263	-5.07514	-5.28391
-351.56250	-9.10336	-4.86197	-5.88092	-2.86477
-347.65625	-8.29599	-5.66659	-4.26912	-10.11595
-343.75000	-8.69748	-4.05363	-3.46325	-3.66749
-339.84375	-10.71062	-2.84371	-3.46320	-1.65131
-335.93750	-17.55891	-4.45422	-2.65729	-8.90253
-332.03125	-19.97484	-4.45302	-1.44842	-14.94490
-328.12500	-19.16744	-5.66065	-2.25417	-18.56972
-324.21875	-17.55424	-8.88293	-1.04536	-16.95647
-320.31250	-16.34390	-10.49344	-1.44818	-18.16359
-316.40625	-15.13355	-10.89520	-5.07449	-19.77371
-312.50000	-13.11728	-13.71447	-4.67145	-10.90768
-308.59375	-5.05704	-12.10158	-7.49185	-12.92078
-304.68750	-4.65255	-3.63884	-9.10351	-22.18655
-300.78125	-12.30675	0.39165	-7.08874	-25.00548
-296.87500	-9.88761	-2.02470	-7.89448	-25.80973
-292.96875	-9.08022	-4.44109	-8.70020	-21.37587
-289.06250	-15.52549	-2.82819	-7.08839	-16.94209
-285.15625	-19.55330	-2.82696	-5.47652	-14.11991
-281.25000	-19.95468	-3.63157	-5.07350	-14.92406
-277.34375	-17.93849	-4.43618	-7.08802	-16.53409
-273.43750	-13.50464	-4.83788	-8.69957	-18.94999
-269.53125	-8.66786	-5.23950	-6.28191	-12.09843
-265.62500	-9.87505	-8.46170	-5.07300	-1.21763
-261.71875	-9.87341	-8.05756	-7.49042	-3.63349
-257.81250	-3.42483	-6.84753	-7.49029	-8.86989
-253.90625	-2.61734	-7.65216	-9.10192	-11.28581
-250.00000	-7.45087	-8.85976	-8.69883	-10.07539
-246.09375	-8.65801	-4.82923	-3.05770	-12.08842
-242.18750	-9.05930	-2.00741	-1.04290	-7.65454
-238.28125	-4.62542	-1.60326	-2.25150	-4.42948
-234.37500	-1.40037	-3.21370	-1.44553	-10.06879
-230.46875	1.01882	-6.43591	-0.63950	-8.05252
-226.56250	11.49664	-7.64345	-0.63931	-9.25969
-222.65625	7.06601	-11.26853	0.56964	-8.45213
-218.75000	-9.04967	-10.86436	0.16685	-1.19762
-214.84375	-12.27154	-7.23668	-1.44467	0.41590
-210.93750	-9.85232	-7.23541	-1.84746	0.41765
-207.03125	-9.04483	-8.44297	-4.66779	-4.41583
-203.12500	-12.66952	-8.03883	-3.86175	-13.68148
-199.21875	-15.89135	-11.66392	-1.84691	-13.67976
-195.31250	-13.06927	-12.06560	-3.86140	-7.63411
-191.40625	-12.26183	-6.42323	-5.07005	-4.81196
-187.50000	-15.08067	-7.22776	-3.86111	-5.21323
-183.59375	-15.07901	-9.64406	-2.24921	-5.61439
-179.68750	-13.46558	-9.23982	-2.65201	-9.23902
-175.78125	-10.64342	-6.82099	-3.05480	-15.68412
-171.87500	-7.82127	-7.22261	-4.66631	-18.50285
-167.96875	-11.04305	-10.84775	-6.68080	-17.29237
-164.06250	-7.41498	-10.44351	-5.87481	-9.63501
-160.15625	0.64529	-7.62174	-5.87465	-10.43908
-156.25000	3.06454	-5.20288	-4.66568	-14.46661
-152.34375	1.85737	-3.58989	-1.84502	-11.24146
-148.43750	-4.58785	-3.99146	-5.87415	-14.06022
-144.53125	-10.22721	-4.79605	-4.66518	-19.69953
-140.62500	-12.64310	-5.19763	-3.05332	-19.69781
-136.71875	-8.20918	-5.59923	-4.26188	-18.08432
-132.81250	-10.22220	-7.20958	-3.45583	-10.82982
-128.90625	-17.87618	-8.41704	-2.64981	-3.97830
-125.00000	-15.85983	-7.20689	-4.66427	-6.79699
-121.09375	-8.60535	-5.19090	-5.87288	-7.60097
-117.18750	-4.57430	-2.36907	-3.45510	-5.98751
-113.28125	-6.58720	-1.15894	-5.46957	-1.95645
-109.37500	-5.37666	0.05117	-7.08113	4.08930
-105.46875	-5.77788	0.45538	-5.87211	0.86765
-101.56250	-5.37319	-3.97552	-4.26015	1.27242
-97.65625	-3.75976	-4.37720	-3.05121	0.46842
-93.75000	-6.17555	-1.15247	-4.66269	-12.82639
-89.84375	-9.80027	-3.56878	-5.87130	-21.68901
-85.93750	-11.41024	-2.35868	-3.45353	-19.26957
-82.03125	-14.22904	-1.14853	-3.45335	-9.59743
-78.12500	-17.04785	-0.74430	-5.06492	-13.62496
-74.21875	-17.44909	-1.95171	-2.64712	-22.48767
-70.31250	-16.64145	-5.97972	-2.24398	-14.42734
-66.40625	-14.22218	-6.38139	-3.45260	-8.38166
-62.50000	-11.80284	-5.57425	-1.03486	-6.36526
-58.59375	-4.54833	-5.97584	-3.04930	-7.16935
-54.68750	-3.74077	-3.55701	-5.86958	-13.21153
-50.78125	-3.73910	0.07070	-5.46641	-18.04483
-46.87500	2.30655	0.07201	-3.85450	-10.79023
-42.96875	2.30824	1.28213	-2.64547	-4.34158
-39.06250	5.53336	1.68634	-3.85406	-9.57784
-35.15625	5.53506	-0.32699	-3.45088	-6.35257
-31.25000	-10.17751	-3.54910	-3.45063	-1.11266
-27.34375	-6.14639	-2.74190	-2.24161	-6.34887
-23.43750	-2.92119	-0.32296	-3.04730	-9.57047
-19.53125	-10.17223	-0.72457	-4.65876	-0.30120
-15.62500	-3.32060	-1.12611	-1.83803	2.11823
-11.71875	-4.52767	-1.52771	-1.43486	-8.75904
-7.81250	-11.37575	-2.73516	-3.85226	-15.20419
-3.90625	-8.55354	-1.12206	-3.44910	-12.78479
0.00000	-8.95478	0.49097	-1.83717	-11.57423
3.90625	-8.55008	1.70109	-1.03108	-18.01927
7.81250	-4.92198	3.31418	-0.22492	-18.01747
11.71875	-0.08501	3.31554	-2.23932	-9.15121
15.62500	-3.30670	3.31691	-3.44790	-7.13476
19.53125	-9.75184	4.92997	-3.04480	-11.16226
23.43750	-4.10898	5.33426	-2.64162	-11.16046
27.34375	-0.07787	1.30631	-1.43258	-6.72640
31.25000	4.35611	0.90470	-1.83528	-0.68059
35.15625	10.80460	1.71187	-4.25257	-2.29041
39.06250	1.94178	-2.71906	-1.83476	-7.12377
42.96875	-6.11515	-3.92645	3.00070	-6.31611
46.87500	-4.09882	-0.29875	4.61265	-6.31425
50.78125	-0.87364	1.31438	5.41875	-5.10354
54.68750	-2.48365	0.50985	5.01613	-1.07238
58.59375	-8.12288	-2.30928	3.40465	-4.69689
62.50000	-5.30063	-1.50204	-0.22146	-5.09800
66.40625	-2.07540	0.51402	-1.43001	-4.29032
70.31250	0.74684	2.53007	0.58491	-3.88554
74.21875	3.56904	1.72561	-1.02657	-1.06316
78.12500	-0.45852	0.11529	-2.63800	-2.67292
82.03125	-5.29190	2.13131	-2.63775	-5.08861
85.93750	-8.51354	3.34150	-1.02582	-9.11600
89.84375	-10.12346	3.34291	2.19790	-11.93456
93.75000	-8.50990	1.32963	2.19818	-6.29164
97.65625	0.75932	-0.28074	-0.62203	-3.46918
101.56250	4.38755	0.12361	1.79586	-1.85558
105.46875	8.41866	1.73671	3.40786	3.78734
109.37500	13.25565	1.73811	0.18470	5.80388
113.28125	-2.45681	-2.69273	-2.63548	1.37357
117.18750	-12.52818	-3.09420	-3.03811	-5.07139
121.09375	-4.87063	-0.67520	-3.44071	-2.65187
125.00000	3.59275	1.34097	-1.82873	4.60276
128.90625	6.41512	0.13364	0.18620	1.78415
132.81250	1.98470	-3.89417	1.39530	0.17429
136.71875	-1.23690	-5.10148	3.00735	5.81718
140.62500	-3.24969	-3.89123	-0.61873	5.81902
144.53125	-6.06833	-4.29275	-1.42423	8.23839
148.43750	-3.24602	-3.88839	-1.02101	12.26960
152.34375	-0.02072	0.14229	-1.02066	4.21289
156.25000	-1.63062	1.35252	-3.43785	-3.44080
160.15625	-7.26978	1.75686	-5.85509	-4.64769
164.06250	-1.22402	1.35539	-6.25768	-3.83989
167.96875	5.62755	0.55090	-7.46609	-10.28481
171.87500	-3.23507	2.16408	-7.06289	-13.10335
175.78125	-6.45663	0.55375	-3.43614	-9.47511
179.68750	1.20091	-3.07118	-0.61531	-11.48788
183.59375	-4.84129	-5.08442	-3.03259	-11.88888
187.50000	-14.50973	-4.27719	-5.44980	-10.27525
191.40625	-10.47857	-3.46993	-5.44949	-7.04987
195.31250	-12.08851	-5.88603	-4.64334	-5.83917
199.21875	-17.32482	-5.48171	-6.65769	-3.41971
203.12500	-16.51706	-5.48028	-6.65739	-5.43249
207.03125	-12.48590	-8.70229	-3.03074	-2.61007
210.93750	-12.88706	-11.52132	-1.41870	-0.59348
214.84375	-11.27348	-11.11690	-2.22426	-1.80034
218.75000	-10.86869	-9.10079	-1.82110	-6.23061
222.65625	-10.46383	-7.48766	-2.62666	-8.24326
226.56250	-7.23848	-5.47159	-3.43221	-6.22667
230.46875	-1.19264	-1.84377	-2.22314	-1.79247
234.37500	1.22682	-2.24531	-1.41701	1.43297
238.28125	0.42282	-3.04974	1.00084	2.24084
242.18750	-2.39574	-4.25711	0.59825	3.85459
246.09375	-5.61725	-5.06153	1.00145	6.67704
250.00000	2.84626	-2.64254	4.62817	5.06735
253.90625	9.29511	-1.43228	0.59919	2.65181
257.81250	2.44719	-1.02788	-1.81809	0.23626
261.71875	-3.99777	-1.02646	1.00273	-0.97047
265.62500	-2.38415	-2.23383	2.61480	5.88149
269.53125	-2.38222	-1.02357	2.21216	7.09234
273.43750	-0.76857	0.18671	-0.60802	9.10902
277.34375	0.84505	0.18816	-0.20471	3.47001
281.25000	5.27922	0.99544	2.61616	-2.57190
285.15625	8.10163	0.59393	2.61651	0.25070
289.06250	7.70060	-3.43392	-0.20361	-2.16475
292.96875	6.09088	-3.02952	2.61726	-4.58033
296.87500	0.04891	1.40419	7.45274	-0.95205
300.78125	2.87131	1.80852	5.43842	-0.14423
304.68750	2.47022	3.01876	3.42411	3.88706
308.59375	-3.57187	3.42318	3.02156	5.09791
312.50000	1.66811	2.61875	3.42481	7.92041
316.40625	4.89345	2.62024	2.61932	20.81615
320.31250	3.68655	1.01001	1.81382	19.20646
324.21875	7.71776	-2.61492	2.62002	3.09115
328.12500	9.73430	-3.41929	5.03800	0.27262
332.03125	10.54214	-1.80607	9.47056	12.76545
335.93750	4.09727	-0.99876	8.26211	9.94695
339.84375	0.87587	-2.20609	1.00969	-0.12429
343.75000	0.87793	-3.01045	1.81595	-3.34572
347.65625	-1.94050	-0.99431	4.63679	0.68560
351.56250	7.73180	0.61887	3.42832	6.32859
355.46875	20.22463	-0.58845	3.83162	7.53938
359.37500	8.94454	-0.58696	4.63784	5.92973
363.28125	-3.54436	1.83214	4.23525	4.32004
367.18750	-1.52776	4.65410	0.20632	4.72508
371.09375	0.08596	5.46146	-0.59916	-1.31674
375.00000	0.08794	4.65701	1.01290	-4.94102
378.90625	-0.71587	4.25556	2.22208	0.70216
382.81250	-0.71382	3.45115	2.22246	1.10716
386.71875	1.70566	4.25845	3.02875	1.51219
390.62500	2.51340	3.05112	4.64082	5.14068
394.53125	4.12709	3.45555	4.23823	1.91931
398.43750	-0.70613	2.65109	3.02985	-2.91389
402.34375	-10.77754	1.04086	1.82142	-0.49432
406.25000	-6.34336	1.04234	4.23933	2.73116
410.15625	-0.70028	1.44679	4.23970	4.74785
414.06250	3.73397	1.04533	4.24006	3.94406
417.96875	11.39168	-2.57959	5.04634	2.33441
421.87500	2.12629	-0.56346	2.62909	2.73954
425.78125	1.72538	3.06442	2.62943	1.93593
429.68750	4.54796	1.85712	3.83858	-0.88247
433.59375	-1.49407	1.05279	2.63013	-2.49206
437.50000	-3.10375	3.06896	-0.19002	3.55406
441.40625	-0.68408	0.65286	0.21323	7.98851
445.31250	0.92969	-0.55444	3.03414	2.34967
449.21875	-2.29166	0.65586	1.82568	5.97829
453.12500	0.93391	1.06031	1.42309	6.78635
457.03125	5.77122	1.06180	0.21467	3.96813
460.93750	6.17641	1.86916	-0.59083	9.20846
464.84375	4.56695	0.66187	5.45346	9.61356
468.75000	2.95748	-1.35128	4.64798	1.55722
472.65625	6.98907	-1.34978	3.03665	-4.48450
476.56250	5.37963	-2.15414	3.43991	5.18806
480.46875	-1.06509	-2.55561	1.42565	8.01079
484.37500	-3.48058	-2.15117	1.82900	6.40121
488.28125	0.14792	-2.14971	5.85869	13.25321
492.18750	0.55290	1.47818	7.47080	11.64363
496.09375	1.36091	4.70308	0.21846	2.78137
500.00000	1.76591	5.10754	0.21889	6.81284
503.90625	-5.48476	2.69145	3.84570	6.00919
507.81250	-4.27387	-0.12753	4.24901	-3.65895
511.71875	2.57808	1.08282	3.44361	-4.86551
515.62500	3.38618	1.08437	5.05580	-4.05741
519.53125	10.23815	1.48885	5.05625	1.18289
523.43750	7.82273	1.49038	4.25078	-3.24711
527.34375	2.58679	0.28311	3.44536	-7.67710
531.25000	2.99191	-0.11832	1.83408	1.99553
535.15625	2.59114	-1.32558	5.86380	9.65344
539.06250	8.23433	3.51116	6.67008	5.62636
542.96875	9.44523	5.93024	1.02946	-0.41537
546.87500	14.68544	5.52891	-1.79057	3.21323
550.78125	14.68755	9.15682	0.22454	9.25949
554.68750	7.43697	7.14374	1.83675	12.48518
558.59375	7.84201	5.53360	3.04603	11.27861
562.50000	12.67930	7.54978	2.24060	10.87788
566.40625	14.29306	7.55129	-1.38526	6.04490
570.31250	18.32443	8.76161	-0.57895	5.64414
574.21875	27.99693	10.77781	1.43616	8.06402
578.12500	31.62548	9.97346	0.22783	13.30435
582.03125	33.23929	9.97503	1.03416	18.54464
585.93750	27.19746	9.17075	3.04934	13.71163
589.84375	14.70866	7.56064	1.84103	13.31097
593.75000	11.89018	5.54760	2.24440	16.93956
597.65625	8.26583	3.53454	3.85664	19.35929
601.56250	4.23860	2.32728	3.45416	16.54087
605.46875	12.70216	1.52297	4.66345	19.36353
609.37500	17.53931	1.12156	5.87274	15.33640
613.28125	9.88565	-0.48863	5.47029	8.89163
617.18750	4.24670	-1.69580	6.67960	14.53483
621.09375	13.51612	-1.69424	6.68012	22.99843
625.00000	24.39726	1.12782	2.65132	22.19471
628.90625	23.19061	-0.07942	1.84596	21.79400
632.81250	24.80437	-6.92766	5.87576	29.85479
636.71875	27.62687	-3.29977	3.05577	39.12439
640.62500	28.43479	-0.47772	0.23571	42.35003
644.53125	28.03393	-4.90832	-0.16672	34.29360
648.43750	29.64769	-4.10089	-3.38969	29.46054
652.34375	40.12595	0.33295	-3.38920	37.52135
656.25000	43.75445	0.33456	-2.98581	38.32957
660.15625	45.36825	-1.27560	-0.56773	39.54066
664.06250	42.95278	-1.67688	1.85035	43.57217
667.96875	43.76072	0.33938	-2.17846	42.36554
671.87500	48.19508	4.37026	-2.58093	42.36771
675.78125	34.09460	5.17769	1.04590	37.53468
679.68750	26.44115	3.56760	2.25519	29.07537
683.59375	26.04039	3.56921	2.25566	29.07755
687.50000	30.47462	4.37666	3.46494	31.90028
691.40625	33.70004	3.57238	3.86840	27.06738
695.31250	25.64348	4.37978	2.66012	24.65201
699.21875	23.63091	5.18722	3.06360	31.10118
703.12500	26.45351	5.18880	4.67585	32.71511
707.03125	27.26143	4.38451	5.07936	30.29972
710.93750	26.45765	3.58023	3.87109	28.69022
714.84375	24.04211	1.97006	2.25984	19.42501
718.75000	24.84999	-0.44596	1.45451	17.81546
722.65625	29.28424	1.97321	1.85802	25.47340
726.56250	32.91268	5.19824	3.47026	25.87862
730.46875	34.12360	3.58816	2.66496	22.25447
734.37500	26.87295	3.18681	2.66549	23.46549
738.28125	14.78714	4.39719	5.08362	23.06476
742.18750	6.73053	4.39876	5.08415	23.06696
746.09375	7.94126	2.78859	5.89052	19.44282
750.00000	8.34630	1.98435	2.66758	15.41576
753.90625	10.36310	1.18011	1.86225	19.85021
757.81250	14.39456	1.98754	2.66860	20.25533
761.71875	21.64944	4.40673	3.07208	25.49568
765.62500	26.88965	6.42299	2.66966	28.31839
769.53125	21.25082	7.63340	0.25258	23.08246
773.43750	23.26764	6.42619	2.26775	23.08464
777.34375	25.68727	4.41313	6.70052	25.90738
781.25000	17.22780	5.62354	7.10397	23.08896
785.15625	14.00652	5.62516	7.10447	13.01794
789.06250	18.84375	5.22382	7.91081	3.34984
792.96875	17.63705	3.61373	6.70252	1.33739
796.87500	18.04213	2.80940	5.09133	7.78644
800.78125	17.23834	5.22860	5.49473	7.38574
804.68750	16.43461	6.43900	5.49525	6.17916
808.59375	12.00452	6.84350	5.49577	13.43415
812.50000	5.96264	7.24806	4.69045	13.43639
816.40625	12.00870	5.23500	3.48218	15.05027
820.31250	7.98133	4.43071	4.69151	14.24662
824.21875	-4.91037	0.40299	5.90083	3.77268
828.12500	2.34452	0.00162	6.70721	5.78957
832.03125	5.16719	4.03252	8.31943	7.00065
835.93750	-0.06872	2.82532	9.93171	0.95899
839.84375	-2.08118	3.22989	9.12638	1.76709
843.75000	-8.52592	0.81389	6.30637	0.96351
847.65625	0.74361	2.02431	7.91868	1.77159
851.56250	9.20732	4.44355	10.33681	5.80304
855.46875	6.38899	4.44518	9.12852	7.81987
859.37500	7.19694	5.65561	10.74073	5.80743
863.28125	6.79612	4.44843	10.33834	4.19794
867.18750	8.00701	2.03242	9.53296	8.63235
871.09375	11.23258	2.83986	12.35405	18.30491
875.00000	9.62300	3.64735	9.53404	20.72469
878.90625	11.23682	1.63429	9.53460	14.28003
882.81250	10.43311	2.44173	11.95274	11.05882
886.71875	7.21181	1.63748	13.56498	12.26987
890.62500	10.84035	0.83318	12.35681	16.30149
894.53125	13.26001	1.64071	9.13393	16.70678
898.43750	6.81531	2.04519	10.34328	12.67980
902.34375	10.04087	4.46440	12.35847	13.08499
906.25000	19.31050	5.27187	11.15022	15.90779
910.15625	14.88035	3.66182	8.73318	15.91008
914.06250	6.42086	4.06636	10.34551	17.92695
917.96875	2.39358	4.47093	12.36075	19.94389
921.87500	8.03658	7.69598	10.74957	23.16951
925.78125	-1.63162	10.11516	7.92966	10.27801
929.68750	-13.31453	8.50512	15.18300	-4.22529
933.59375	-17.34176	12.53607	20.42170	-12.68469
937.50000	-41.11267	7.29963	2.29041	-36.45545
941.40625	-40.70782	9.31594	3.90276	-41.28848
945.31250	-37.88521	12.54106	14.37954	-38.86885
949.21875	-58.83556	-0.75400	0.27752	-54.17810
953.12500	-60.44533	-5.99051	-2.94535	-54.17601
957.03125	-38.68507	6.09900	15.59002	-36.84793
960.93750	-22.16279	21.00907	29.69322	-26.77250
964.84375	-43.51604	1.67005	3.10043	-43.69341
968.75000	-37.06699	-3.56643	-4.15169	-46.10880
972.65625	-18.93306	1.27037	4.31038	-36.43624
976.56250	-16.51333	2.48082	5.51974	-31.59884
980.46875	-14.89942	4.90000	8.74377	-29.17902
984.37500	-20.13535	5.30460	10.75900	-22.32703
988.28125	-21.74499	5.70918	12.77424	-8.22223
992.18750	-14.08720	3.69615	10.76019	-8.62298
996.09375	-13.27925	1.28015	7.94028	-13.45595
1000.00000	-12.06833	4.90808	10.35849	-6.60397
1003.90625	-5.61922	5.31264	10.35909	-6.60174
1007.81250	3.24744	6.12012	10.35967	-11.03172
1011.71875	4.45843	9.34520	11.56900	-8.61183
1015.62500	-3.19508	7.33217	10.36085	-3.77438
1019.53125	-3.99871	5.72209	5.52623	-9.41306
1023.43750	-4.39943	4.11196	4.31801	-14.24590
1027.34375	-4.80008	4.11358	3.91568	-15.04948
1031.25000	-4.79785	6.12985	5.12506	-11.01788
1035.15625	-4.39278	5.32562	7.54321	-7.38917
1039.06250	-1.97303	3.71555	5.52915	-11.81906
1042.96875	0.84967	3.71719	6.73856	-6.17561
1046.87500	10.92520	6.53932	4.32156	0.67657
1050.78125	8.91278	7.74976	2.30752	1.88776
1054.68750	2.46809	7.34842	4.72575	4.71065
1058.59375	-0.75314	5.73835	0.69707	7.93640
1062.50000	-0.75089	5.33704	-2.12282	6.72988
1066.40625	7.30986	10.17384	1.90709	9.14980
1070.31250	11.34130	12.59308	3.51939	11.97256
1074.21875	10.13472	11.78887	1.50535	5.12506
1078.12500	11.74869	12.59635	3.11769	4.72445
1082.03125	13.36259	12.59797	5.13293	3.92091
1085.93750	16.18534	10.98790	5.93936	-2.52373
1089.84375	16.18758	7.76609	5.53699	-2.52146
1093.75000	8.53415	8.17063	6.34344	2.71888
1097.65625	6.92469	8.17225	7.14997	3.92989
1101.56250	6.12103	4.54755	7.55347	-1.70886
1105.46875	7.33210	4.14622	5.13655	3.53142
1109.37500	11.76653	6.56545	3.92839	8.77179
1113.28125	7.73940	5.35828	7.15248	3.53602
1117.18750	4.51818	4.15111	6.75015	-0.08798
1121.09375	4.11742	5.76452	3.12444	2.33201
1125.00000	3.71667	4.96024	3.93096	5.15488
1128.90625	8.15103	5.36482	5.54330	0.72494
1132.81250	13.79425	5.36646	5.54392	0.72728
1136.71875	7.75244	1.33883	5.14166	-2.89667
1140.62500	4.93412	1.74343	4.73934	-1.28255
1144.53125	16.21840	4.96847	6.75462	5.56973
1148.43750	13.40012	3.35844	6.35230	5.57219
1152.34375	2.52332	3.36009	3.93541	8.79806
1156.25000	0.10806	3.76469	5.54775	13.23279
1160.15625	1.31917	2.15459	5.14549	14.04110
1164.06250	3.33607	2.15628	4.74315	1.14975
1167.96875	5.35300	3.76973	3.13208	-3.68313
1171.87500	2.53480	4.57725	2.32681	-1.26317
1175.78125	-1.49220	3.37013	4.74505	1.55970
1179.68750	-0.28111	3.77475	7.96914	12.44124
1183.59375	2.54166	1.76177	9.17858	10.02601
1187.50000	0.12629	-1.05711	6.35868	-0.44788
1191.40625	-0.27437	-3.07009	5.95643	-1.25145
1195.31250	5.77180	-4.27720	6.76287	2.78013
1199.21875	2.95343	1.76850	3.13711	-1.24688
1203.12500	0.94101	6.60531	1.52596	-3.25921
1207.03125	3.76380	6.20397	1.12362	4.80173
1210.93750	4.97480	4.99678	0.72133	9.63924
1214.84375	4.57405	5.40138	1.93076	1.58289
1218.75000	0.54697	5.00005	1.52843	0.37655
1222.65625	1.75806	1.37533	-0.08265	8.43754
1226.56250	9.41607	1.37696	0.32086	4.81356
1230.46875	8.61257	5.00496	2.33612	0.38382
1234.37500	-2.66718	4.20078	5.96315	0.38623
1238.28125	-6.29129	1.38192	4.75499	4.82083
1242.18750	1.36675	3.39819	1.93514	4.42036
1246.09375	7.01018	5.81744	4.35331	6.03447
1250.00000	7.81837	7.02783	3.95104	10.06620
1253.90625	13.86461	5.01484	3.95167	9.26280
1257.81250	18.29915	5.82239	4.35519	4.02713
1261.71875	9.03403	7.03277	3.14708	-3.22319
1265.62500	0.97761	4.21395	3.55060	-3.22074
1269.53125	2.59160	1.39514	3.55125	-5.63591
1273.43750	5.41434	3.41144	2.74607	-10.06569
1277.34375	4.61074	4.21892	3.14969	-5.22813
1281.25000	1.79247	4.62353	3.55323	-2.40523
1285.15625	0.18298	6.23691	3.15099	-5.62627
1289.06250	0.18527	4.22397	1.53987	-3.60922
1292.96875	0.59054	3.41981	0.73469	1.63129
1296.87500	9.05445	2.61565	2.75002	1.63374
1300.78125	6.23628	0.60271	3.55655	-1.58715
1304.68750	-3.43167	2.61906	1.54258	-6.01693
1308.59375	1.00285	3.42660	1.94620	-7.22329
1312.50000	2.21397	4.63709	0.73806	-2.78858
1316.40625	0.20163	4.63881	-2.08177	-3.59202
1320.31250	4.23326	3.02878	0.73939	-2.78362
1324.21875	7.45907	5.85105	2.75472	0.44230
1328.12500	7.05856	5.04687	3.56126	3.26526
1332.03125	3.03160	4.24272	5.57659	9.31170
1335.93750	4.24280	3.03562	0.33916	0.44980
1339.84375	8.27449	0.61980	-2.48066	-3.17407
1343.75000	11.50028	4.65083	-1.27117	0.85769
1347.65625	11.50263	6.66721	-0.86759	-0.75154
1351.56250	6.66980	5.05717	2.75951	4.08605
1355.46875	4.25447	3.44717	5.98365	13.35589
1359.37500	5.46558	2.24007	3.16384	10.53786
1363.28125	6.27373	3.04763	3.97038	6.91389
1367.18750	2.64965	3.85525	7.59740	5.30462
1371.09375	2.24888	2.64817	5.58344	2.88938
1375.00000	7.48922	0.63526	4.37531	4.10053
1378.90625	5.47691	-0.16890	4.37599	11.35566
1382.81250	1.85289	-0.97299	5.58547	18.61083
1386.71875	2.25809	-1.37413	4.78027	9.34588
1390.62500	5.48391	-1.77533	5.98974	-0.72487
1394.53125	6.29211	-1.37060	8.81095	5.72448
1398.43750	3.87684	-1.36883	8.81163	8.54739
1402.34375	4.68494	-2.97884	9.61817	5.32637
1406.25000	4.68724	-3.37999	9.21598	4.92581
1410.15625	-0.95144	-2.97539	7.60491	8.15167
1414.06250	4.69197	-3.37659	7.20270	10.57171
1417.96875	14.36463	-1.36022	6.39751	8.55954
1421.87500	6.30835	-1.76145	8.41287	4.53272
1425.78125	-4.56836	-3.37142	6.39890	-3.92641
1429.68750	-4.96899	-1.35505	6.80253	-4.72981
1433.59375	1.88311	-0.14458	6.80324	1.31660
1437.50000	3.49712	0.66305	5.19225	1.72191
1441.40625	1.08193	1.47067	3.98416	2.93307
1445.31250	0.68137	4.29294	1.97022	9.78529
1449.21875	2.69828	4.69767	0.76213	7.77302
1453.12500	3.90933	3.89359	0.76286	-1.89489
1457.03125	4.71745	4.70118	1.97238	-6.72751
1460.93750	1.89920	2.68829	1.57018	-6.72509
1464.84375	-4.94841	1.07829	1.57093	-7.93150
1468.75000	1.09784	-0.12874	3.58629	-1.48217
1472.65625	5.12952	-0.12697	3.18411	4.56424
1476.56250	-2.92680	-0.12520	2.78191	6.98429
1480.46875	-5.34205	-0.52632	1.97679	3.76326
1484.37500	-4.93688	-0.12165	-0.44008	1.75102
1488.28125	-2.51693	-0.52277	0.76950	9.81211
1492.18750	1.11176	1.09068	2.38199	8.20280
1496.09375	0.71125	1.49537	5.20334	5.78770
1500.00000	-0.89809	0.28831	5.20410	2.16372
1503.90625	0.31306	-0.91873	4.80195	-0.65435
1507.81250	5.55346	-1.31987	4.80277	2.16859
1511.71875	6.76458	-0.10939	1.58011	7.00621
1515.62500	7.16986	-0.51057	2.38674	6.20281
1519.53125	9.58970	-0.10596	2.38752	0.96718
1523.43750	10.80080	0.70165	1.58248	4.59607
1527.34375	9.99724	1.91216	4.00088	6.21024
1531.25000	7.17906	1.51092	5.21047	5.00388
1535.15625	12.41948	1.51266	3.19660	7.42393
1539.06250	11.61587	2.72321	0.37681	5.41178
1542.96875	1.94786	2.32205	1.58638	-5.86774
1546.87500	-6.91431	3.12970	3.60176	-9.49166
1550.78125	-6.91195	4.34026	5.21426	-5.05689
1554.68750	-4.89491	3.13321	7.63255	1.39250
1558.59375	-6.10134	3.94088	6.02156	3.40958
1562.50000	-1.66675	5.15139	4.81348	-0.21435
1566.40625	-0.45557	5.15315	4.41123	-2.62941
1570.31250	-6.09424	6.36371	2.39731	-5.85038
1574.21875	-2.06258	5.96255	2.80100	-2.62443
1578.12500	1.16315	3.54670	4.41341	4.22782
1582.03125	-7.69881	2.33969	4.41413	3.82735
1585.93750	-5.27875	0.72979	4.01199	3.82985
1589.84375	-2.05286	-0.47721	6.43029	7.45874
1593.75000	-4.87099	-0.47541	4.01348	5.44656
1597.65625	-4.86857	-2.08538	4.01421	5.85199
1601.56250	-11.31306	-3.29236	6.02962	8.27207
1605.46875	-10.10189	-3.69354	2.80691	-0.58983
1609.37500	-7.27904	-5.30345	2.40470	-7.03424
1613.28125	-4.05340	-6.51050	0.79375	-7.43472
1617.18750	7.63387	-4.09122	0.39154	-1.79118
1621.09375	6.42741	0.34279	1.19816	3.04647
1625.00000	1.59464	2.76219	1.60189	3.04894
1628.90625	5.62628	2.36103	2.40851	2.24549
1632.81250	4.41985	0.34818	1.60342	1.44208
1636.71875	-2.02457	-2.47054	2.81298	6.27976
1640.62500	3.21586	-4.88640	4.82843	8.69987
1644.53125	11.27693	-5.69046	6.84387	4.67296
1648.43750	7.24998	-1.25641	5.23294	3.86935
1652.34375	11.28149	1.56588	3.21905	5.48339
1656.25000	8.86608	0.35888	4.02568	4.27695
1660.15625	-2.01076	-0.44517	1.60887	1.86171
1664.06250	-2.81444	1.57127	-0.00201	-0.95642
1667.96875	0.00837	1.57308	2.41632	-1.75987
1671.87500	1.21937	0.36611	2.41710	2.67474
1675.78125	-0.39008	-0.43793	2.41789	7.91517
1679.68750	-2.80538	-2.04787	4.03045	0.26186
1683.59375	-1.59423	-0.83724	6.04592	-0.54157
1687.50000	-1.18895	1.17920	2.01743	-0.13627
1691.40625	0.02221	1.98687	-0.80232	-5.77487
1695.31250	5.26267	1.98862	0.40727	-8.19007
1699.21875	13.32357	2.79625	-4.02411	-5.77002
1703.12500	8.08780	1.99219	-5.63506	-4.15585
1707.03125	-7.22119	-0.02077	-2.81378	0.27888
1710.93750	-8.83062	1.18979	-1.60417	1.89310
1714.84375	-2.78433	1.19155	-1.20038	-2.13362
1718.75000	1.65029	0.79041	0.00925	-4.95156
1722.65625	-3.98845	2.40383	1.62178	-7.36660
1726.56250	-12.04471	-1.22079	0.41384	-7.76692
1730.46875	-10.02760	-1.62200	-2.00281	-13.00242
1734.37500	-5.59286	-2.02319	-3.21075	-15.41738
1738.28125	-7.20210	-1.61848	-4.82163	-12.59424
1742.18750	-10.42312	0.39790	-7.23831	-13.80035
1746.09375	-4.37680	-1.61503	-5.22282	-10.17136
1750.00000	-0.74810	0.40137	-2.40147	-5.73648
1753.90625	-2.35742	1.61194	-1.59476	-6.13685
1757.81250	-1.95204	-1.60976	-0.78804	-3.31374
1761.71875	-3.96430	-2.81679	0.01872	0.71823
1765.62500	-8.39400	-2.41205	-0.38339	2.73542
1769.53125	-13.22671	-2.00741	0.02043	3.94667
1773.43750	-10.40369	-2.40857	-1.18752	-1.69177
1777.34375	-2.74570	-2.80980	-1.58964	-2.49504
1781.25000	2.89771	-4.82269	-2.39464	-2.08950
1785.15625	1.28845	-5.62674	-6.02018	-3.29569
1789.06250	-12.00568	-4.41614	-7.22808	-4.09898
1792.96875	-11.19735	-1.19088	-3.19796	-4.90225
1796.87500	-3.53922	-0.78620	0.42923	-0.87039
1800.78125	-3.13385	-2.39611	1.63885	1.14677
1804.68750	-7.96664	-4.00608	1.23674	-2.88001
1808.59375	-11.18764	-7.63065	-0.77708	-5.29511
1812.50000	-5.94708	-6.82303	-1.58213	-6.90432
1816.40625	-0.30359	-4.00078	-1.58133	-6.09598
1820.31250	-3.12171	-5.20776	-1.58051	-0.85537
1824.21875	-6.74574	-6.81777	-0.77383	-2.06163
1828.12500	-3.51984	-4.80138	-0.77298	-7.70011
1832.03125	-0.69687	-3.18786	-1.17501	-4.87708
1835.93750	-1.50026	-3.58906	1.24338	0.76654
1839.84375	0.11397	-3.58730	1.64719	-0.03679
1843.75000	-3.10700	-3.58551	-0.36664	-1.64590
1847.65625	-5.92514	-3.18075	0.03714	-4.06093
1851.56250	0.12128	-3.98489	2.85850	-7.68470
1855.46875	2.94421	-1.96848	2.45642	-12.51729
1859.37500	-3.50022	0.85384	-0.36322	-11.70869
1863.28125	-3.90069	2.06441	-1.97403	-7.67673
1867.18750	0.93700	4.08080	-2.77908	-6.46531
1871.09375	6.58048	4.08254	-1.97233	-6.05977
1875.00000	2.55366	1.66670	0.04318	-7.66882
1878.90625	-3.08488	-1.15206	-1.16473	-6.05438
1882.81250	6.58787	-3.97085	-1.56679	-4.84280
1886.71875	6.18747	-4.77494	-1.96879	-8.86938
1890.62500	-8.71845	-3.16143	-3.57968	-9.67251
1894.53125	-12.34228	-3.56264	-3.17586	-1.61120
1898.43750	-9.51927	-6.38137	-1.56328	2.42072
1902.34375	-7.50212	-5.97670	-1.15948	-4.42651
1906.25000	-10.72318	-3.96028	-1.56162	-8.05035
1910.15625	-16.76480	-3.95849	-0.75495	-5.22729
1914.06250	-13.13609	-7.18016	-1.15703	-7.23945
1917.96875	-7.08968	-8.38712	-0.75330	-10.05747
1921.87500	-12.72828	-5.96780	-1.15534	-6.42853
1925.78125	-11.11413	-5.96602	-4.37794	-1.99380
1929.68750	-8.29110	-7.57595	-2.36243	0.02345
1933.59375	-11.91505	-7.17129	0.05603	-0.77976
1937.50000	-9.89796	-5.96071	-0.34607	2.44630
1941.40625	-4.65737	-4.75016	-0.74816	4.06062
1945.31250	-1.02853	-1.92791	-1.55313	-1.17481
1949.21875	-2.23497	-1.12025	-3.96978	-6.41031
1953.12500	-1.42669	-2.73025	-5.17771	-1.57257
1957.03125	0.99333	-2.72850	-1.95339	-1.57006
1960.93750	-1.42191	-1.92091	0.06211	-2.77633
1964.84375	-3.03111	-2.72500	-0.74295	3.67321
1968.75000	-2.22263	-2.32029	0.06380	0.04955
1972.65625	-0.60831	-0.70689	0.46745	-4.78285
1976.56250	3.82665	1.71246	-1.54638	-5.98882
1980.46875	6.64998	4.13190	-3.96304	-8.00048
1984.37500	7.05576	4.53658	-3.55932	-4.77409
1988.28125	5.04399	2.12081	-1.94672	-5.17408
1992.18750	11.49383	2.52553	-3.55758	-10.00617
1996.09375	8.67629	2.52735	-3.15374	-9.19722
2000.00000	0.21783	-0.29135	0.87642	-5.97066
2003.90625	2.63829	0.51629	2.08607	0.88224
2007.81250	-2.19399	-2.30239	1.28103	5.72036
2011.71875	-9.44390	-5.52402	0.47607	0.08222
2015.62500	-14.27626	-3.91053	0.87989	-0.31775
2019.53125	-14.27353	-3.50581	3.29837	0.49099
2023.43750	-11.85332	-4.30987	4.50800	-0.71493
2027.34375	-13.46232	-5.51688	4.10600	-1.92088
2031.25000	-13.45964	-8.73854	2.09226	-7.55903
2035.15625	-5.39836	-6.31913	0.88436	-1.91516
2039.06250	1.05123	-1.07923	0.48229	4.93755
2042.96875	-1.36369	-0.27158	-0.32268	1.71695
2046.87500	-3.77864	-1.07563	0.88700	4.13728
2050.78125	-5.38772	-1.47679	3.70837	2.52835
2054.68750	-4.98220	-3.08669	2.90339	0.11348
2058.59375	-4.17380	-2.27905	0.88959	-3.10728
2062.50000	-7.79765	-4.29193	-2.33300	-11.96899
2066.40625	-5.37752	-7.51364	-2.33214	-9.14581
2070.31250	-4.16616	-4.28844	-0.31665	-7.93437
2074.21875	-6.17825	-2.67498	1.29589	-9.14052
2078.12500	-4.96690	-3.07611	2.10266	-3.49684
2082.03125	-7.78485	-2.26848	1.70058	-5.91180
2085.93750	-5.76762	-3.47547	3.71613	2.55245
2089.84375	-2.13870	-1.05610	3.71703	9.80788
2093.75000	-1.33032	1.76616	2.10623	3.76662
2097.65625	-0.92485	-1.85845	3.71883	-0.26000
2101.56250	-3.74290	-4.67714	4.92852	0.14560
2105.46875	-2.93446	-5.07821	2.10891	2.96890
2109.37500	-3.33487	-4.27055	-0.71072	-4.28111
2113.28125	-10.18214	-5.07460	-0.30685	-12.73991
2117.18750	-10.98552	-5.47574	1.30572	-11.12550
2121.09375	-7.75956	-4.66806	-2.31975	-8.30235
2125.00000	-5.74241	-5.06914	-1.51300	-7.49380
2128.90625	-12.58967	-7.08204	0.09966	-4.67060
2132.81250	-15.00469	-5.06553	1.30931	-3.05618
2136.71875	-8.15224	-3.85498	2.11613	-5.47100
2140.62500	1.52063	-3.45022	1.31115	-5.46828
2144.53125	4.74661	-2.64260	0.90917	-1.03333
2148.43750	0.71986	-3.84961	0.91008	0.17808
2152.34375	2.33420	-3.84781	-0.29781	-3.44562
2156.25000	1.12800	-2.63722	0.50897	-1.83122
2160.15625	-5.31631	-1.82957	1.71869	0.18619
2164.06250	-3.29907	-1.02187	1.71962	-1.82575
2167.96875	1.13576	-2.22889	3.33232	-0.21128
2171.87500	-0.07049	-3.43589	4.13911	3.01490
2175.78125	3.15550	-0.21064	2.52824	-2.62348
2179.68750	6.38152	3.82042	2.52913	-1.00903
2183.59375	6.38408	0.59875	2.53004	0.60539
2187.50000	6.38662	-1.01116	-1.90125	-7.45054
2191.40625	0.74817	0.60235	-1.49749	-4.22444
2195.31250	-6.90489	-2.61928	-2.70541	-2.20712
2199.21875	-10.12577	-3.82627	-3.51037	-6.63668
2203.12500	-10.92909	-1.40684	-3.91238	-2.60465
2207.03125	-10.92650	-1.40500	-4.31443	-2.19893
2210.93750	-12.13263	-1.40318	-1.89592	-7.43428
2214.84375	-6.48904	-1.80430	-3.50677	-12.66963
2218.75000	-2.05415	-3.81713	-3.50586	-14.68150
2222.65625	-8.90142	-3.41237	-2.69909	-17.49934
2226.56250	-8.89884	-0.18714	-1.89227	-18.30250
2230.46875	-6.47866	-3.00586	-3.90600	-16.28515
2234.37500	-5.67027	-3.40704	-6.32266	-9.83555
2238.28125	-2.04136	-1.39061	-4.71003	-1.37132
2242.18750	8.84024	-0.18002	-2.29147	-1.77158
2246.09375	8.84283	-4.61044	-3.90222	-2.17180
2250.00000	-0.01900	-5.81740	-4.30422	1.45727
2253.90625	-0.82225	-0.57748	-4.30326	1.86297
2257.81250	-0.01382	0.23017	-4.30232	-2.56656
2261.71875	1.60038	2.24668	-0.27208	-0.54915
2265.62500	1.19994	3.45722	0.93767	4.69170
2269.53125	-0.00637	1.44436	-1.07601	2.67980
2273.43750	-1.61556	0.64030	1.34252	-3.36144
2277.34375	0.40158	-0.16376	3.35821	-5.77637
2281.25000	1.20998	-0.16198	3.35918	-3.75901
2285.15625	1.21258	-1.36902	0.53961	0.27301
2289.06250	0.40932	-1.36727	-1.87694	-0.12717
2292.96875	-5.22912	0.64914	-1.87596	-0.93034
2296.87500	-6.83818	1.05387	-1.87499	1.48986
2300.78125	-2.00047	-0.15317	-0.26233	5.52184
2304.68750	-8.84788	-2.16608	2.96208	6.33048
2308.59375	-15.69523	-4.17898	3.36598	4.72142
2312.50000	-9.24586	-4.98305	2.56103	-0.51405
2316.40625	-2.39362	-4.17544	1.35318	-10.98760
2320.31250	-2.39119	-5.78544	0.95125	-12.19376
2324.21875	-6.41797	-4.17191	1.75805	-6.14710
2328.12500	-5.60956	-1.75258	0.55020	1.10833
2332.03125	-4.39823	-1.75077	-0.25471	0.30509
2335.93750	1.64825	-0.13719	-1.86545	-2.91570
2339.84375	11.32115	2.68512	-3.07327	0.31043
2343.75000	10.11491	2.28401	-3.07229	0.31316
2347.65625	5.28237	0.27107	-4.28014	3.13645
2351.56250	3.67328	0.27286	-3.07041	10.39190
2355.46875	4.07891	-0.93408	-1.05482	8.78281
2359.37500	0.85812	-1.73818	0.96077	-0.07895
2363.28125	-2.36268	-2.94512	1.76759	-8.53779
2367.18750	-1.95706	-2.54043	0.55974	-12.16146
2371.09375	-6.78957	-2.53861	-1.05100	-9.74106
2375.00000	-10.41337	-6.96905	-1.05003	-12.55875
2378.90625	-7.18736	-6.56430	-1.85492	-15.37653
2382.81250	-10.81123	-3.33902	-3.86861	-10.13567
2386.71875	-14.43499	-5.35185	-3.46474	-10.53584
2390.62500	-10.80607	-4.94710	-0.64325	-10.93606
2394.53125	-4.35658	-2.52778	2.98415	-4.08346
2398.43750	-3.54810	-2.12304	2.98513	-5.69249
2402.34375	-7.97771	-4.13591	0.16563	-4.07806
2406.25000	-6.36348	-4.13415	-2.65392	-1.65784
2410.15625	-9.98726	-3.32654	-3.05581	-4.87859
2414.06250	-12.40231	-4.93645	-1.04016	-7.69639
2417.96875	-9.57924	-2.11418	-1.03917	-11.32002
2421.87500	-6.35324	1.51393	-2.64992	-9.70562
2425.78125	-4.73898	0.70985	-1.44012	-4.46482
2429.68750	-5.54237	-1.70598	-2.24501	-3.25338
2433.59375	-5.53984	1.51919	-7.07917	-13.72693
2437.50000	-6.74610	-0.89662	-7.07818	-16.94772
2441.40625	-9.96702	-4.52129	-4.65964	-16.94501
2445.31250	-8.75565	-3.31073	-4.25569	-16.13639
2449.21875	-3.51497	-4.51775	-3.44884	-9.28378
2453.12500	2.93449	-5.32184	-1.83606	-10.89278
2457.03125	0.11658	-3.30544	-1.02918	-9.68121
2460.93750	-7.93939	-1.28900	-2.23697	-2.02277
2464.84375	-8.74267	-1.69016	-0.62429	1.60631
2468.75000	-3.50194	-0.07662	3.40604	5.63836
2472.65625	2.14176	3.55149	3.00407	6.84995
2476.56250	2.95024	2.74743	-0.62136	3.22640
2480.46875	2.14703	1.13752	-1.02327	4.43790
2484.37500	8.19364	-0.06952	0.99236	10.88751
2488.28125	8.59922	-0.87359	0.59042	12.50193
2492.18750	2.55789	1.14282	-1.02023	6.46073
2496.09375	-1.46884	1.54746	-3.43681	0.82243
2500.00000	-4.28684	1.14633	-5.85340	-8.03928
2503.90625	-8.31352	-1.67244	-5.44942	-8.43935
2507.81250	-13.54897	-1.67066	-0.61326	-4.00431
2511.71875	-13.14339	-3.28058	0.59655	-4.40452
2515.62500	-9.51447	-6.09930	-2.62588	-4.80472
2519.53125	-11.12358	-1.66532	-5.04239	-3.59312
2523.43750	-13.13566	-1.26058	-5.84727	-1.57572
2527.34375	-11.52143	-4.88509	-6.24914	-6.00520
2531.25000	-10.71302	-5.28621	-6.65106	-10.43475
2535.15625	-7.48698	-5.68736	-6.65003	-9.22328
2539.06250	2.58886	-6.08847	-5.44023	-10.02649
2542.96875	4.60609	-4.47499	-4.63340	-11.63547
2546.87500	-6.27040	-5.27905	-5.03531	-6.39470
2550.78125	-9.08823	-6.48606	-6.24313	-5.98906
2554.68750	-8.27968	-2.85786	-6.24215	-12.83620
2558.59375	-9.88869	0.36732	-8.65877	-16.86280
2562.50000	-9.08019	-0.43674	-7.44897	-22.50115
2566.40625	-5.04826	-1.24079	-3.82152	-14.84278
2570.31250	-3.43396	-3.65658	-3.41759	-4.36385
2574.21875	1.40382	-6.07229	-3.81942	-7.58450
2578.12500	1.40638	-6.47343	-3.41545	-8.38761
2582.03125	-8.66448	-7.68039	-2.20559	-3.54976
2585.93750	-15.91491	-5.66390	-1.39871	1.28809
2589.84375	-12.28608	-3.24449	-0.59183	6.52888
2593.75000	-8.25431	-3.24271	-0.18783	1.29346
2597.65625	-2.61084	-2.43509	-0.58975	-4.34500
2601.56250	1.82382	-4.44799	-2.20041	-2.73071
2605.46875	-3.41176	-6.86380	-4.21406	-9.17489
2609.37500	-5.02093	-4.84728	-7.03356	-7.56051
2613.28125	-7.03301	-2.83086	-7.43551	0.90374
2617.18750	-11.46268	-3.23205	-4.21102	-1.51115
2621.09375	-8.23664	-2.42442	-1.38949	-9.56707
2625.00000	-4.60767	-3.22850	-2.19427	-9.56440
2628.90625	-3.79934	-2.82377	-0.98440	-5.93535
2632.81250	-6.21447	-1.21032	-2.99799	-5.52985
2636.71875	-7.42075	-3.22320	-4.60870	-3.51259
2640.62500	-9.02989	-4.02726	-2.59303	-5.12162
2644.53125	-3.78928	-2.41377	-5.00955	-5.92476
2648.43750	3.46599	1.21444	-3.79971	-1.48981
2652.34375	1.85676	2.02210	-0.17234	2.94520
2656.25000	-0.15533	2.82975	0.63456	0.53036
2660.15625	-2.16733	4.04036	-0.17024	-2.28743
2664.06250	-4.58219	0.81873	-1.37800	-4.70234
2667.96875	-1.35609	-1.19413	-0.97400	-11.54944
2671.87500	-6.59158	0.01646	-2.58470	-15.17313
2675.78125	-8.20077	3.24171	-4.19535	-16.78208
2679.68750	-0.54252	3.24349	-2.17968	-10.33249
2683.59375	-6.18105	1.63351	-3.79035	-0.65953
2687.50000	-6.17855	0.02360	-2.17762	2.96940
2691.40625	-6.57896	-0.37758	0.64390	0.55442
2695.31250	-7.78529	-1.18165	-1.77260	-2.66638
2699.21875	-5.36528	-1.17985	-2.57745	1.76855
2703.12500	-6.57153	-3.59567	-0.96461	2.57707
2707.03125	-5.76317	-7.62319	-0.56063	-4.27006
2710.93750	-7.37230	-7.21843	-2.97711	-8.69962
2714.84375	-2.93737	-2.78436	-2.17020	-8.69689
2718.75000	-3.33768	-3.99136	-4.58672	-13.12636
2722.65625	-8.17023	-7.61598	-7.00321	-15.94421
2726.56250	-8.97350	-8.42003	-5.79344	-7.07705
2730.46875	-9.37383	-6.80653	-4.98651	-3.85097
2734.37500	-10.98286	-5.59593	-4.58260	-7.47471
2738.28125	-16.21835	-6.39996	-6.19329	-6.26320
2742.18750	-12.58945	-6.39815	-5.38644	-7.06635
2746.09375	-10.16931	-5.18754	-4.57958	-6.66079
2750.00000	-14.19607	-6.79749	-3.77264	-8.26982
2753.90625	-12.98472	-5.98980	-3.36869	-11.89353
2757.81250	-10.56464	-4.77920	-5.78524	-10.68200
2761.71875	-3.30937	-3.97155	-5.78420	-9.06757
2765.62500	-1.29210	-0.74629	-7.79781	-7.05027
2769.53125	0.32221	0.86722	-9.00551	-6.24168
2773.43750	8.38340	-0.74268	-6.98984	-7.44772
2777.34375	5.56553	-1.14385	-7.39176	-2.60985
2781.25000	5.97116	-3.55969	-7.79367	-0.18948
2785.15625	8.79433	-5.97548	-6.18086	-7.03648
2789.06250	2.35007	-3.95908	-4.56812	-8.24245
2792.96875	-2.88541	-2.74855	-6.17878	-7.43381
2796.87500	-3.28577	-3.14977	-4.16310	-4.20764
2800.78125	-5.70078	-4.35683	-2.14742	0.22734
2804.68750	-8.51883	-5.56389	-3.35522	2.24472
2808.59375	-6.90449	-4.75622	-2.14540	-2.18481
2812.50000	1.96255	-3.54569	-1.33851	-7.42019
2816.40625	6.39742	-2.33510	-2.94915	-5.40283
2820.31250	1.96789	-1.93036	-3.75395	-4.19123
2824.21875	0.76187	-3.54032	-1.73825	-0.56201
2828.12500	-2.86188	-4.34437	-2.54313	-2.17094
2832.03125	-6.08264	-5.14841	-0.93032	-0.95929
2835.93750	1.97865	-5.54953	1.48828	1.86404
2839.84375	5.20476	-5.54772	-1.73407	-6.19177
2843.75000	-8.89515	-7.96347	-2.13596	-4.17432
2847.65625	-16.14531	-8.76759	-1.32905	-0.94809
2851.56250	-16.54573	-8.76581	-0.92505	-6.18348
2855.46875	-20.57249	-8.36108	-0.11816	-10.61305
2859.37500	-18.95823	-4.73291	-3.74345	-13.83383
2863.28125	-17.34398	-3.92527	-2.13068	-13.02526
2867.18750	-15.32670	-3.11762	-2.12963	-12.21673
2871.09375	-15.32409	-0.29533	-6.15787	-15.43744
2875.00000	-15.32148	-2.30818	-8.17146	-17.44931
2878.90625	-12.90121	-6.33569	-9.37920	-16.64061
2882.81250	-4.03407	-4.72211	-9.37812	-14.62305
2886.71875	4.83310	-2.70565	-8.16823	-9.38210
2890.62500	-3.22291	-3.50977	-6.15251	-5.75289
2894.53125	-8.05541	-7.13434	-4.53974	-5.75009
2898.43750	0.00582	-9.14721	-5.74747	-4.94143
2902.34375	7.26116	-5.92197	-4.94048	-0.50636
2906.25000	5.24909	-5.11432	-2.92472	-2.92118
2910.15625	-1.59805	-7.12719	-4.13242	-7.35066
2914.06250	-2.40124	-5.91662	-4.53431	-5.33326
2917.96875	3.64529	-3.49731	-3.72736	3.93689
2921.87500	-0.78440	-6.31606	-2.11461	8.37196
2925.78125	-4.81112	-7.92597	-4.12821	-2.50441
2929.68750	-0.37622	-5.50664	-1.30667	-6.53098
2933.59375	0.83522	-5.50485	1.11198	-2.09598
2937.50000	-6.01204	-6.71188	-2.11042	1.93601
2941.40625	-5.60647	-7.11300	-1.70642	0.32702
2945.31250	-2.78336	-7.91710	-2.91417	-8.13176
2949.21875	-2.37786	-5.49782	-4.52486	-8.53198
2953.12500	-1.16654	-3.88432	-1.70324	-4.09704
2957.03125	4.47699	-3.47970	1.11831	-2.48263
2960.93750	10.52348	-2.67205	1.52228	-2.47994
2964.84375	1.25859	-2.67032	0.31462	-0.86548
2968.75000	-10.82681	-4.68326	-0.49021	-0.05685
2972.65625	-10.82429	-7.50210	-3.30963	1.96055
2976.56250	-4.77779	-6.69451	-3.71144	2.76912
2980.46875	0.05991	-7.49861	-3.30749	-0.04869
2984.37500	-0.34045	-4.67631	-3.30642	1.16279
2988.28125	-1.54669	-3.46581	-0.48486	7.20941
2992.18750	4.90281	-2.25526	-1.28963	6.80918
2996.09375	4.09951	-2.25351	-2.09440	-0.44089
