 	TP9	AF7	AF8	TP10	
-1000.00000	-10.77879	0.55782	3.71984	-8.61821
-996.09375	-12.79339	0.15455	3.71731	-2.17123
-992.18750	-5.94360	0.55703	3.31172	3.87280
-988.28125	0.10038	0.95958	2.90630	4.67875
-984.37500	6.14434	-3.07010	3.70983	6.69351
-980.46875	10.17363	-4.68221	2.90151	3.47015
-976.56250	3.32387	-3.87675	1.69035	-2.97655
-972.65625	-8.36105	-3.87716	0.88194	-7.00562
-968.75000	-7.15216	-2.26590	0.87939	-11.84064
-964.84375	-1.91396	0.55420	2.48868	-3.37898
-960.93750	-1.10802	4.18021	1.27744	3.47100
-957.03125	3.72721	2.16516	0.87206	-6.60204
-953.12500	7.35360	0.95594	2.07844	-9.01947
-949.21875	0.50392	0.14964	0.86718	-5.39289
-945.31250	-4.73415	-3.88007	-0.74701	-7.00442
-941.40625	-7.95761	-1.05995	-2.36125	-4.98959
-937.50000	-8.76347	1.76016	-1.96078	-1.76596
-933.59375	-7.95757	-0.25491	-0.75447	1.86056
-929.68750	-7.55456	0.95349	-0.75699	1.45773
-925.78125	-1.91352	4.57950	3.67273	1.86080
-921.87500	-2.71926	1.35565	3.67021	8.30789
-917.96875	-3.12211	0.14642	1.25008	4.68167
-914.06250	5.74248	2.16062	1.65049	0.65248
-910.15625	5.74257	1.75722	0.03614	-0.95905
-906.25000	4.53384	-0.25790	0.03355	-1.36176
-902.34375	4.53395	-4.28767	0.83682	2.26492
-898.43750	-3.52448	-3.88516	1.23719	2.66813
-894.53125	-9.16540	-3.88562	-2.79469	3.07135
-890.62500	-10.77697	-3.88608	-3.20019	1.05692
-886.71875	-15.20908	-1.87187	-0.38224	-4.58393
-882.81250	-22.05877	-3.88696	0.42112	-2.16610
-878.90625	-21.65586	-5.09625	1.62738	-7.00099
-875.00000	-14.80598	-5.09674	0.81892	-15.46227
-871.09375	-13.59720	-3.88840	-0.39247	-13.85031
-867.18750	-15.61181	-2.68000	-0.79798	-13.85010
-863.28125	-15.61168	-2.68037	-1.60644	-18.28214
-859.37500	-13.19386	-5.50130	-3.62370	-18.28188
-855.46875	-3.52337	-5.50169	-4.02924	-14.65524
-851.56250	1.71467	-0.66693	-1.61420	-10.62576
-847.65625	0.10288	2.15312	-0.00509	-9.41678
-843.75000	-4.32923	0.13804	-3.63405	-6.59613
-839.84375	-5.53782	-3.08586	-3.63665	-4.58130
-835.93750	-3.92601	-2.68339	-1.22172	-2.96926
-832.03125	1.31225	-2.28096	-2.43315	-4.17778
-828.12500	2.52124	-3.49023	-2.43578	2.67229
-824.21875	0.50673	-3.49074	-2.84133	9.52241
-820.31250	2.92438	-3.89414	-5.26159	4.68745
-816.40625	2.11859	-2.68581	-4.05543	7.50821
-812.50000	0.90980	-2.28337	-0.02879	6.70246
-808.59375	-4.32827	-4.70139	-0.83731	0.25577
-804.68750	-7.14872	-3.09019	-1.64583	-0.54989
-800.78125	-5.93989	-0.67308	-1.24564	-2.16134
-796.87500	-7.95450	-3.89702	-2.05420	-5.38462
-792.96875	-12.38668	-6.31512	-1.25113	-10.21959
-789.06250	-13.99833	-5.91269	-1.65674	-9.41359
-785.15625	-13.19255	-5.51036	-3.67409	-7.80179
-781.25000	-11.17792	-6.31682	-1.66220	-12.63677
-777.34375	-14.40128	-5.51149	1.55855	-10.21897
-773.43750	-10.77486	-5.51198	1.15287	-10.21881
-769.53125	-11.17776	-6.72127	-3.28216	-20.29196
-765.62500	-18.43043	-7.52758	-9.73180	-21.90351
-761.71875	-16.01280	-6.31927	-8.12278	-16.66527
-757.81250	-6.34236	-5.91682	-5.30501	-15.45628
-753.90625	0.91058	-5.91732	-5.30777	-6.99449
-750.00000	-5.13327	-4.70903	-4.10177	-0.95024
-746.09375	-5.53607	-4.30662	-2.89574	-4.97921
-742.18750	-0.29786	-3.90416	-2.89847	3.48259
-738.28125	0.50806	-2.29297	-2.09541	7.51221
-734.37500	0.10516	-1.89049	-1.29237	1.06552
-730.46875	0.50822	-2.69682	-2.50402	6.70674
-726.56250	1.71706	-1.48856	-1.70100	12.75096
-722.65625	1.71712	-0.68314	-2.10682	7.91592
-718.75000	-5.13262	-4.31007	-6.13893	-2.56009
-714.84375	-7.55006	-5.11647	-5.33586	-0.54525
-710.93750	-5.53536	-2.69940	-3.32397	5.49891
-707.03125	-5.53533	-2.69992	-4.53555	2.27559
-703.12500	-1.90896	0.52296	-2.92659	-0.94767
-699.21875	-1.90895	2.13418	1.09986	-2.55927
-695.31250	-5.93819	-0.68689	1.09695	-2.96198
-691.40625	-4.72929	-2.29919	1.09409	-6.58813
-687.50000	-4.32632	-3.10555	1.49421	-8.60258
-683.59375	-5.93796	-1.89727	-0.92628	-8.60237
-679.68750	-9.16138	-1.49495	-0.92918	-6.18464
-675.78125	-18.42875	-1.09258	-0.93204	-4.16992
-671.87500	-16.81700	-1.09310	-2.54667	-8.19908
-667.96875	-5.13195	-0.69066	-2.95245	-9.00482
-664.06250	-1.10266	-0.28830	-3.35829	-9.00469
-660.15625	-2.71439	-2.70640	-1.34659	-9.40750
-656.25000	2.52367	-1.49823	-0.54373	-13.83958
-652.34375	5.34413	1.32175	-1.35254	-19.48038
-648.43750	2.12065	1.32118	-1.75840	-13.83927
-644.53125	5.34403	0.51466	-0.95546	-9.00398
-640.62500	7.76155	0.11113	-1.76414	-10.61547
-636.71875	0.50871	0.11052	0.24758	-4.16840
-632.81250	-8.35596	-0.29305	2.25922	-2.15360
-628.90625	-13.59416	0.10931	2.25626	-4.57106
-625.00000	-15.20587	0.10874	2.25329	-7.79440
-621.09375	-15.20586	-2.30944	-0.57023	-9.00307
-617.18750	-12.38532	-3.92172	-0.57316	-7.39115
-613.28125	-11.98228	-5.93696	1.43863	-10.61440
-609.37500	-13.59401	-5.13169	0.22689	-15.44933
-605.46875	-10.77344	-1.50592	-1.79069	-19.88136
-601.56250	-9.16171	0.50816	-1.79363	-14.64302
-597.65625	-1.90893	1.71641	-1.39371	-8.19590
-593.75000	0.50876	1.71585	-0.18789	-3.76347
-589.84375	0.50886	2.11825	-0.19089	1.07196
-585.93750	-2.71454	0.50593	-2.20861	2.68381
-582.03125	-9.56441	-2.31513	-2.61471	0.66931
-578.12500	-11.17613	-3.12158	-1.81186	-7.38912
-574.21875	-7.54970	-4.33095	-2.62075	-6.98597
-570.31250	-5.93803	-5.54031	-3.42960	-4.56825
-566.40625	0.50882	-3.52629	-2.22383	-4.16519
-562.50000	2.52348	-3.12396	-4.64449	-4.56805
-558.59375	-5.93811	-7.15385	-6.66222	-4.16498
-554.68750	-2.31183	-3.12515	-5.45647	-2.15024
-550.78125	2.92615	1.70941	-0.22143	-0.94136
-546.87500	-0.29728	2.91761	-1.03035	1.87921
-542.96875	0.91139	2.51409	-2.24228	3.89399
-539.06250	7.35823	2.51347	0.57510	4.69999
-535.15625	10.17866	4.12454	-0.63677	5.10311
-531.25000	7.76105	4.12392	-1.84857	5.90917
-527.34375	4.13462	4.12330	-2.65755	-1.34334
-523.43750	2.52293	2.51099	-4.27234	-6.58125
-519.53125	-1.10345	0.49568	-5.88712	-8.59572
-515.62500	-2.71516	-0.71367	-4.68150	-8.59550
-511.71875	-3.11805	-2.32604	-3.07288	-4.96882
-507.81250	-5.93840	-2.32669	-2.67311	-6.98316
-503.90625	-4.72952	-3.53613	-1.06446	0.67275
-500.00000	-5.93831	-4.34260	2.15586	-0.93862
-496.09375	-10.37057	-1.92562	4.57028	-4.96762
-492.18750	-10.37062	-2.73211	2.55250	-0.53521
-488.28125	-1.90914	-3.53867	0.13180	1.88264
-484.37500	1.71720	-3.13636	-0.67725	7.92683
-480.46875	-5.93857	-1.12236	-2.29211	6.71826
-476.56250	-2.71521	-1.92884	-3.50411	-0.13134
-472.65625	1.71699	-5.95877	-3.50730	-3.75759
-468.75000	-3.92409	-4.75060	-1.89872	-8.99553
-464.84375	-7.55045	-1.52787	-0.69314	-10.60711
-460.93750	-12.38563	-5.96073	-1.50218	-8.99538
-457.03125	-15.20613	-5.96141	-0.69959	-9.39819
-453.12500	-14.40029	-2.33577	2.92356	-3.75710
-449.21875	-15.60913	-2.73936	2.11445	-3.75705
-445.31250	-13.59456	-1.93418	0.90239	-7.78624
-441.40625	-7.14770	-3.54657	3.31673	-2.14508
-437.50000	-0.29787	-2.33840	4.92513	-0.53330
-433.59375	-3.52135	-0.72727	3.71301	-4.56251
-429.68750	-7.14781	-1.13090	2.09802	-15.44150
-425.78125	-1.50685	-1.93744	2.09475	-17.85901
-421.87500	-0.29814	-5.16157	0.07681	-16.65010
-417.96875	-5.13345	-4.35643	-0.73243	-19.06760
-414.06250	-4.73065	-4.76005	2.48770	-18.66452
-410.15625	-5.93955	-4.76079	3.69323	-19.06735
-406.25000	-5.53669	0.87952	2.48113	-12.62035
-402.34375	-0.29867	0.87886	0.86611	-2.54700
-398.43750	-1.50755	0.07232	-0.34600	1.88536
-394.53125	0.10400	0.87741	3.67998	5.91475
-390.62500	6.55076	-0.73505	5.69134	7.92948
-386.71875	12.59461	0.47296	3.27048	3.90029
-382.81250	13.80333	0.47226	2.46125	5.51217
-378.90625	8.56517	-2.34894	3.26383	9.13866
-375.00000	3.32700	-3.96135	2.45458	9.94463
-371.09375	4.53573	-4.76790	1.24245	18.40631
-367.18750	10.98257	-3.96275	-0.37272	25.65916
-363.28125	11.78835	-0.74003	-1.18198	14.37722
-359.37500	6.95312	1.27391	-2.79715	5.91583
-355.46875	5.74423	1.67606	-1.99467	6.72181
-351.56250	2.11777	-1.14521	4.04588	5.91604
-347.65625	-6.34384	-5.57818	3.63957	3.49854
-343.75000	-3.52338	-5.17589	0.41273	-0.53064
-339.84375	-4.32940	-3.96779	0.81225	-0.53054
-335.93750	-3.52357	-2.75975	2.42050	3.09596
-332.03125	2.52027	-2.76051	3.62585	1.88725
-328.12500	4.53483	-2.35836	2.01068	5.11080
-324.21875	8.16106	-2.35910	2.00716	5.11089
-320.31250	8.96679	-4.37448	-0.41399	-0.53012
-316.40625	7.35496	-0.74882	1.19424	3.09635
-312.50000	8.16082	4.48851	3.60833	5.91697
-308.59375	2.11689	2.47309	-0.42437	9.54353
-304.68750	0.10222	0.05475	-2.03952	1.88799
-300.78125	3.32560	2.06871	-4.46063	-4.55881
-296.87500	-3.52426	2.47094	-3.65829	-3.75287
-292.96875	-7.55365	-0.35035	-3.25884	-5.36445
-289.06250	-8.35970	-1.15692	-3.66533	-1.33510
-285.15625	-13.19503	-3.17231	-1.65422	-6.97606
-281.25000	-10.37467	-3.57599	-2.06067	-6.57311
-277.34375	-3.92791	-4.38256	-2.87019	-7.37896
-273.43750	-8.76324	-6.80093	-1.66498	-14.22882
-269.53125	-9.56935	-2.77231	-0.45975	-5.76735
-265.62500	-10.37538	0.04746	-1.26915	-1.33504
-261.71875	-15.21064	-1.96793	-0.06394	-2.54379
-257.81250	-15.21079	-2.77454	-0.47047	0.27685
-253.90625	-12.39045	-2.37239	-2.89160	-0.93180
-250.00000	-9.16710	-3.17901	-4.50686	-11.40783
-246.09375	-8.36132	-7.20909	-3.70460	-18.25754
-242.18750	-1.10867	-6.40403	-0.08177	-9.79591
-238.28125	9.36740	-3.18136	1.52635	0.27747
-234.37500	7.75558	-2.37629	0.31396	-0.12540
-230.46875	-5.13830	-2.37706	-0.09253	-0.52825
-226.56250	-10.37649	-2.78079	0.70971	2.29249
-222.65625	-8.76488	-0.76698	-0.09976	0.27805
-218.75000	-7.55621	0.84392	2.31413	-5.36286
-214.84375	-6.75048	0.44016	5.13106	-11.00379
-210.93750	-8.76523	-3.18697	0.69526	-2.54210
-207.03125	-11.18290	-5.60537	-2.53175	-0.52736
-203.12500	-11.58597	-4.80026	1.09103	-6.16832
-199.21875	-5.13922	-3.99522	1.08738	1.08450
-195.31250	4.93394	-3.99603	1.08375	6.72555
-191.40625	3.32202	-2.38511	0.67716	4.71098
-187.50000	-5.54259	-4.40052	-0.93826	6.32280
-183.59375	-5.94574	-6.01300	-0.13603	2.29352
-179.68750	-1.91661	-0.77570	0.26317	-3.34750
-175.78125	-7.15483	1.23815	0.66244	-5.36209
-171.87500	-18.03403	-1.58323	-0.55003	-9.39132
-167.96875	-17.63128	-1.18110	-4.18005	-18.25578
-164.06250	-14.00501	2.04149	-2.97500	-22.28502
-160.15625	-13.60224	2.04061	-2.97870	-20.67319
-156.25000	-9.97594	2.44273	-2.98241	-15.43504
-152.34375	-6.75260	1.63599	-0.97152	-5.76472
-148.43750	-3.12640	-3.19998	0.23354	2.29400
-144.53125	1.70871	-2.39495	-1.38188	1.48817
-140.62500	-3.12659	1.23064	-1.38560	-7.77911
-136.71875	-5.14142	-1.18780	-3.40399	-6.16721
-132.81250	4.12575	0.02014	-7.03415	-5.36126
-128.90625	10.16950	0.42217	-3.81444	-6.97283
-125.00000	6.94599	-0.38454	-1.80351	3.50350
-121.09375	1.70780	-1.19127	-2.61309	3.50368
-117.18750	3.31935	-5.22146	-2.61685	-2.94302
-113.28125	6.13961	-4.41650	-1.41183	7.13036
-109.37500	3.72186	-3.20861	-1.41568	10.75687
-105.46875	0.49824	-3.20954	-2.62831	5.92189
-101.56250	-0.30778	-1.19577	-1.82622	2.29573
-97.65625	-0.71086	-1.19662	0.18469	4.71343
-93.75000	-3.93445	-3.61507	-1.43073	2.69887
-89.84375	-4.74048	-4.01881	-1.83743	-6.16556
-85.93750	2.10917	-3.61677	2.59103	-2.13629
-82.03125	12.18231	-2.81173	3.79603	-1.33044
-78.12500	6.13815	-3.61852	-1.44584	-4.15082
-74.21875	-1.11475	-5.23109	-1.85260	-6.56829
-70.31250	-2.32367	-1.60561	-0.64769	-5.35935
-66.40625	-7.15904	-0.80055	-3.47202	-2.94162
-62.50000	-8.77095	-4.02487	-5.49045	-6.16500
-58.59375	-8.36826	-2.41405	-6.70305	-6.56790
-54.68750	-11.99481	-1.60906	-6.30394	-4.95609
-50.78125	-12.39800	-3.22161	-6.30778	-11.40293
-46.87500	-10.38357	-2.41663	-4.69993	-8.58237
-42.96875	-9.57791	-2.41748	-2.28616	-5.76186
-39.06250	-1.11648	-0.40367	-1.88712	-8.98530
-35.15625	4.92741	-0.40452	-1.08515	-6.56767
-31.25000	1.30090	-4.83757	-3.50655	-10.99988
-27.34375	-5.14610	-6.85317	-5.92801	-13.82027
-23.43750	-8.36974	-3.63063	-2.70841	-9.38788
-19.53125	-7.56406	-0.00515	-0.29468	-5.76143
-15.62500	-4.74373	-1.21486	-0.70149	-7.77598
-11.71875	-4.34095	-3.23045	-0.30244	-9.38757
-7.81250	-6.35576	-2.82844	0.09648	-1.32891
-3.90625	-3.53540	-1.21765	-0.31038	5.52095
0.00000	6.94062	-1.21855	3.71499	9.14732
3.90625	5.32866	-3.63706	4.11395	9.14737
7.81250	-8.77408	-4.44382	1.28950	-1.73165
11.71875	-8.37138	-1.62422	2.09144	-9.38722
15.62500	-7.56566	-2.43095	0.87876	-3.34312
19.53125	-9.17754	-7.26699	1.27767	-4.95471
23.43750	-3.13375	-4.44743	2.88547	-1.73124
27.34375	0.49246	-1.22495	2.47857	-0.52250
31.25000	2.90982	-1.62885	0.86293	-11.40155
35.15625	1.29791	-3.64443	-1.55865	-8.17808
39.06250	-1.92577	-2.43655	-0.75679	-2.93993
42.96875	-2.32890	-1.22871	-0.35782	-2.13395
46.87500	-5.14968	-2.03555	0.44402	-3.34266
50.78125	-3.13521	-2.43945	1.24588	-3.34259
54.68750	7.34076	-2.03744	-1.17570	-3.34247
58.59375	3.31119	-2.03840	-2.38847	-5.76001
62.50000	-12.80628	-1.23355	-0.37784	-12.20676
66.40625	-14.82117	0.37712	0.02103	-8.98325
70.31250	-11.59801	-4.05605	-0.78888	-4.55092
74.21875	-5.55423	-3.65414	0.41588	-7.77427
78.12500	-7.16620	1.98594	-3.21459	-11.80348
82.03125	-5.95763	3.59668	-6.44204	-6.96824
85.93750	-1.12275	2.38699	-5.64023	-1.32720
89.84375	-7.16688	1.17723	-6.45011	-8.17695
93.75000	-6.36116	0.37038	-2.82787	-3.74468
97.65625	-0.31738	-0.43642	-0.01155	1.09065
101.56250	3.71168	-0.03444	-1.62736	5.12007
105.46875	5.32318	-3.66183	-1.63142	10.76116
109.37500	-1.12390	-4.46865	-2.84430	7.53786
113.28125	-4.34752	1.17141	-3.65422	3.91152
117.18750	2.50220	0.36454	-2.44949	-4.54993
121.09375	10.96361	-1.65107	-0.43896	-6.16145
125.00000	4.51654	-0.84616	3.58621	-1.32610
128.90625	-2.33342	-2.05597	2.37327	-2.53474
132.81250	3.30732	-1.65411	0.35449	0.28595
136.71875	3.71001	-2.86386	1.55917	-1.32573
140.62500	3.30681	-2.86485	1.15207	0.68894
144.53125	2.50077	0.76050	-0.46375	5.92705
148.43750	0.88885	-0.85218	-2.48252	-0.11687
152.34375	-0.72305	-5.68834	-3.29260	1.49487
156.25000	0.48554	-1.65999	-2.08802	3.91249
160.15625	3.30589	3.57713	-2.49512	-4.14604
164.06250	-2.33522	0.35268	-2.90226	-4.95175
167.96875	-3.94715	-0.05120	-0.48882	-2.13112
171.87500	0.08191	-0.05218	1.52167	7.53937
175.78125	6.12564	0.34973	1.51754	9.55410
179.68750	6.52841	4.37809	-1.30714	-4.14549
183.59375	-0.32158	3.16830	-2.92302	1.49554
187.50000	-1.12775	1.95851	0.29617	9.15128
191.40625	2.90127	1.55454	1.90366	2.70439
195.31250	4.10985	-0.86400	-0.51809	3.51032
199.21875	4.91558	-0.86501	-2.93998	1.49580
203.12500	4.51244	-2.07484	-3.34720	0.69006
207.03125	3.30346	-2.07592	-1.73968	6.33121
210.93750	2.90037	0.74348	-2.14689	12.77821
214.84375	-1.12903	0.74244	-4.16584	11.97240
218.75000	-4.75552	-0.46737	-3.76723	8.34613
222.65625	-3.14404	-0.06545	-0.14524	5.92860
226.56250	-2.33836	-2.88699	1.05923	-2.53286
230.46875	-5.56202	-4.49977	-0.95973	-8.97966
234.37500	-8.78569	0.33434	-0.56108	-6.15898
238.28125	-2.33904	2.75089	0.24045	0.69092
242.18750	1.28707	3.15281	-3.39028	-2.12948
246.09375	-1.93660	4.36056	-4.20047	-5.35287
250.00000	-3.54858	4.35948	-1.38431	-4.94988
253.90625	-5.56355	1.94079	-0.58273	-4.94979
257.81250	-5.96679	-0.07496	1.42760	-4.14380
261.71875	-8.38463	-4.10536	1.82616	-7.36716
265.62500	-14.42880	-3.70355	0.21010	-10.99355
269.53125	-7.98217	-2.89871	-0.19726	-5.35246
273.43750	-0.32669	-3.30272	-0.60455	-10.99343
277.34375	5.71706	1.93431	0.59988	-8.57574
281.25000	13.37245	4.35085	-0.21040	-1.72585
285.15625	5.71656	1.93216	-2.22944	-4.14344
289.06250	-2.74524	1.12520	-0.62211	-4.14337
292.96875	-1.53673	-0.08470	1.38813	-4.54623
296.87500	0.88054	0.31713	3.80125	-1.72556
300.78125	0.07450	1.92781	3.79681	7.54192
304.68750	-2.34324	-1.29674	2.98655	10.36253
308.59375	0.47701	-2.90952	4.99678	-0.11351
312.50000	4.50605	-2.91058	7.00699	-3.33685
316.40625	4.90872	0.71470	2.16740	7.54236
320.31250	4.90843	3.93707	0.14830	11.16877
324.21875	4.50522	2.72721	2.96432	2.30440
328.12500	8.53425	1.11445	0.94522	-2.12776
332.03125	11.75743	2.32218	0.94080	0.69286
335.93750	7.72791	1.11230	0.53346	6.73693
339.84375	6.11598	-1.70932	0.52898	8.34881
343.75000	10.14509	-3.32209	6.16552	10.36359
347.65625	10.14484	-2.92024	5.35525	1.90224
351.56250	3.29485	-2.51845	3.33617	-9.78253
355.46875	2.08588	-0.10195	6.15220	-11.39403
359.37500	5.30908	1.91158	5.34187	-9.37919
363.28125	3.29416	0.29871	4.93443	-9.37901
367.18750	2.48805	-0.50827	3.72117	-8.57297
371.09375	3.29363	-2.12113	1.29916	-7.36395
375.00000	-1.94482	-0.51058	0.48881	-4.14035
378.90625	-4.36277	1.50293	0.88720	3.11253
382.81250	-0.73663	0.29297	2.09149	1.09814
386.71875	5.30710	0.29179	2.89283	-2.93087
390.62500	0.87470	1.49941	4.50006	0.69569
394.53125	-4.76641	3.11002	4.49552	7.94865
398.43750	-3.96063	2.70592	3.68508	-2.52733
402.34375	-1.14024	1.89890	2.87469	-8.57104
406.25000	-2.34910	1.09189	3.67599	-6.95902
410.15625	-5.57261	0.28484	3.26853	-7.76464
414.06250	-9.19910	1.89543	1.65219	-6.55559
417.96875	-15.24318	2.29726	2.05057	-8.56999
421.87500	-12.01987	1.49025	2.04596	-2.52579
425.78125	-10.81117	-0.12258	2.44428	1.10084
429.68750	-10.00538	-0.92960	1.63372	-1.71947
433.59375	-1.14101	1.88972	0.82315	3.11585
437.50000	1.27649	3.90319	4.04191	6.33951
441.40625	3.29103	4.30498	5.64898	7.14558
445.31250	3.29089	4.30383	4.83852	7.54877
449.21875	-5.57368	1.88508	5.23691	1.10209
453.12500	-5.17094	2.68977	2.81472	-2.12118
457.03125	-2.75358	2.68859	-1.62216	1.90826
460.93750	-8.79775	0.26980	-4.04431	3.52016
464.84375	-11.21550	-1.74603	-2.43723	1.90875
468.75000	-9.60390	-1.74719	-0.83012	2.31196
472.65625	-13.23035	1.47511	-6.47586	-4.94054
476.56250	-10.41001	2.27983	-10.10689	-4.13443
480.46875	-1.94867	1.87567	-8.90286	1.90979
484.37500	-5.97818	-2.15482	-6.08698	-0.91047
488.28125	-8.39599	-4.57360	-4.47994	-2.11913
492.18750	-1.14346	-4.57473	-6.49928	-4.93954
496.09375	8.12370	-4.57589	-5.69810	2.71627
500.00000	3.69130	-2.56244	-4.89685	2.31359
503.90625	-5.17345	-3.36949	-6.11038	-8.16244
507.81250	-1.14439	-3.77364	-4.90629	-8.56526
511.71875	2.48179	1.06038	-4.10516	-4.53581
515.62500	4.49623	5.49137	-4.10991	-4.93852
519.53125	4.49604	6.69896	-1.69712	-7.35592
523.43750	2.48120	4.68313	-2.10476	-2.11760
527.34375	1.67517	3.87613	-4.93001	-6.54962
531.25000	-0.33971	3.06908	-4.12896	-7.75822
535.15625	-2.35457	-0.15560	0.70137	-1.71407
539.06250	-7.99580	-0.55975	-0.91514	-9.77257
542.96875	-6.38434	0.24490	-2.93463	-8.16066
546.87500	1.67406	0.64664	-2.13358	1.91274
550.78125	5.70308	1.45127	-2.54133	1.50992
554.68750	8.12034	-0.16166	-1.33736	1.91304
558.59375	10.94059	-4.19222	-1.74516	10.77767
562.50000	7.31390	-3.79059	-0.13822	7.95732
566.40625	2.07555	-0.16544	-2.56066	-0.10111
570.31250	6.10458	-0.56962	-9.01240	1.91369
574.21875	11.34239	-2.58552	-6.59965	11.18124
578.12500	14.96853	-3.39263	-4.18693	18.43419
582.03125	18.19170	-0.57341	-6.60942	22.06077
585.93750	18.59434	-0.57466	-10.64362	25.68723
589.84375	21.81755	-5.00808	-8.63386	28.50782
593.75000	28.66717	-6.21813	-5.41531	33.74604
597.65625	29.47276	-7.02528	-4.61437	36.16379
601.56250	28.26366	-7.02653	-3.41048	33.74628
605.46875	33.50146	-6.22186	-4.62423	29.71709
609.37500	38.73930	-5.41727	-5.43505	34.55240
613.28125	39.94790	-4.20973	-5.03706	36.56715
617.18750	33.09781	-3.80811	-4.63910	23.27051
621.09375	25.44187	-1.39181	-7.06157	12.39155
625.00000	23.82988	-1.39310	-7.87242	16.01801
628.90625	18.59158	-3.00612	-6.66855	22.06211
632.81250	13.35322	-2.20161	-5.86763	20.45048
636.71875	13.75593	-1.80000	-4.26085	19.24182
640.62500	14.15865	-3.01004	-4.26585	16.82445
644.53125	12.94958	-4.22015	-0.64452	20.45099
648.43750	9.72587	-2.60976	2.57392	23.27167
652.34375	5.69630	-3.81989	1.36011	15.21325
656.25000	8.91950	-5.83588	1.75804	14.40758
660.15625	14.15738	-5.83720	0.54421	11.99021
664.06250	7.30726	-7.85317	0.53916	2.32020
667.96875	1.26311	-7.45155	0.93709	-0.90296
671.87500	-0.75167	-2.61774	-1.48556	3.52951
675.78125	3.27749	1.81319	-1.89358	5.54450
679.68750	3.27748	1.81190	-4.31621	4.33596
683.59375	3.27748	-1.41283	-6.73892	4.73911
687.50000	9.72426	-0.20530	-5.93817	7.15697
691.40625	8.91823	-1.01243	-5.13737	11.18653
695.31250	10.12682	-3.83427	-3.12782	15.21607
699.21875	15.76773	-1.01499	-3.13289	14.41043
703.12500	17.78222	-1.41922	-1.52631	11.59013
707.03125	14.96156	-0.61470	0.48319	9.97861
710.93750	14.96141	-1.42188	-2.74542	12.39650
714.84375	20.19944	-3.43783	-2.75063	17.23195
718.75000	15.36421	0.18719	-2.75577	20.05279
722.65625	6.09677	3.00643	-3.96961	22.06778
726.56250	6.49966	1.39339	-3.16880	21.26223
730.46875	11.73774	1.39210	-4.38274	20.05382
734.37500	16.97579	3.80844	-3.98498	18.84530
738.28125	17.78149	6.22478	-3.18420	13.20451
742.18750	11.73736	7.43225	-1.98059	7.56381
746.09375	6.90205	7.83391	-0.37398	2.32606
750.00000	6.09592	4.60914	0.02383	2.72924
753.90625	7.30451	2.59314	-2.80189	7.96759
757.81250	8.91612	-0.63168	-2.80708	5.95325
761.71875	4.08076	-1.43888	-0.79761	-2.91086
765.62500	-2.76918	-0.23141	-2.01160	-4.11938
769.53125	-2.76935	-0.23279	-0.80800	2.73068
773.43750	0.05095	-1.44296	2.00732	9.58088
777.34375	0.85664	-3.05602	2.40496	5.14900
781.25000	4.07998	-4.66913	1.59388	2.32884
785.15625	5.28872	-6.28220	1.99159	5.55262
789.06250	-0.35239	-5.47772	1.18047	0.71770
792.96875	-4.78481	-4.67324	-0.83939	3.94141
796.87500	-1.15861	-6.68928	-0.03870	8.37396
800.78125	-1.96464	-11.52585	1.56774	1.92735
804.68750	-3.97949	-9.10977	1.56246	-3.31045
808.59375	-4.38266	-1.45552	-0.05451	-13.78634
812.50000	-4.78572	-1.85988	-0.05981	-17.41231
816.40625	-5.99464	0.55630	-0.46808	-17.81487
820.31250	-8.00941	3.37537	-3.29392	-23.45555
824.21875	-10.02421	2.97106	-2.89640	-19.82880
828.12500	-15.26252	1.76082	-0.88714	-20.23141
832.03125	-3.57775	-1.06113	-3.31005	-7.74023
835.93750	-0.75751	-1.06256	-7.74768	3.94508
839.84375	-12.03979	-2.67578	-6.14135	-3.71028
843.75000	-10.83115	-0.25965	-0.10270	-7.73917
847.65625	-8.41379	1.75354	-0.51099	-8.14168
851.56250	-3.17596	1.34912	-4.14275	-2.50034
855.46875	2.06193	2.95942	-0.11875	5.55867
859.37500	2.46475	4.56968	-3.34757	-2.90251
863.28125	7.70267	4.16532	-8.99402	-10.96082
867.18750	9.31417	2.14915	-5.77598	-5.31943
871.09375	8.10521	1.74470	-6.58724	5.15716
875.00000	7.70216	2.54906	-6.18974	1.93413
878.90625	14.55175	4.56223	-1.35997	-4.10945
882.81250	18.58088	5.36661	1.05209	1.12904
886.71875	9.71635	3.35048	-0.56503	8.38219
890.62500	2.46357	0.93146	-3.79387	14.82945
894.53125	4.07518	0.12407	-2.99338	7.97998
898.43750	9.31315	2.13728	0.22473	9.18916
902.34375	11.73058	2.13579	-0.98945	18.85983
906.25000	1.65714	-0.68623	2.63154	8.38392
910.15625	-17.28078	-1.09059	7.86423	-10.15053
914.06250	-9.22233	15.42810	23.17015	-3.30035
917.96875	-12.44589	21.06764	27.19401	-6.92628
921.87500	-47.90384	-1.49791	3.81865	-35.13105
925.78125	-54.35074	-3.51404	-0.21607	-40.77172
929.68750	-41.05415	4.54307	5.01653	-48.42699
933.59375	-40.65134	3.33279	0.57890	-60.11168
937.50000	-52.33636	2.92843	0.57345	-58.90257
941.40625	-53.94823	4.13574	7.41782	-51.24656
945.31250	-48.71025	1.71666	5.80068	-48.82856
949.21875	-46.29280	-0.29947	7.00403	-44.79889
953.12500	-47.90474	-1.50974	6.19266	-33.51642
957.03125	-42.66680	0.50341	3.36669	-19.81633
960.93750	-32.19070	5.33706	0.94363	-13.36897
964.84375	-25.74387	0.90343	-2.28525	-19.41242
968.75000	-22.92344	-5.54494	-0.27599	-25.85880
972.65625	-22.11756	0.49754	-1.49029	-21.42605
976.56250	-22.52054	2.91369	-1.49576	-16.59042
980.46875	-16.47656	0.09168	2.12517	-14.17233
984.37500	-19.69997	-1.11853	0.10510	-8.93378
988.28125	-27.35558	-4.34345	2.11427	-14.57429
992.18750	-24.93800	-1.92735	-1.11466	-22.22950
996.09375	-16.07352	0.48881	-7.16408	-14.17035
1000.00000	-12.44715	-1.52727	-0.31969	-5.70834
1003.90625	-11.23828	-2.33454	4.50998	-11.75174
1007.81250	-7.20895	-2.33602	3.29568	-10.54242
1011.71875	-14.05870	-1.93464	-1.54502	-8.12429
1015.62500	-15.67041	-0.32434	2.07577	-6.51208
1019.53125	-11.23814	-4.35507	4.89078	-1.67640
1023.43750	-13.25281	0.07568	1.25898	-0.46721
1027.34375	-7.20888	7.32699	0.44764	-5.70485
1031.25000	-5.19428	5.31089	2.45680	-5.70439
1035.15625	-3.58261	4.90652	2.85422	1.95184
1039.06250	4.87890	6.11386	3.65464	0.34069
1042.96875	5.28176	4.09775	5.66379	-0.06179
1046.87500	-0.35933	4.09625	5.25530	-1.27019
1050.78125	-1.56826	4.49763	5.65269	-8.52250
1054.68750	-4.38894	2.88443	3.63249	-13.35725
1058.59375	-4.79188	4.09172	0.00056	-10.13346
1062.50000	1.25203	4.09020	0.39798	-10.93899
1066.40625	-3.58321	4.49156	-2.02521	-11.34148
1070.31250	-1.16577	7.71347	-2.43371	-8.92351
1074.21875	1.25172	8.51777	-1.23046	-4.89370
1078.12500	-0.76303	4.08404	-0.43015	3.56826
1082.03125	3.26619	0.05312	-1.24164	10.82152
1085.93750	2.05728	0.45450	-5.67942	8.00155
1089.84375	7.69822	2.46759	-4.87915	-3.68293
1093.75000	3.66883	6.49533	0.35339	-11.33809
1097.65625	-10.03084	6.49380	2.36247	-13.75523
1101.56250	-11.64265	2.06009	1.55107	-10.53135
1105.46875	-8.41933	-1.16488	1.54547	-11.33678
1109.37500	-5.59889	-1.56938	1.94271	-6.50114
1113.28125	-5.19609	-2.77973	1.53416	-2.06840
1117.18750	-6.80785	-4.39296	0.31974	-4.88841
1121.09375	2.05651	-4.39450	0.71702	-0.85861
1125.00000	5.27982	-4.79902	1.51727	4.78281
1128.90625	-4.79356	-1.98008	-2.11478	3.97731
1132.81250	-5.59958	0.03306	-4.13506	-2.06628
1136.71875	-1.97347	-0.77439	-2.93188	-4.08055
1140.62500	-10.43528	-4.80528	-2.53461	-6.90069
1144.53125	-10.03261	-3.59801	-3.34613	-9.72094
1148.43750	0.04038	1.23559	-7.78400	-2.06493
1152.34375	-0.36275	0.83115	-7.78967	5.59108
1156.25000	2.86032	-0.37918	-2.96025	-2.06438
1160.15625	0.44239	2.03685	-4.57773	-0.85538
1164.06250	-7.61656	3.64694	-4.98632	1.56239
1167.96875	-5.60221	4.85416	-3.78326	1.15975
1171.87500	-3.18499	4.85258	-2.58028	2.36880
1175.78125	0.44106	3.64222	0.63746	1.56312
1179.68750	-0.36505	2.43188	-1.78580	3.98087
1183.59375	-0.36534	0.81866	-0.58273	-0.04835
1187.50000	3.66353	2.02594	1.02324	-2.86875
1191.40625	4.87193	4.03903	-1.80300	-3.67451
1195.31250	-2.38116	0.81402	-2.21174	-7.30067
1199.21875	-3.59036	-1.60514	-1.41167	-2.86822
1203.12500	-1.17328	1.21379	1.40309	5.59350
1207.03125	-3.18828	4.03280	1.39726	8.41416
1210.93750	3.25834	4.03125	1.79433	1.16163
1214.84375	2.85509	4.43256	-0.22613	-4.88206
1218.75000	-4.80082	4.02808	-1.44078	-4.07598
1222.65625	-1.57760	1.60886	-1.44661	-1.65815
1226.56250	0.43688	-2.01916	-1.04944	2.37137
1230.46875	-0.77211	-3.63244	-0.24943	3.58038
1234.37500	0.03344	-0.81354	-2.26997	-1.65740
1238.28125	-1.17569	0.79661	-1.46998	1.96918
1242.18750	2.04748	4.42134	-1.07285	10.83387
1246.09375	2.45017	5.62850	-1.48165	7.20783
1250.00000	0.03229	2.40341	-0.68157	3.58174
1253.90625	7.68775	3.20757	-2.29917	0.76157
1257.81250	16.95492	4.41463	-6.33430	-4.47613
1261.71875	9.29898	4.81587	-8.35483	-3.66989
1265.62500	-1.17742	2.79954	-5.54021	-7.29588
1269.53125	-1.98343	2.39493	-8.76950	-8.10135
1273.43750	-1.17782	4.81085	-9.17826	-4.87751
1277.34375	-1.17816	7.62965	-4.34900	-0.44496
1281.25000	-5.20777	4.40451	-3.54902	5.19649
1285.15625	-2.38744	4.40277	-1.13733	2.77928
1289.06250	-1.17889	8.02740	-1.14329	3.58548
1292.96875	0.43269	7.62269	-1.95499	6.00349
1296.87500	4.05886	8.02386	0.85967	8.42151
1300.78125	8.89393	4.39564	1.65965	7.61605
1304.68750	12.52012	5.60266	2.86257	1.16952
1308.59375	3.25257	6.40678	1.24497	-0.84481
1312.50000	1.23772	6.80801	4.46241	2.37896
1316.40625	1.64043	11.23850	5.66529	-3.26176
1320.31250	-2.79204	5.19276	-3.60804	-14.54346
1324.21875	1.23708	1.96763	-1.59934	-9.30501
1328.12500	1.23688	0.35409	0.40936	-0.84315
1332.03125	-1.58387	-0.85649	-2.82002	8.42449
1335.93750	-0.37536	-0.05242	-1.21421	13.66291
1339.84375	6.87716	1.55753	-1.22015	11.24568
1343.75000	7.68281	5.58501	-2.83781	1.97860
1347.65625	-1.98786	4.37441	-6.06713	-8.49731
1351.56250	6.47337	2.35800	-2.44676	0.36750
1355.46875	7.27895	3.96801	0.77072	3.99413
1359.37500	-2.39158	4.36913	-1.65282	-2.85538
1363.28125	4.45796	2.75564	-1.65876	0.36842
1367.18750	6.47234	3.15673	-2.06763	3.59217
1371.09375	4.45745	4.36373	-4.89419	7.21890
1375.00000	8.88949	3.15315	-7.72071	8.83092
1378.90625	8.48629	1.94263	-0.87690	10.04004
1382.81250	5.66544	3.95548	2.34043	7.62280
1386.71875	0.42696	3.14784	-2.90372	-6.07657
1390.62500	2.84417	4.35490	-1.70103	-9.29973
1394.53125	6.47028	8.38244	3.12809	-2.04676
1398.43750	2.03781	8.38068	4.33086	1.17693
1402.34375	2.44051	9.18481	2.71318	0.37138
1406.25000	6.46945	8.37711	-0.11333	8.02734
1410.15625	10.90132	3.54015	-1.73111	14.87757
1414.06250	4.45404	4.74714	-3.34883	15.28078
1417.96875	2.84194	5.55116	-0.93729	13.26642
1421.87500	2.84162	3.53468	3.89175	6.01400
1425.78125	-6.42610	1.11525	0.66223	6.41730
1429.68750	-3.60585	2.32223	-4.17899	9.23816
1433.59375	5.25825	5.54389	-3.78220	8.43263
1437.50000	6.86965	4.73626	-2.57948	5.61234
1441.40625	2.84004	3.92861	-2.18261	-2.04313
1445.31250	4.04857	2.71799	-2.18868	-2.84870
1449.21875	7.27166	2.71619	-5.41820	2.79254
1453.12500	2.83904	2.71436	-11.46825	3.59864
1457.03125	-1.99639	2.71253	-9.86269	0.37549
1460.93750	-2.80242	0.69606	-4.22778	1.18169
1464.84375	-2.80256	-2.12631	-3.02518	-4.05590
1468.75000	-4.41448	-4.14285	-3.43426	-7.27892
1472.65625	-7.63803	-4.14473	-1.02287	0.78008
1476.56250	-6.42932	0.68867	1.79145	3.19821
1480.46875	-2.80288	3.10447	-0.63233	-2.44224
1484.37500	0.01759	2.69983	-6.68241	-2.44163
1488.28125	4.85268	4.30971	-7.89740	-0.42644
1492.18750	4.04673	6.32258	-7.09771	0.78288
1496.09375	4.85256	2.69447	-6.29792	3.20106
1500.00000	9.68754	-0.53079	-2.27477	11.26023
1503.90625	4.44927	0.27325	0.53957	8.84310
1507.81250	-1.59479	0.27146	-1.07832	-1.22974
1511.71875	-1.59491	0.26967	-3.90513	2.39704
1515.62500	-1.19224	3.49130	-7.13479	1.99450
1519.53125	-2.40120	4.29533	-8.34972	-3.64610
1523.43750	0.01611	4.69648	-7.95308	-9.28675
1527.34375	2.43342	5.50053	-6.75057	-9.28645
1531.25000	4.04477	2.27526	-0.30991	-9.68914
1535.15625	4.44735	-1.75583	2.50435	-7.27130
1539.06250	0.82060	-5.78693	-3.14292	-3.24170
1542.96875	-0.79144	-3.77413	-7.17844	-8.07658
1546.87500	-2.00054	-0.14964	-3.15536	-6.86752
1550.78125	-4.41839	0.65441	-1.14685	-4.44966
1554.68750	-9.65675	1.86137	-5.58535	-5.25521
1558.59375	-10.86577	-0.15515	-7.60624	-2.83729
1562.50000	-5.62790	-2.57451	-5.59785	-4.85158
1566.40625	-4.41939	-0.56168	-0.76897	-0.41905
1570.31250	-7.24020	2.65996	0.83657	2.40187
1574.21875	-6.43472	1.44934	-1.58724	-4.85057
1578.12500	4.84702	4.26800	-3.60813	-8.07376
1582.03125	5.65247	3.46033	-6.43487	-10.89402
1585.93750	-7.24169	-3.39128	-5.63526	-11.29659
1589.84375	-12.07714	-3.39312	-2.01518	-5.25235
1593.75000	-12.07750	-0.17157	-1.21556	-4.84918
1597.65625	-7.64566	-1.38212	-3.63948	-1.22266
1601.56250	-3.61673	-2.18983	-6.86922	8.44788
1605.46875	-1.60241	-0.98282	-3.24916	5.22467
1609.37500	0.81484	0.22422	1.17681	1.59856
1613.28125	-0.39417	0.22248	-2.45582	1.19598
1617.18750	-5.22961	-0.18222	-7.70019	1.59922
1621.09375	-4.02106	-2.60151	-6.90059	-0.41511
1625.00000	2.42549	-1.39445	-3.68338	-2.42943
1628.90625	5.24560	3.03597	-4.49546	-2.83199
1632.81250	2.42472	3.43711	-4.90466	4.01809
1636.71875	0.40968	2.62947	-4.10504	10.06235
1640.62500	-0.79955	1.41889	-1.29073	11.67437
1644.53125	4.03521	-0.19466	1.12054	11.67461
1648.43750	7.66125	-1.00231	-0.90033	9.66033
1652.34375	8.46668	2.21935	-1.30946	2.00502
1656.25000	5.24284	1.41170	-2.92752	-5.24741
1660.15625	4.83956	1.81285	-3.33680	-0.41199
1664.06250	8.86844	3.42271	-3.34313	4.02054
1667.96875	10.88268	2.21208	-4.55821	2.81201
1671.87500	7.65882	-0.20735	-3.35582	-0.41119
1675.78125	-0.80314	-4.64137	-2.55629	-1.21679
1679.68750	-0.80354	-4.64320	-3.77147	2.00692
1683.59375	2.41952	-3.83919	-1.36025	4.42473
1687.50000	-4.02777	-3.84103	1.45382	5.63368
1691.40625	-11.28088	-4.64869	-0.56729	1.60452
1695.31250	-13.29593	-6.26228	-2.58840	-2.02158
1699.21875	-12.89339	-3.44352	-2.59482	-0.40968
1703.12500	-13.69974	-2.63946	-3.00417	-10.07974
1707.03125	-5.64157	-3.04419	-2.20475	-5.24434
1710.93750	6.84884	-1.43425	-5.83754	2.41162
1714.84375	6.04251	0.17560	-11.48504	-3.22916
1718.75000	4.43039	0.97960	-9.07390	-4.03478
1722.65625	-5.64332	-4.26035	-6.25988	-2.82575
1726.56250	-13.29956	-8.69439	-8.28101	-2.82556
1730.46875	-12.09124	-7.89043	-6.67574	-0.40793
1734.37500	-13.70341	-6.68351	-4.66761	-4.84009
1738.28125	-9.67463	-4.26786	-8.70346	-14.51037
1742.18750	-4.84000	-1.85217	-10.72470	-8.86929
1746.09375	-1.21421	-4.27170	-3.88135	1.60703
1750.00000	-4.43823	-3.06484	-0.66439	1.20430
1753.90625	-2.82700	0.15669	-1.47674	-0.00436
1757.81250	-2.42454	-1.45690	-1.48327	7.24848
1761.71875	-5.24563	-3.07058	-1.48983	13.29251
1765.62500	-2.42561	-3.47541	-4.31691	11.27797
1769.53125	-4.84374	-4.28325	-5.53221	5.63709
1773.43750	-4.03841	-3.47925	-3.92697	2.41378
1777.34375	-5.65055	-1.46649	-7.15694	1.20516
1781.25000	-8.87451	-2.27426	-8.77517	-1.61522
1785.15625	-6.86039	-1.87316	-6.36418	-3.22683
1789.06250	-8.47263	-2.68085	-10.40002	-4.03249
1792.96875	-6.86137	-3.89152	-12.01821	-1.61472
1796.87500	-5.25014	-0.26708	-10.01004	6.04109
1800.78125	-4.84763	-0.67185	-9.21071	4.83248
1804.68750	-3.63927	-1.07668	-5.99379	0.80343
1808.59375	-4.84851	-0.67561	0.04363	1.60957
1812.50000	-3.23725	-1.48336	1.24592	-5.64290
1816.40625	-2.02888	-0.67942	-2.38704	-17.73056
1820.31250	-0.82050	-1.89011	-1.99068	-25.38601
1824.21875	4.82012	-1.89199	-3.20605	-15.31247
1828.12500	5.22249	-1.49094	-8.04779	-4.03022
1832.03125	1.19268	-0.68701	-10.47200	-6.04466
1835.93750	4.81858	1.32573	-8.46395	-8.05912
1839.84375	6.83268	3.74143	-10.08225	-13.29703
1843.75000	1.19110	2.93362	-7.26838	-19.74378
1847.65625	4.41402	3.33465	-3.24568	-10.07333
1851.56250	10.86034	4.13856	-1.64055	-2.01458
1855.46875	8.84503	4.13659	-1.24428	2.41785
1859.37500	14.08251	4.94050	-5.68319	7.25307
1863.28125	17.70829	5.34151	-6.89861	7.65610
1867.18750	4.41099	4.13076	-7.30823	9.26796
1871.09375	-3.64819	-0.70630	-0.06216	6.44764
1875.00000	-0.02244	-0.70823	1.54284	2.01550
1878.90625	3.20037	2.91614	-5.71659	6.04483
1882.81250	1.58807	2.91417	-3.30565	2.01557
1886.71875	4.40802	2.50932	0.71696	-4.43127
1890.62500	7.22795	-0.71609	3.93368	4.83621
1894.53125	2.79512	-1.92685	4.32995	10.47739
1898.43750	-4.86111	-0.71999	1.09983	2.41893
1902.34375	-1.63825	-1.12489	0.69017	1.61319
1906.25000	-0.02712	-1.93270	1.48932	4.83678
1910.15625	0.37526	0.48290	-2.54667	-0.80414
1914.06250	4.00107	4.10725	-4.16504	-3.62464
1917.96875	1.18005	3.70240	0.26056	0.00191
1921.87500	-1.23807	4.10332	2.26854	-0.40083
1925.78125	-3.25322	6.51894	-1.36454	-4.83279
1929.68750	-6.07422	5.30819	-4.99758	-0.80324
1933.59375	-2.44835	3.29158	-5.81017	-0.40013
1937.50000	3.59505	2.88666	-8.23440	-3.62341
1941.40625	3.19160	2.88470	-3.00304	2.82372
1945.31250	-4.06160	2.47985	-0.18928	-2.01120
1949.21875	-4.46508	4.49250	-1.80768	-4.83156
1953.12500	0.77241	6.10220	-4.63494	0.40672
1957.03125	-0.03413	3.68266	-4.64166	1.61565
1960.93750	0.36810	-1.55743	-0.21616	4.03336
1964.84375	4.39674	-0.35066	-1.83462	8.86852
1968.75000	4.39614	1.66207	-1.43851	0.80994
1972.65625	-1.24547	-3.57802	-1.84821	-6.03973
1976.56250	-10.11045	-7.20642	-6.28729	-4.42786
1980.46875	-10.11100	-3.17916	-5.89121	-8.85999
1984.37500	-12.12622	0.44522	-3.48040	-2.01005
1988.28125	-14.14146	-1.97441	-3.89010	-4.42751
1992.18750	-13.33626	-3.58818	-4.70267	-9.66551
1996.09375	-10.91930	-4.79904	-4.30647	-6.44203
2000.00000	-5.27887	-5.20404	-3.50739	-7.65076
2003.90625	-4.87649	-6.41490	-6.73763	-3.62137
2007.81250	-0.84776	-5.61101	-8.35610	-1.60651
2011.71875	-3.26594	-2.38963	-7.55701	-1.20344
2015.62500	-7.69869	-4.00335	-7.16085	-5.23258
2019.53125	-6.49049	-5.61704	-3.94428	-10.87352
2023.43750	-5.28228	-2.39563	-4.75695	-2.41186
2027.34375	4.38748	2.43757	-5.97256	-0.39704
2031.25000	9.22211	2.43554	-3.15882	-4.02321
2035.15625	4.38642	3.64233	0.05781	-0.39670
2039.06250	-0.04646	4.04321	-3.57542	3.22979
2042.96875	6.39982	2.02655	-10.83498	8.46793
2046.87500	13.65197	4.44213	-8.02133	4.03579
2050.78125	14.45719	6.85764	-4.80476	-4.42567
2054.68750	15.26240	6.04974	-7.22918	-3.21679
2058.59375	9.21786	2.42134	-6.83314	-1.60490
2062.50000	1.56158	0.80753	-6.84000	-1.60479
2066.40625	4.38137	0.80549	-7.65271	-3.61941
2070.31250	9.61879	1.20641	-5.24196	-0.79872
2074.21875	8.00639	1.60732	-6.86058	11.69227
2078.12500	3.97648	2.41113	-7.67332	15.31873
2082.03125	2.76706	3.61790	-5.66556	10.08071
2085.93750	5.98987	4.42170	-4.86660	6.45444
2089.84375	3.57169	5.22551	-2.45589	1.61936
2093.75000	5.98861	2.40297	1.56653	5.24589
2097.65625	4.77926	-3.64303	-2.46965	2.02255
2101.56250	-4.08587	-4.04802	-5.29705	0.41095
2105.46875	-6.50411	-2.84126	-5.70691	-2.40948
2109.37500	-4.49012	-4.05212	-4.10214	-5.63285
2113.28125	-2.47610	-2.03950	-4.51199	-4.42399
2117.18750	-4.49156	-1.63857	-6.53359	-2.00630
2121.09375	-1.26881	-2.84939	-5.73468	9.67879
2125.00000	-4.09002	-2.04559	-7.35332	8.06710
2128.90625	-5.29955	-0.83884	-3.73391	0.81442
2132.81250	-4.09145	-0.03503	-3.33789	-4.82650
2136.71875	-7.31562	-2.05170	-11.00054	-10.06456
2140.62500	-3.68990	-1.65075	-13.82799	-4.42361
2144.53125	-6.10816	0.76479	-13.02908	-6.03534
2148.43750	-6.10881	-2.86358	-6.99207	-4.42360
2152.34375	0.74032	-4.07443	-4.17857	-2.00587
2156.25000	0.73968	-2.06185	-7.00608	-0.39400
2160.15625	0.73904	-2.06390	-7.41598	1.62079
2164.06250	5.57361	-2.06596	-7.82591	-0.79664
2167.96875	8.79640	1.55838	-7.02701	1.21811
2171.87500	4.76640	-1.26427	-5.42220	7.66508
2175.78125	2.75095	-2.47514	-8.24971	2.82993
2179.68750	3.95902	1.95507	-11.07714	-6.03443
2183.59375	1.54078	0.74421	-9.47237	-5.22856
2187.50000	-2.08630	-0.06372	-8.27064	-3.21384
2191.40625	-3.69866	-2.08044	-11.50110	-3.61675
2195.31250	1.53879	-2.08250	-7.07587	1.21845
2199.21875	2.34397	0.33302	-3.85946	2.42729
2203.12500	-8.13288	-0.87789	-3.86650	-5.22838
2207.03125	-12.16280	-3.29759	-4.67938	-8.45180
2210.93750	-6.52244	-4.50847	-8.71570	-4.01952
2214.84375	-4.10547	-2.89877	-5.49926	-4.82533
2218.75000	-3.70317	-4.10964	-5.10335	-5.22821
2222.65625	-4.91269	-6.93221	-7.93082	-6.43692
2226.56250	-14.18082	-4.51675	-7.13196	-11.27201
2230.46875	-10.15223	-4.51884	-8.75063	-10.46614
2234.37500	-0.88552	-6.93845	-9.16058	-8.85442
2238.28125	-6.12427	-4.12003	-9.16758	-9.25723
2242.18750	-13.78069	-0.89870	-12.80093	-8.85426
2246.09375	-10.55801	0.71088	-12.80793	-3.61604
2250.00000	-1.29139	-1.30586	-8.78563	-2.81003
2253.90625	-0.08341	-1.71086	-12.41907	-4.42173
2257.81250	-8.14279	-6.95105	-12.82899	-9.65975
2261.71875	-12.17285	-9.77370	-5.98620	-10.46550
2265.62500	-13.78532	-3.73181	-9.21666	-1.60095
2269.53125	-13.38303	-1.31636	-9.22367	0.81666
2273.43750	-9.75740	-1.31842	-8.42485	-4.01842
2277.34375	-5.72874	-0.11167	-10.84943	-5.63014
2281.25000	1.52336	1.09506	-7.63299	-3.61546
2285.15625	8.37247	-0.11585	-6.83415	1.62266
2289.06250	5.55126	0.68786	-7.24413	1.21980
2292.96875	-4.92565	-3.74647	-5.63942	-6.03289
2296.87500	-4.12052	-9.38967	-7.66112	-3.21236
2300.78125	-0.89777	-4.15372	-8.47409	-0.79477
2304.68750	-3.71898	1.08219	-8.48115	-3.61533
2308.59375	-6.54024	-0.53176	-8.08526	-4.82404
2312.50000	-5.33216	0.27197	-7.68938	3.23464
2316.40625	-0.09481	-2.14780	-10.11407	0.01127
2320.31250	-3.72188	-5.37343	-8.10651	-10.46484
2324.21875	-9.76660	-4.16680	-4.08429	-8.04720
2328.12500	-9.76735	-4.16900	-3.68839	-4.42086
2332.03125	-1.30661	-2.15658	-6.11306	3.23483
2335.93750	5.94531	-2.96464	-4.50844	4.04068
2339.84375	-1.30822	-4.17566	-6.12722	-9.25605
2343.75000	-4.12946	-0.95445	-8.55192	-12.88241
2347.65625	0.30205	0.65500	-4.93263	-0.39151
2351.56250	3.12179	0.65277	-4.93972	4.44368
2355.46875	5.53860	-0.55824	-4.54389	5.65249
2359.37500	11.17875	0.64837	-2.93920	2.83193
2363.28125	9.96911	1.04914	-3.75215	1.62314
2367.18750	-0.10491	1.04696	-5.37102	5.24956
2371.09375	1.90898	-1.37283	-3.76637	4.44370
2375.00000	5.53464	-3.38965	-6.19107	2.42902
2378.90625	3.11629	-0.97422	-9.01871	5.65241
2382.81250	-4.13721	-3.79693	-4.59363	2.83180
2386.71875	-9.77902	-6.21675	-3.79481	-6.43565
2390.62500	-2.52698	-2.99549	-3.80193	-3.61526
2394.53125	2.30742	-4.60948	-4.21199	2.02573
2398.43750	7.14181	-4.61170	-7.44254	2.83160
2402.34375	12.78206	-2.19628	-3.82326	8.06972
2406.25000	9.55778	-1.79552	-1.41283	6.45807
2410.15625	6.73647	0.21693	-2.62869	7.66692
2414.06250	11.57081	0.61760	-3.44170	9.68154
2417.96875	17.21101	1.01834	-3.85174	9.68145
2421.87500	15.19559	-0.99851	-5.47067	5.65205
2425.78125	6.33034	-4.62711	-4.67196	5.65201
2429.68750	9.55298	-0.59999	-1.85853	7.66666
2433.59375	16.80494	-0.19922	-1.86566	6.05490
2437.50000	15.59539	-5.84238	-1.87278	4.84608
2441.40625	11.96829	-2.21821	-3.89454	8.06952
2445.31250	10.75873	1.00306	-6.72220	15.72522
2449.21875	16.80184	-1.81960	-6.32641	15.72517
2453.12500	12.77167	-4.23938	-9.55704	7.66651
2457.03125	6.72697	-3.43571	-9.96710	0.41377
2460.93750	4.30864	-4.24372	-5.94497	0.81669
2464.84375	11.56064	-4.24593	-9.98145	8.06946
2468.75000	13.97755	-3.03932	-7.97399	11.69590
2472.65625	5.91818	-2.63863	2.09209	8.87535
2476.56250	7.93209	1.38854	2.08490	3.23433
2480.46875	12.36360	0.17754	-1.95158	5.65190
2484.37500	9.13937	-0.22761	-2.76461	13.71045
2488.28125	2.69170	-0.22980	-1.16013	9.68114
2492.18750	8.33199	-3.05247	-1.16732	10.88986
2496.09375	9.53997	-2.24879	-1.57745	11.69571
2500.00000	5.10685	-0.63927	-3.59929	6.05459
2503.90625	4.70312	-4.67073	-4.41233	9.68093
2507.81250	0.27001	-6.68757	-6.43420	8.06914
2511.71875	-6.17775	-5.07803	-9.26192	6.05445
2515.62500	-4.16391	-1.05094	-9.67207	-2.00416
2519.53125	0.26755	-1.45610	-3.63531	-5.63055
2523.43750	-4.97139	-3.47295	-1.22490	-3.21295
2527.34375	-6.18103	-3.47511	-2.03797	-10.06272
2531.25000	-13.83754	-5.49192	-1.64228	-9.25682
2535.15625	-17.46471	-6.70291	-2.05236	-8.45100
2539.06250	-12.22745	-7.51094	-0.85074	-7.24230
2542.96875	-7.39315	-5.09551	-0.85794	-3.21312
2546.87500	-1.75296	-1.87422	-0.46225	-2.81029
2550.78125	-1.35091	-0.26470	-0.46943	-4.42212
2554.68750	-5.78388	-1.47566	-4.90886	-2.40753
2558.59375	-4.97881	-1.88074	-5.31894	2.02463
2562.50000	-0.14451	0.93757	-3.71445	4.84499
2566.40625	-2.96586	-1.48222	-3.72166	1.21851
2570.31250	-2.56380	0.53023	-3.32592	1.21840
2574.21875	3.07626	0.93099	-6.55660	11.29154
2578.12500	12.74570	-1.08587	-4.95214	14.11197
2582.03125	10.73014	-2.69985	-1.33294	8.06802
2585.93750	5.89403	-3.50791	-5.36943	9.67981
2589.84375	10.72834	2.13095	-6.98839	11.29148
2593.75000	9.92157	4.14339	-4.17505	9.27671
2597.65625	5.89137	3.33535	-2.97348	3.23261
2601.56250	6.29337	4.54188	-2.98071	3.23239
2605.46875	7.90416	3.33093	-2.98792	2.42634
2609.37500	5.88864	0.91112	-0.57760	-2.40896
2613.28125	2.66432	-1.10573	-0.58484	-2.40912
2617.18750	2.26058	-3.12255	-5.42723	-4.02095
2621.09375	4.67731	-3.52773	-5.83742	-1.60337
2625.00000	5.07936	-2.32117	-5.03878	3.63466
2628.90625	2.25804	-2.72630	-8.26942	7.66398
2632.81250	-3.78675	-2.72847	-4.65033	8.46972
2636.71875	-4.99644	-0.71599	1.38636	17.73694
2640.62500	-9.83259	-2.73278	1.78206	23.37771
2644.53125	-13.86290	-5.15246	0.96891	12.90128
2648.43750	-12.25222	-2.73707	0.55863	8.87156
2652.34375	-9.43285	-2.73924	-1.06038	6.45365
2656.25000	-2.18124	-1.93551	-3.88824	-5.63466
2660.15625	0.23531	0.88280	-4.70139	-8.45553
2664.06250	-1.37749	1.28356	-3.49988	-0.80017
2667.96875	-5.00496	2.08722	-1.89547	4.03466
2671.87500	-1.78262	3.69673	0.51483	7.66073
2675.78125	-0.57487	4.09751	-1.10416	5.64578
2679.68750	-1.38184	3.28947	-3.93204	-4.02489
2683.59375	0.63173	2.48132	-5.55108	-6.44277
2687.50000	-5.81619	1.27033	-7.57307	-4.83126
2691.40625	-9.84656	-0.74661	-8.78918	-5.63743
2695.31250	-9.84756	-1.15175	-7.18482	-0.39962
2699.21875	-9.04265	-0.34816	-6.78921	2.82360
2703.12500	-4.20850	-0.75333	-9.61698	5.64395
2707.03125	-1.38902	-2.36727	-9.22136	6.44965
2710.93750	-0.98705	-1.56369	-7.61688	-1.20615
2714.84375	-0.18213	-0.35713	-9.23592	-1.20634
2718.75000	-1.79473	-1.56816	-7.22856	2.82274
2722.65625	-3.00450	0.04134	-7.23587	4.43431
2726.56250	-0.58784	0.44198	-11.27245	7.25464
2730.46875	2.23178	-1.17198	-9.26507	10.47796
2734.37500	0.61913	-1.98007	-5.24305	13.70128
2738.28125	-3.00814	-4.39991	-5.65320	3.62784
2742.18750	-3.00906	-9.23729	-6.06345	-8.46016
2746.09375	6.25742	-7.22487	-6.47366	-4.83390
2750.00000	7.06236	-3.60075	-7.28687	0.40403
2753.90625	-0.19133	-4.00587	-6.08539	3.22434
2757.81250	-0.19230	-5.61991	-5.68977	0.00068
2761.71875	-1.40205	-7.63683	-5.69710	-3.22296
2765.62500	-5.83517	-6.02735	-3.68981	0.40326
2769.53125	-8.65667	-5.22379	-2.89131	-4.43210
2773.43750	-6.24007	-4.82315	-5.31624	-4.02929
2777.34375	-3.82347	-2.40780	-3.71186	-4.02954
2781.25000	-7.85374	-4.42469	0.31005	-13.70009
2785.15625	-11.88405	-9.26210	-0.50315	-13.70018
2789.06250	-12.69090	-7.65268	-3.73395	-15.71498
2792.96875	-9.06553	-6.84908	-6.56176	-12.08875
2796.87500	-5.44017	-5.64253	-8.98667	-3.62744
2800.78125	1.81159	-1.21254	-3.75591	-4.83635
2804.68750	0.19895	-2.02063	-0.13692	-7.65707
2808.59375	-11.48695	-4.84344	-0.54716	-8.06013
2812.50000	-13.09956	-6.05446	-3.37501	-10.88092
2816.40625	-13.50344	-6.45968	-4.18828	-6.85178
2820.31250	-13.90731	-6.05900	-2.58386	-6.04607
2824.21875	-8.26713	-5.65838	-5.41176	-12.89596
2828.12500	-7.86504	-4.85483	-8.64251	-10.47829
2832.03125	-6.65715	0.38098	-8.24697	-6.44895
2835.93750	-1.01698	1.18460	-7.44845	-8.46362
2839.84375	3.01143	0.37641	-5.84405	-4.43438
2843.75000	4.21934	1.58293	-10.28368	-8.46375
2847.65625	0.59201	-0.03104	-13.11151	-2.01696
2851.56250	3.81451	-1.24212	-5.06025	13.69722
2855.46875	9.45467	-1.24440	-6.67928	2.41510
2859.37500	12.27427	-3.26132	-6.28373	-2.82310
2863.28125	11.06453	-2.45776	-4.67933	5.63830
2867.18750	7.03428	-4.87765	-3.88084	1.60877
2871.09375	3.00401	-6.08864	-1.06770	-5.24121
2875.00000	5.82354	-2.46456	-1.88092	-2.42089
2878.90625	3.80791	-1.25804	0.12638	1.20541
2882.81250	-2.23706	-1.26034	-3.10441	-0.80932
2886.71875	-7.87909	-3.68020	-7.14104	-6.04751
2890.62500	-13.52115	-6.90592	-6.74542	-2.82419
2894.53125	-10.70173	-6.50528	-7.96161	1.20490
2898.43750	-2.64414	-4.89588	-9.17778	-4.83925
2902.34375	4.60763	-5.70400	-7.57341	-5.24240
2906.25000	1.38323	-6.91508	-6.77484	0.39847
2910.15625	-7.07926	-4.49977	-5.97636	2.41293
2914.06250	-11.91546	-2.89039	-3.96910	0.39810
2917.96875	-9.90184	-2.48974	-1.55891	1.60665
2921.87500	-5.87348	-1.28321	-3.58098	6.03865
2925.78125	-9.90384	-0.88261	-2.78256	5.63552
2929.68750	-11.11362	-2.89956	-0.37245	0.80010
2933.59375	-7.08538	-3.30474	-7.22970	-4.03525
2937.50000	-9.10109	-4.11290	-6.02831	-10.07936
2941.40625	-8.29627	-4.92113	-1.20053	-10.88542
2945.31250	-0.23872	-1.29704	-2.41670	6.44047
2949.21875	-0.64270	-2.10523	-3.63279	4.82859
2953.12500	-2.25547	-4.12224	-2.83429	-4.43899
2957.03125	-1.04767	-2.10995	-2.43879	-6.85670
2960.93750	-7.89848	-1.30647	-4.86373	-9.67736
2964.84375	-12.33174	-1.71176	-3.25942	-10.08041
2968.75000	-9.10922	0.70354	-4.07265	-4.43959
2972.65625	-9.11012	1.91004	-6.90054	1.60418
2976.56250	-5.48474	-0.91281	-4.89328	-5.24577
2980.46875	9.01977	1.50249	-3.69184	-6.45472
2984.37500	8.21297	3.91779	-4.50511	-4.84307
2988.28125	-3.87593	2.30374	-5.72129	-10.08125
2992.18750	-3.87687	0.68977	-4.51986	-10.88723
2996.09375	0.15155	2.29918	-4.12430	-5.24624
