 	TP9	AF7	AF8	TP10	
-1000.00000	-5.93745	-6.22278	-1.03276	-11.51823
-996.09375	1.71815	1.43287	-5.06243	-3.45967
-992.18750	-0.29656	-3.80519	-10.30096	-3.86262
-988.28125	-2.31121	-10.65492	-7.88384	-0.63925
-984.37500	3.73274	-14.68420	-2.24309	-3.05696
-980.46875	-1.10242	-9.84906	-3.45218	-4.66880
-976.56250	-4.72893	-0.58166	1.78559	-1.84842
-972.65625	-4.72892	5.46232	1.78524	-4.66893
-968.75000	-1.10240	5.86531	0.57610	-6.68364
-964.84375	6.95629	3.44773	6.61966	-5.87779
-960.93750	-1.10227	7.07418	10.64863	-6.28078
-957.03125	-5.53456	3.85079	11.45410	0.97196
-953.12500	-0.69941	-0.58150	10.24491	10.64228
-949.21875	-2.31111	1.43310	6.61814	10.23922
-945.31250	1.71811	-2.99908	5.40906	9.03025
-941.40625	2.52392	-7.43130	4.19997	11.04473
-937.50000	-2.31128	-2.19317	0.17035	9.02993
-933.59375	0.10619	1.03029	-0.23297	2.17994
-929.68750	10.58233	1.43319	2.18426	-4.26708
-925.78125	7.35877	5.05963	0.57217	0.16513
-921.87500	5.74700	2.64206	-1.44281	3.38855
-917.96875	2.92651	-1.79021	0.97446	0.16510
-914.06250	-9.96735	-5.01355	5.80921	1.77668
-910.15625	-8.35566	-2.99883	6.21174	8.62636
-906.25000	-7.14704	1.03044	2.18203	11.84971
-902.34375	-4.32663	3.04505	2.18167	-1.04414
-898.43750	0.50850	5.46255	0.56959	-9.10283
-894.53125	-0.70030	1.83618	-1.04242	-4.26778
-890.62500	4.53780	1.43322	-1.84860	7.82004
-886.71875	12.99936	5.46251	-2.25193	14.26679
-882.81250	5.34373	-0.58143	-5.47576	0.56695
-878.90625	-1.10305	-7.02838	-3.86438	-10.31233
-875.00000	4.94094	-4.20786	3.79089	-5.47734
-871.09375	5.74684	1.83611	3.38760	-2.25398
-867.18750	0.91171	7.88006	0.56667	-0.64224
-863.28125	-3.92346	8.68592	-1.04538	2.58129
-859.37500	-3.92340	8.28302	0.56594	-1.85086
-855.46875	-7.95270	3.44783	-0.64323	-4.67126
-851.56250	-4.32632	-7.02834	-4.26994	-2.65663
-847.65625	6.14994	-6.22242	-0.24100	-1.04513
-843.75000	1.31476	0.22440	3.38508	-7.08922
-839.84375	-4.32621	3.04499	0.96711	-5.07464
-835.93750	0.10606	3.85094	-0.24209	8.62496
-832.03125	2.52373	-1.79009	0.16045	13.86301
-828.12500	-1.10264	-4.61057	-3.86924	9.43067
-824.21875	-3.11732	-0.98411	-6.28717	-6.68666
-820.31250	0.10608	3.04520	-1.04945	-14.74529
-816.40625	-1.90861	0.62759	1.77064	-11.92476
-812.50000	-1.90866	-0.98410	-1.45327	-1.04553
-808.59375	3.32941	-2.59581	-1.05081	8.22182
-804.68750	-6.34085	-7.02800	0.96338	7.41585
-800.78125	-5.53501	-6.62501	1.36592	3.78934
-796.87500	3.73228	-5.81917	2.97720	-1.44884
-792.96875	2.12044	-5.81920	2.97682	0.56576
-789.06250	6.95549	-0.17811	4.18525	3.78914
-785.15625	7.76134	-0.58106	-0.65036	-0.64315
-781.25000	-0.70019	-2.59568	-4.27709	2.58023
-777.34375	2.12040	-0.98388	-6.29212	4.19186
-773.43750	6.14972	-1.38680	-4.27780	5.80354
-769.53125	1.71751	1.43377	0.95998	8.62421
-765.62500	5.34386	1.43384	-1.86094	3.38629
-761.71875	2.12043	2.23979	-0.24969	-2.25468
-757.81250	-1.50590	6.26914	4.18215	-3.86638
-753.90625	2.92641	3.85155	1.76414	-3.86638
-750.00000	1.31464	-0.58073	-0.25096	-4.26940
-746.09375	4.13519	-8.63931	-2.66903	2.17740
-742.18750	12.19373	-8.63929	-6.69872	6.20666
-738.28125	16.22306	2.23982	-4.28149	10.23591
-734.37500	4.94111	4.65735	0.55328	9.83297
-730.46875	0.50887	3.85156	2.97053	2.98310
-726.56250	-2.71465	3.44865	0.14968	2.98303
-722.65625	-9.16160	-8.63922	-1.46245	10.23570
-718.75000	-1.90882	-6.62452	-0.25408	13.86214
-714.84375	2.92644	3.85170	-1.86622	14.26510
-710.93750	2.52348	5.06046	-3.47840	11.44456
-707.03125	0.91181	9.49268	-1.06123	-2.25523
-703.12500	2.12068	7.88092	-2.67342	-9.91104
-699.21875	0.91191	1.03112	-3.88263	-13.94055
-695.31250	-5.13202	-3.80408	1.75788	-12.73186
-691.40625	-3.11741	-11.05683	5.78679	-2.25575
-687.50000	-2.71460	-19.51837	4.57758	-1.85288
-683.59375	-7.54984	-7.83333	-3.07848	-6.68815
-679.68750	-10.77332	5.86635	-6.70531	-6.28526
-675.78125	-14.39973	2.23998	-1.06470	-3.46481
-671.87500	-12.38515	-3.80409	1.35248	0.56443
-667.96875	-13.59390	-5.01283	-1.46847	0.56436
-664.06250	-8.75869	-2.99822	-2.27477	-4.67370
-660.15625	-8.75864	-3.40122	-1.46939	-4.67366
-656.25000	-12.38500	-9.04222	-3.88734	-6.68830
-652.34375	-1.50586	-5.81878	-2.67903	-11.52343
-648.43750	4.94100	3.44859	0.54398	-1.45027
-644.53125	14.61128	-0.17775	-2.27697	4.59360
-640.62500	17.02887	-0.58069	-7.51558	3.78759
-636.71875	3.32924	-1.78944	-1.87503	1.36997
-632.81250	0.50879	-5.01277	3.76545	-11.52389
-628.90625	0.91176	-2.59522	-2.68194	-17.16494
-625.00000	-1.50586	-5.41572	-4.69704	-7.89766
-621.09375	-1.10286	-9.84799	-1.07108	-2.65966
-617.18750	1.31476	0.22523	-1.07152	-8.30078
-613.28125	0.50893	6.26922	-0.26610	-2.65990
-609.37500	0.10595	2.64281	-3.08703	8.21907
-605.46875	2.52347	4.65750	-5.90798	9.83081
-601.56250	3.73232	4.65755	-0.26744	12.24834
-597.65625	11.38811	-2.59517	4.16432	16.68059
-593.75000	17.43201	-11.86254	2.95500	12.65120
-589.84375	10.98506	-2.19213	-2.28358	3.78655
-585.93750	0.10591	10.29874	-2.28399	6.60699
-582.03125	-2.71450	6.67233	0.93908	13.45675
-578.12500	1.31489	3.04594	3.75916	12.65098
-574.21875	-1.10264	5.06058	4.96751	18.29206
-570.31250	0.91198	3.85186	4.56411	11.44234
-566.40625	0.10605	-3.80382	2.54905	-0.24272
-562.50000	-1.90855	-7.43019	2.14575	6.60700
-558.59375	2.52377	-0.58043	5.77167	0.96586
-554.68750	-1.50546	-3.40099	1.33905	-9.10735
-550.78125	0.10628	-0.58054	-5.91413	-7.49551
-546.87500	3.32981	6.26926	-3.49704	-2.66020
-542.96875	6.55336	3.04580	-1.88576	-5.88371
-539.06250	8.16520	2.64292	-2.69211	-7.09262
-535.15625	1.31535	1.83711	-3.90126	-1.45164
-531.25000	-3.11687	-2.19218	-3.09579	-1.04863
-527.34375	0.91242	-0.58045	-3.49915	-3.46625
-523.43750	4.53873	1.03133	-1.88786	1.77175
-519.53125	2.52413	0.62834	1.33511	1.36871
-515.62500	8.16528	-2.99810	1.73752	-2.25786
-511.71875	7.35950	-7.43039	0.52822	-4.27262
-507.81250	0.50982	-2.59524	-6.32204	-2.25802
-503.90625	-0.29597	-5.01280	-10.35179	2.98004
-500.00000	-3.11641	-5.81871	-5.11419	4.18880
-496.09375	-3.51935	-3.40113	-0.27952	9.82980
-492.18750	-1.90765	-4.20696	1.33179	13.45616
-488.28125	9.77741	-3.40102	1.73421	5.39765
-484.37500	12.59791	-2.99802	-3.10139	-5.07852
-480.46875	-1.50462	-5.01265	-3.50475	-5.88436
-476.56250	-5.13088	-6.62442	0.12124	-13.94299
-472.65625	0.91316	-5.01269	0.52369	-14.34581
-468.75000	0.51033	-1.78931	0.52328	-3.46660
-464.84375	0.91338	-5.01271	2.13464	6.60678
-460.93750	6.15157	-11.86257	0.52244	7.81555
-457.03125	10.18092	-6.22153	-2.29850	7.81556
-453.12500	7.76337	2.23996	-3.91064	-1.45179
-449.21875	7.76344	3.85166	-3.91109	-9.91317
-445.31250	17.43377	5.46339	2.53526	-0.24287
-441.40625	15.01620	5.06058	4.95242	8.21860
-437.50000	3.73422	2.24017	2.13154	5.80091
-433.59375	-1.50375	2.64303	1.32527	0.15989
-429.68750	4.54037	2.64296	3.33944	2.98044
-425.78125	6.15221	3.85169	6.56233	5.80096
-421.87500	2.92885	3.44865	-2.70551	7.41272
-417.96875	4.94358	-0.58071	-5.12350	10.63613
-414.06250	-0.29444	-0.58074	5.35225	2.98048
-410.15625	-5.12950	-1.78954	10.18696	0.96594
-406.25000	-8.75587	-3.40122	7.36605	3.78642
-402.34375	-9.15876	-1.38657	4.94801	2.17469
-398.43750	-5.93516	-3.80413	4.54462	0.96590
-394.53125	-9.15850	-5.01290	2.93250	2.17474
-390.62500	-5.53199	-2.19249	3.73794	-2.25744
-386.71875	-1.09959	2.64263	1.31990	-3.86898
-382.81250	-2.71125	2.64264	-1.90406	-1.04839
-378.90625	0.51232	-4.61006	-1.90453	1.36920
-375.00000	4.13888	-8.23638	0.91554	0.56329
-371.09375	2.93019	-2.19243	-1.09951	-6.28647
-367.18750	-3.91962	8.28377	-0.69703	-2.25711
-363.28125	-3.11363	11.91011	2.12305	3.78692
-359.37500	-1.50183	9.08967	5.74896	3.78697
-355.46875	-4.72522	4.65750	0.91341	2.17525
-351.56250	5.34802	1.43409	-13.18962	-2.25707
-347.65625	8.97444	0.22530	-9.56369	2.57801
-343.75000	4.54222	-0.58054	4.13548	11.84525
-339.84375	8.97455	-4.20692	6.55252	12.65100
-335.93750	2.52769	-1.78939	2.11981	1.36892
-332.03125	-12.78370	-0.17750	0.10464	-11.92781
-328.12500	-20.43952	-5.81848	2.11877	-2.66033
-324.21875	-17.61910	-3.80385	1.31240	2.98062
-320.31250	-17.21626	0.62839	-1.91156	-6.28678
-316.40625	-17.61917	-0.98329	-1.10616	-13.53954
-312.50000	-13.58994	-2.99796	-3.92708	-13.53966
-308.59375	-9.15775	-7.02730	-6.74806	-15.15148
-304.68750	-7.14304	-3.80378	-4.33087	-22.00143
-300.78125	-8.75472	-0.98319	-1.91376	-17.56924
-296.87500	-7.94883	-3.80371	0.10038	-7.09305
-292.96875	-0.69607	1.43443	0.09991	-3.46677
-289.06250	2.12450	-2.19192	-0.30352	2.57714
-285.15625	-1.50185	-8.23592	0.90475	6.60637
-281.25000	0.10987	-0.58031	1.30720	8.21802
-277.34375	4.54214	5.86662	-3.12548	11.84435
-273.43750	2.93051	5.86667	-8.36402	5.39736
-269.53125	10.98911	3.04621	-7.15566	-1.45258
-265.62500	8.97447	3.04619	0.49952	1.77074
-261.71875	-2.71048	1.03157	0.90203	6.20291
-257.81250	2.93065	1.03166	-1.51606	8.62046
-253.90625	6.55713	-2.59469	0.49806	4.59118
-250.00000	4.13971	-12.26504	-1.11411	-7.09371
-246.09375	2.12522	-11.45913	0.90010	-10.72006
-242.18750	-3.51569	-5.81812	-0.71213	-11.52591
-238.28125	1.31954	-2.99754	-2.32432	-6.69074
-234.37500	2.93129	0.62885	1.70448	6.20310
-230.46875	1.72251	3.85232	-0.71362	4.59141
-226.56250	5.34900	3.85230	-4.74349	-0.24388
-222.65625	4.54325	0.62882	-0.71479	3.78531
-218.75000	-1.50060	0.62881	2.10523	2.97947
-214.84375	-8.75316	2.24060	0.49298	-0.24393
-210.93750	-5.52953	5.06115	0.89545	-9.51143
-207.03125	-1.09719	-2.19150	0.49198	-11.92921
-203.12500	-0.69426	-14.27939	-1.12021	-3.87069
-199.21875	0.51457	-4.20608	-7.97054	-1.45322
-195.31250	0.51459	2.24080	-9.17974	7.41127
-191.40625	-4.32055	-6.22076	-7.56853	7.81413
-187.50000	-4.72347	-3.40027	-2.33093	1.36720
-183.59375	-1.09708	7.07588	5.32428	-6.69149
-179.68750	-5.52931	5.06117	4.51788	-15.55588
-175.78125	-9.15562	-2.19160	5.32326	-18.77928
-171.87500	-4.32034	-2.59454	2.50221	-22.80857
-167.96875	0.91778	-5.01206	-1.12461	-11.52657
-164.06250	-0.69390	-5.01201	-1.12512	-3.87083
-160.15625	-4.32003	-7.02669	-1.12562	-8.70600
-156.25000	0.11244	-5.41491	0.08270	-6.28834
-152.34375	6.96251	-0.17683	0.48510	4.59092
-148.43750	11.39493	0.22600	2.90219	3.38226
-144.53125	10.58922	1.43477	0.08119	-6.69082
-140.62500	0.51621	0.22596	-6.36624	-4.67584
-136.71875	-3.10990	-0.98281	-3.14330	-1.85509
-132.81250	-3.10965	-2.59460	1.28847	-2.25782
-128.90625	-9.55630	-5.81806	-1.93547	-1.04885
-125.00000	-18.01764	-9.04149	-3.54774	3.78641
-121.09375	-18.42036	-10.25025	-2.74241	1.36896
-117.18750	-12.37621	-13.07082	-2.33999	-6.28670
-113.28125	-3.91451	-11.45907	-2.74346	-1.85441
-109.37500	2.12957	-2.19171	-2.34095	2.57793
-105.46875	-1.09379	1.43466	-1.53552	-4.27185
-101.56250	6.15908	-5.01217	-1.53595	-8.70407
-97.65625	9.78543	1.43465	-2.74516	-7.09226
-93.75000	-2.30249	9.09034	-2.34267	-9.91267
-89.84375	-3.91427	7.47856	0.88028	-7.49501
-85.93750	-3.51124	2.64340	1.68560	0.16082
-82.03125	-6.73451	-2.19177	-1.94131	-1.45093
-78.12500	-10.36064	-2.59473	-3.55362	0.16078
-74.21875	-9.55456	-9.44454	-5.56879	-0.64504
-70.31250	-4.71929	-12.66801	-5.16632	-4.27140
-66.40625	-2.70460	-1.78891	-3.15215	-11.52409
-62.50000	0.51892	6.26973	-1.94387	-15.95636
-58.59375	6.16007	6.26974	-1.94438	-7.09192
-54.68750	5.75718	5.06097	-5.97421	-3.06263
-50.78125	-0.28669	6.67267	-1.13960	-0.64495
-46.87500	-3.51001	4.25507	3.29216	4.99617
-42.96875	-3.50986	3.44911	6.51506	8.21966
-39.06250	-1.89796	2.64330	8.12635	3.78733
-35.15625	-2.30064	-0.58007	5.30537	-1.45087
-31.25000	-0.28581	-2.59467	2.08144	1.77254
-27.34375	4.95242	-5.81808	-0.73959	10.23414
-23.43750	8.17590	-6.22092	-3.56060	4.59322
-19.53125	1.72898	-0.57991	-5.17279	-3.46537
-15.62500	4.14665	3.85234	-4.36743	-3.86817
-11.71875	6.16139	-0.17694	0.46722	-4.27111
-7.81250	-4.31474	1.43476	0.46670	1.36988
-3.90625	-5.12052	7.07580	-1.14554	-3.06230
0.00000	-2.29993	4.65819	-1.95188	-9.10613
3.90625	3.74413	1.83771	-0.34067	-7.09140
7.81250	9.78812	-0.98273	2.07645	-6.68842
11.71875	-0.68807	-7.02665	-0.34164	-7.89710
15.62500	-8.74669	-6.22065	1.67248	-7.89714
19.53125	-7.53783	-2.19134	5.70124	-1.45038
23.43750	-6.73193	-0.98256	4.08902	7.41400
27.34375	-7.53779	-0.57968	1.26793	-5.47994
31.25000	-5.12015	0.22618	3.68487	-20.38845
35.15625	2.13263	-3.80307	1.66971	-15.55344
39.06250	-3.50837	-8.23524	-3.56885	-5.07738
42.96875	-11.16393	-7.02646	-1.55466	2.98114
46.87500	-5.52283	-6.62346	-0.34635	-1.45115
50.78125	-3.50819	-3.80291	0.86196	-1.04829
54.68750	-0.68765	0.22644	2.07026	9.02491
58.59375	3.34169	1.83829	-0.75083	12.65128
62.50000	8.57985	-1.78807	0.86041	3.78671
66.40625	8.17703	-3.80276	2.87452	-1.45143
70.31250	4.55070	3.04704	2.06811	6.60726
74.21875	6.56540	2.64403	-1.15587	3.78669
78.12500	9.78899	-2.59409	-3.97688	0.16025
82.03125	16.23610	-5.41455	-6.39496	-1.04854
85.93750	18.25086	2.64407	-3.97783	-3.86898
89.84375	10.59526	6.67342	-1.15780	0.16031
93.75000	4.95437	3.04714	-2.36709	7.41306
97.65625	0.52224	0.62958	-2.77055	3.38372
101.56250	-7.53620	-0.98213	-1.56224	2.98073
105.46875	-8.74495	-0.98217	0.85487	-0.24268
109.37500	-9.55074	-5.01151	0.85434	-13.53934
113.28125	-13.17710	-10.65258	0.45086	-15.95689
117.18750	-14.78880	-11.05551	0.45033	-11.12160
121.09375	-17.20633	-5.81741	-2.77362	-1.85419
125.00000	-6.32707	-0.17641	-4.38581	7.81607
128.90625	2.13462	1.03240	-3.98333	5.39857
132.81250	-6.72971	-4.20562	-4.38676	-9.10690
136.71875	-11.16186	-3.80264	-1.96965	-16.35967
140.62500	-7.53532	3.85312	-1.97014	-15.15086
144.53125	-4.31168	2.64434	-3.17946	-18.77723
148.43750	-4.31151	-5.81719	-0.35952	-15.55370
152.34375	-2.69964	-4.60838	-1.16590	-3.86865
156.25000	0.12100	3.45024	-1.56936	0.56350
160.15625	-6.32576	-1.78784	-1.97277	4.99563
164.06250	-7.13155	-1.38486	-2.37628	2.17510
167.96875	-3.90797	2.64449	-1.97384	-9.50989
171.87500	-0.68447	1.03286	-4.39194	-15.15092
175.78125	3.34495	3.45046	-4.39243	-7.49526
179.68750	1.33049	1.43588	-6.00461	3.38396
183.59375	7.37460	1.43594	-6.00509	7.41334
187.50000	13.41877	5.86822	-1.17042	-6.28622
191.40625	19.05993	3.85362	1.64956	-12.33007
195.31250	17.85124	2.24201	1.24612	-3.46551
199.21875	9.38986	7.07718	0.84267	2.57854
203.12500	4.15190	7.07712	2.45386	2.57853
207.03125	1.73444	1.83896	-1.57595	6.60778
210.93750	2.13747	3.45069	-5.20278	9.02527
214.84375	2.13760	2.24197	-3.99445	7.81653
218.75000	-1.08562	-2.99612	-1.17445	13.86058
222.65625	-4.71184	-5.01078	5.67485	9.83132
226.56250	-4.30874	-0.17565	7.28614	4.59333
230.46875	-2.29400	1.43605	4.86805	9.02558
234.37500	-1.89103	2.24193	2.04705	14.26367
238.28125	-0.27923	5.06239	-0.37105	9.42851
242.18750	-2.69678	0.22719	-0.77451	-0.24188
246.09375	-5.51714	-2.59331	0.43378	-9.10639
250.00000	-3.09945	1.83890	-2.79020	-13.94167
253.90625	2.94446	-4.20506	-2.79072	-7.49491
257.81250	7.37669	-6.62264	0.83519	-3.86872
261.71875	-4.71113	-0.17571	3.25228	-2.66002
265.62500	-7.53161	2.24192	2.04298	-8.70396
269.53125	-7.93452	1.83897	-0.37513	-17.56830
273.43750	-12.76953	-1.78742	3.25074	-11.52436
277.34375	-7.93424	-1.38446	2.84724	-7.89801
281.25000	-6.72535	-0.98149	-1.58555	-6.28642
285.15625	-10.75460	-1.38442	-1.58606	-5.88357
289.06250	-7.53119	-0.17565	-3.19826	-17.56859
292.96875	-4.30775	-0.17569	-4.81050	-17.97149
296.87500	-8.73997	-2.59332	-5.61684	-15.15089
300.78125	-9.14293	-10.65194	-3.19979	-6.28638
304.68750	-9.94875	-9.04025	-5.21503	12.65144
308.59375	-14.38094	-7.83145	-4.81274	13.86019
312.50000	-10.35146	-7.83144	-2.39572	2.98093
316.40625	-3.50152	2.64476	-3.20212	-7.09229
320.31250	-5.91893	7.07702	-2.39680	-9.91269
324.21875	-5.11283	3.04777	-5.62079	-3.86875
328.12500	0.52831	1.43606	-6.42716	3.78685
332.03125	5.36361	0.63025	-3.60719	5.39857
335.93750	8.58717	-0.17548	-3.20473	3.38389
339.84375	13.01955	1.83924	-5.62282	0.56330
343.75000	9.79623	4.65980	-5.62330	1.77211
347.65625	4.55822	2.24235	-2.80328	11.44252
351.56250	6.97591	2.24240	-4.81843	11.44254
355.46875	1.33497	4.66005	-5.62485	-2.25715
359.37500	-0.27660	2.24262	-2.40198	-10.71872
363.28125	3.75290	2.24265	-0.79084	-2.25715
367.18750	3.75314	1.43672	-2.80600	3.38391
371.09375	4.96206	-0.98082	-2.40356	-6.28641
375.00000	5.36507	-1.78674	-2.80704	-7.49507
378.90625	6.97699	0.22789	-0.38993	-3.06272
382.81250	5.36539	3.45133	-2.00210	-1.04816
386.71875	1.73917	-2.18964	-6.43485	0.56336
390.62500	4.15692	-8.23350	-4.42072	7.41311
394.53125	2.94834	-0.57776	-3.61541	13.86000
398.43750	2.54561	8.28681	-3.61595	-1.45142
402.34375	-1.08054	10.70437	-0.39303	-14.74808
406.25000	-2.28923	8.68970	4.44159	-8.30107
410.15625	0.12841	5.06339	6.45568	2.57818
414.06250	-4.70658	3.85465	4.03759	4.99586
417.96875	-3.49760	4.66057	0.00774	2.98141
421.87500	-4.70616	2.64603	-3.21629	3.78734
425.78125	-4.70599	1.03443	-1.20218	10.63720
429.68750	-3.49713	-0.98019	2.02079	20.30749
433.59375	-5.91459	-5.41240	-3.62075	14.26357
437.50000	-2.69095	-5.00937	-4.83004	-4.27116
441.40625	2.14439	-5.00933	-0.39827	-15.55319
445.31250	4.15913	-3.80058	-0.39880	-14.34443
449.21875	-3.89939	-1.38298	-5.63741	-5.47996
453.12500	0.13007	-1.78589	-6.04079	-1.85341
457.03125	6.97998	0.63178	-2.01201	1.37017
460.93750	1.74189	2.24356	0.40500	7.01123
464.84375	1.33902	1.43768	5.64255	5.39949
468.75000	-1.88429	3.04945	5.23911	-3.06218
472.65625	-8.33101	2.24366	3.22393	-6.28573
476.56250	-6.71920	0.22905	-0.40304	-0.24184
480.46875	-1.88398	0.22914	0.40224	9.42845
484.37500	-1.07807	-2.59128	0.80465	6.20499
488.28125	-0.67509	-2.99412	-2.82232	-4.27118
492.18750	3.35426	2.64692	-3.22575	-1.85355
496.09375	6.57774	4.66164	-0.80870	-8.70346
500.00000	3.35438	0.22944	-0.40627	-8.30054
503.90625	-3.09232	2.24416	-1.61560	2.98156
507.81250	-11.15079	5.46756	-1.21321	13.45777
511.71875	-10.34470	1.03541	2.81554	12.24896
515.62500	-4.70348	-2.59095	0.80032	1.36987
519.53125	-7.52379	-5.81434	-3.22958	-5.88289
523.43750	-10.34424	3.05023	-2.02134	-15.95634
527.34375	-9.94131	7.88543	-2.02188	-20.79168
531.25000	-8.32954	4.66199	-0.00777	-14.34486
535.15625	-6.31484	1.84149	-0.81423	-9.10683
539.06250	-1.47959	0.63270	-0.81482	-11.52455
542.96875	-2.68830	2.24450	-1.62127	-13.13645
546.87500	-9.13509	2.64751	-8.47161	-10.71912
550.78125	-8.73209	1.03589	-6.86044	-2.66061
554.68750	-3.09103	-4.60515	-1.62285	2.57744
558.59375	2.14706	-7.82860	2.80888	-0.64604
562.50000	1.34113	-5.41099	4.82299	2.17440
566.40625	3.35575	-3.79931	4.01661	5.80071
570.31250	4.16174	-0.17290	4.01605	9.83004
574.21875	4.56474	2.24470	1.19500	18.29150
578.12500	10.60875	-0.97876	1.19444	9.82996
582.03125	9.40007	-4.20219	1.99969	6.60653
585.93750	4.16207	-4.20220	-2.83603	12.24759
589.84375	0.13288	-1.38172	-2.03061	7.00952
593.75000	-2.28453	3.45342	3.60988	4.99493
597.65625	0.93902	1.03591	8.44454	6.60678
601.56250	2.95373	-2.59047	3.60876	0.15995
605.46875	4.56548	2.24474	-0.42110	-5.48101
609.37500	8.99777	9.49748	4.01057	-5.88385
613.28125	3.75978	6.67694	4.00994	-3.06345
617.18750	0.93945	3.05062	-4.45221	-5.88400
621.09375	-3.89557	3.85648	-9.28792	-3.46646
625.00000	-7.52168	4.25943	-2.84163	0.56280
628.90625	4.56635	2.64772	1.18720	-8.30168
632.81250	4.96940	3.45363	2.79836	-11.92812
636.71875	-6.71553	4.66248	-1.63443	-5.07826
640.62500	-5.50665	-0.97847	-1.23200	7.81552
644.53125	-1.88023	-4.60480	3.19971	11.44196
648.43750	0.94038	-6.21642	1.99035	9.83027
652.34375	4.16389	-0.97827	0.78101	15.87411
656.25000	0.94051	2.24526	-3.24882	14.66516
660.15625	1.74645	-0.97811	-2.44353	4.99470
664.06250	9.40224	0.63363	-2.44407	-9.91371
667.96875	7.38759	0.23071	-2.84760	-15.95765
671.87500	1.74674	3.45419	-1.23642	-9.10776
675.78125	0.13521	3.45424	-5.26627	-4.67554
679.68750	0.53838	-1.38085	-5.66978	0.15952
683.59375	0.53851	-1.78377	-2.44688	4.59162
687.50000	-3.08770	-0.97786	1.98483	10.63549
691.40625	-3.89344	1.03680	3.59600	19.09710
695.31250	-1.47568	-2.58958	-0.43386	17.08248
699.21875	-5.10188	-6.61885	-2.04615	0.56230
703.12500	-3.49010	-1.78366	-0.83798	-7.49629
707.03125	6.58320	-0.17187	-0.03266	0.96530
710.93750	8.19505	0.63398	2.78723	-7.49614
714.84375	5.37464	-0.57480	3.59251	-11.52538
718.75000	0.94257	1.43984	2.38316	1.36842
722.65625	-3.48953	5.46915	2.38259	4.99478
726.56250	-1.47467	6.27509	2.38201	4.99496
730.46875	-1.47445	4.66339	3.18737	3.78637
734.37500	-2.68304	2.24593	1.97802	3.78639
738.28125	-0.66813	6.67819	-1.64892	3.38348
742.18750	2.55554	5.06654	-3.26116	1.77176
746.09375	0.94401	3.05192	0.36462	-0.24284
750.00000	-2.27929	3.05193	-0.03882	-0.64575
753.90625	1.75014	-0.17151	-2.45697	4.18932
757.81250	6.58539	-7.02132	-0.44287	2.98045
761.71875	10.21191	-3.39491	-0.04046	-1.45184
765.62500	8.19739	5.87245	-0.44399	2.57750
769.53125	-1.87577	3.85781	-0.44454	7.41265
773.43750	-11.14301	3.85784	-0.84807	4.18923
777.34375	-11.54574	1.03740	-2.46041	4.99513
781.25000	3.36278	2.24625	-3.26688	5.39817
785.15625	6.18341	5.87264	-4.07331	4.99527
789.06250	-7.11318	0.63457	-2.05927	3.38372
792.96875	-1.47182	-1.38004	2.37232	-5.48059
796.87500	5.78118	-1.37997	-3.26926	-13.13624
800.78125	-0.26259	-4.20039	-8.91093	-7.89824
804.68750	-5.09752	-4.60330	-3.27045	6.20425
808.59375	-3.88851	-6.21494	-3.67398	6.60716
812.50000	-0.26188	-8.63246	-0.85408	10.63638
816.40625	3.76754	0.63496	1.96587	8.62170
820.31250	6.58814	5.06721	1.15941	0.16016
824.21875	6.58825	2.24673	3.57635	1.36902
828.12500	8.60303	-7.02070	0.35231	2.17493
832.03125	7.39439	-10.24404	0.35172	-0.64549
835.93750	0.14177	1.84391	1.55994	-3.46595
839.84375	0.14184	5.87327	0.35056	-3.06299
843.75000	1.75365	2.24701	-2.06755	-1.85422
847.65625	-2.27552	1.84410	-1.66522	-3.86885
851.56250	-10.73696	2.24708	-2.06868	-4.27182
855.46875	-1.06648	-6.21446	-4.48686	0.96624
859.37500	8.20101	-7.82623	-7.71089	-1.85425
863.28125	-3.88688	-0.17049	-8.11441	-7.49533
867.18750	-8.31894	2.65010	-1.66805	-7.89830
871.09375	-10.73640	1.84432	-1.26564	-10.31596
875.00000	-11.94503	-1.37912	-1.26618	-14.34522
878.90625	-7.91555	-1.37912	-4.49016	-15.15095
882.81250	-4.69194	1.44140	-6.10239	-6.28641
886.71875	-5.09460	-0.17025	-0.86491	-1.45124
890.62500	-5.90030	-3.39366	-2.47715	-5.07755
894.53125	-3.07959	-1.78189	-3.68651	-8.30096
898.43750	0.54691	-3.79643	-2.88124	-14.34499
902.34375	-0.66177	-6.21392	-0.86711	-11.12171
906.25000	4.57642	-3.79639	-0.46465	-3.06326
910.15625	2.56183	1.84465	-6.91207	2.98056
914.06250	-5.09373	7.88865	-4.89793	2.17464
917.96875	-1.87025	9.09756	1.95140	-0.64587
921.87500	-2.27312	4.26251	6.78599	3.78635
925.78125	-2.67605	-0.57263	5.97958	9.02445
929.68750	0.14450	1.03918	3.15853	13.05376
933.59375	0.14459	3.45673	2.35207	6.20398
937.50000	1.75648	-0.57258	-1.67774	-3.06343
941.40625	4.98003	1.03921	-0.06655	-11.12207
945.31250	7.39768	2.65097	-0.47009	-13.13673
949.21875	5.78614	-7.82518	-2.48530	-5.07805
953.12500	4.98044	-4.60169	-0.06827	-1.85438
957.03125	7.39814	6.68040	-4.09814	-2.65998
960.93750	4.98075	6.68045	-2.08407	4.59279
964.84375	-2.67484	1.03958	5.16811	0.96625
968.75000	0.54874	-0.57210	8.39101	0.96620
972.65625	7.80165	0.63672	8.39045	14.26292
976.56250	-1.86859	0.23382	4.76346	16.27760
980.46875	-6.30069	-0.97485	1.94237	9.83076
984.37500	0.14629	-1.78068	-0.47582	-1.45142
988.28125	3.36982	-7.82454	-0.07346	-5.88370
992.18750	6.59330	-8.22738	2.74647	0.16024
996.09375	5.38463	1.44296	4.76058	5.80127
1000.00000	-3.07667	4.26359	5.16298	14.66573
1003.90625	-3.88237	0.63723	1.53599	13.05397
1007.81250	-2.27042	-1.37741	-2.09091	-9.10713
1011.71875	1.75905	1.04023	-1.28563	-9.91295
1015.62500	2.16213	1.44319	-1.68914	-1.04842
1019.53125	-0.65833	1.84624	-3.30138	-2.66004
1023.43750	3.37108	2.24923	-0.88441	-0.64534
1027.34375	1.35659	1.04040	1.53259	-3.46581
1031.25000	-5.09006	1.84623	0.32324	-4.27167
1035.15625	-3.07529	6.27851	2.33736	0.56339
1039.06250	-2.26934	2.24927	3.54559	1.36920
1042.96875	-1.86632	-0.16830	3.94797	4.99550
1046.87500	2.96906	2.65223	5.15622	7.41320
1050.78125	1.76043	3.86108	3.94686	3.78692
1054.68750	1.76062	0.63769	-0.48596	9.83105
1058.59375	0.55203	1.04067	-0.08356	17.88976
1062.50000	-6.70053	2.24951	-0.08412	7.41367
1066.40625	-8.31204	-0.57095	1.52701	-1.85372
1070.31250	-5.49135	-0.57088	4.34693	-11.52411
1074.21875	-4.28233	4.66726	0.31705	-18.77684
1078.12500	0.15007	5.07027	-2.90695	-13.53877
1082.03125	-2.67027	-1.77955	-2.10161	-7.09199
1085.93750	-7.90817	1.44391	-4.51976	-1.85384
1089.84375	-4.68446	4.26449	-5.32614	2.57862
1093.75000	-3.47539	0.63813	-2.50619	7.41388
1097.65625	-7.10160	1.84696	-0.49212	11.04030
1101.56250	-4.28084	3.05578	-1.70150	9.02578
1105.46875	8.21021	0.63815	-9.35771	-1.04730
1109.37500	9.01623	3.05577	-5.73197	-9.50868
1113.28125	0.15196	5.87635	2.32603	-9.91151
1117.18750	-1.86244	5.87637	2.32542	-11.92634
1121.09375	-1.05633	6.27933	2.72775	-9.10580
1125.00000	-2.66789	0.23538	-1.30214	-2.25590
1128.90625	-2.26476	-0.57043	0.30895	3.38524
1132.81250	-1.86162	-3.79386	7.15818	11.44393
1136.71875	-8.71110	-8.22603	7.15759	5.40004
1140.62500	-7.50208	2.65311	5.54526	-4.67315
1144.53125	-4.27844	4.26493	3.53004	-7.49366
1148.43750	-0.24900	0.23563	1.11194	-0.64372
1152.34375	6.19802	1.84744	3.12604	10.23550
1156.25000	1.36307	3.86215	2.31958	9.02681
1160.15625	4.98975	7.89155	-1.71027	10.23573
1164.06250	6.60165	6.68286	1.91556	15.87685
1167.96875	-2.66560	-2.58445	6.75014	15.87687
1171.87500	-5.08303	-7.01664	7.95837	19.90617
1175.78125	-0.24768	-3.39018	6.74898	21.51788
1179.68750	4.58766	3.86261	1.51030	12.65340
1183.59375	5.79653	7.08612	0.30094	0.16248
1187.50000	1.36438	7.89206	-1.71425	-7.49326
1191.40625	-0.24716	9.50387	-9.37046	-11.92553
1195.31250	-1.45579	7.08632	-4.13292	-6.68739
1199.21875	-4.27613	3.45997	2.31334	-3.86681
1203.12500	-4.27601	0.23656	-2.52238	-9.91068
1207.03125	-7.90228	-5.80733	-4.53759	-11.52234
1210.93750	-6.69332	-9.03070	-2.92648	-15.14866
1214.84375	1.76841	-5.00130	-0.91239	-8.70179
1218.75000	4.18620	-0.56908	-1.71878	-1.44896
1222.65625	2.97768	-0.97192	-0.10763	-5.47817
1226.56250	7.41019	-0.56900	0.69763	-5.47808
1230.46875	9.42516	-1.77777	-2.12341	0.56600
1234.37500	9.02245	-2.58353	-1.31811	10.63944
1238.28125	10.63436	1.44588	2.30765	11.44548
1242.18750	4.18779	2.25192	-4.13983	8.22217
1246.09375	-6.28806	-2.18022	-5.75221	4.19284
1250.00000	-10.72003	-8.62706	-3.73817	-4.67163
1253.90625	-10.31685	-8.62700	-6.15634	-7.89497
1257.81250	-8.70487	0.23747	0.69284	-9.50650
1261.71875	-8.70453	4.66976	1.49810	-10.31207
1265.62500	-9.10723	3.46101	-2.12877	0.16433
1269.53125	-4.27181	5.07281	3.51163	7.01410
1273.43750	3.78707	4.26701	3.91394	6.20815
1277.34375	-0.64491	1.44654	1.89864	1.77586
1281.25000	-4.27109	0.64079	3.50970	-0.23886
1285.15625	-1.04747	-4.19434	3.91206	2.98460
1289.06250	-2.65902	-9.02951	6.32901	13.05789
1292.96875	-4.67350	-2.98546	5.11968	9.43155
1296.87500	-6.28503	-2.98543	-0.11900	-2.65631
1300.78125	-7.49371	-6.20883	-0.52253	-1.44757
1304.68750	-3.86725	-0.97068	-3.74653	-7.49161
1308.59375	-1.85247	3.46157	-4.14996	-10.31220
1312.50000	-5.07569	-3.38816	-3.74768	-12.72983
1316.40625	-5.07549	-2.58229	-4.15119	-10.31222
1320.31250	-0.24020	7.49098	0.28038	-3.86525
1324.21875	0.96875	5.87930	2.29438	2.58172
1328.12500	-4.67212	1.04419	1.48792	4.59635
1332.03125	-11.11880	0.64130	0.27854	-5.07409
1335.93750	-11.92440	0.23837	0.68095	-9.50632
1339.84375	-7.08905	-1.37327	1.88920	-5.07391
1343.75000	-7.49178	1.44731	0.67981	-6.28260
1347.65625	-3.46232	0.64155	-1.33541	-8.29718
1351.56250	1.37306	-5.40227	-4.55943	-9.50583
1355.46875	2.98508	-0.96992	-3.75412	-0.64118
1359.37500	2.17943	5.07408	-6.57516	11.04388
1363.28125	0.97079	4.26829	-6.97867	15.87913
1367.18750	0.97093	3.86540	-1.74113	11.84983
1371.09375	-3.05827	-0.96969	-1.74169	-15.95240
1375.00000	-7.89340	-0.96963	-2.14516	-31.66665
1378.90625	-10.71381	-0.96955	-0.93702	-27.63741
1382.81250	-4.66977	-0.16364	-2.14640	-18.77300
1386.71875	-1.04327	-5.80465	-4.96757	-8.69974
1390.62500	-0.64030	-11.44559	-4.56520	-7.49086
1394.53125	-1.04305	-3.38691	-4.96875	-9.90838
1398.43750	-5.87811	4.26882	-5.77521	-3.46160
1402.34375	-1.44582	9.10396	-2.14942	3.38821
1406.25000	0.56886	7.08936	0.26751	-1.04400
1410.15625	1.77773	1.85135	1.87865	-1.44687
1414.06250	6.61297	1.04556	-1.34541	0.56781
1417.96875	5.00152	3.06024	-5.37529	0.16481
1421.87500	4.59885	5.88082	-2.95836	-1.04410
1425.78125	1.77856	-0.56597	-0.54138	4.59692
1429.68750	4.19635	-5.80401	-4.57125	12.25255
1433.59375	13.06096	-2.58051	-4.97476	17.08770
1437.50000	12.65820	-5.40091	-0.94608	18.69934
1441.40625	7.82325	-3.38616	-1.75252	9.02902
1445.31250	6.61460	-4.59488	-5.37943	-9.50576
1449.21875	3.79418	-2.58013	-3.76833	-13.93806
1453.12500	0.97375	5.07570	-1.75430	-5.07351
1457.03125	-0.23499	1.85234	-1.35195	-3.46181
1460.93750	-3.05545	1.04655	-1.35252	-6.28239
1464.84375	-7.48768	1.04661	-2.15892	-9.10297
1468.75000	-10.71106	-1.77387	-1.75658	-5.47674
1472.65625	-10.30799	-7.01190	-2.96592	-0.64161
1476.56250	-13.12849	-11.04115	-2.16055	0.56711
1480.46875	-9.50201	-6.60885	-2.96702	-4.26805
1484.37500	3.39181	3.86740	-4.57927	-1.04463
1488.28125	-1.84619	10.31436	-6.19150	1.77580
1492.18750	-10.30752	6.28517	-6.99799	-5.47710
1496.09375	-7.08396	-0.56462	-7.80444	-5.07433
1500.00000	2.58657	-2.17627	-7.40206	-6.28322
1503.90625	9.03367	0.64428	-8.20854	-9.50660
1507.81250	4.60157	3.06194	-8.20914	-12.72991
1511.71875	1.37829	5.47960	-4.58335	-5.87994
1515.62500	2.58723	2.65919	-2.56929	2.98457
1519.53125	2.99029	0.24168	-3.37571	-1.85055
1523.43750	2.18457	4.67403	-3.37627	-2.25351
1527.34375	4.19941	4.27126	-0.95930	6.20809
1531.25000	6.21428	8.30068	1.45771	3.79052
1535.15625	5.40850	11.92712	1.45713	-6.68581
1539.06250	6.21448	7.89789	0.24778	-5.47722
1542.96875	16.28779	3.06284	0.65017	4.99882
1546.87500	15.07900	0.24238	-0.15629	11.84858
1550.78125	4.20001	0.64541	1.85775	2.98399
1554.68750	-1.84383	-2.57797	3.06595	-4.67181
1558.59375	-3.85827	-6.60718	-1.36691	4.99829
1562.50000	-3.85807	0.24275	-1.36748	16.68320
1566.40625	-6.67840	3.86932	3.87007	15.87731
1570.31250	-3.45474	2.25773	7.89880	8.62453
1574.21875	-2.24570	3.46653	4.67477	-0.64284
1578.12500	-3.45433	0.64610	1.45074	-3.46331
1582.03125	-1.43954	-4.18899	-0.16152	-1.85153
1585.93750	-2.24530	-8.21820	-3.78853	-3.06033
1589.84375	7.42509	-4.59177	-2.58034	-0.64264
1593.75000	9.43999	-5.39755	-0.56625	3.78970
1597.65625	1.38154	-7.81508	-2.17850	2.98393
1601.56250	-2.24461	-7.81501	-3.38790	-2.25417
1605.46875	-9.09432	-8.21784	-2.98563	2.58106
1609.37500	-8.28821	-4.59144	-1.37451	0.16345
1613.28125	-5.06459	-2.97960	-3.38975	-7.08926
1617.18750	-6.67623	1.45270	-0.97281	-6.28340
1621.09375	-6.27319	3.46747	0.23538	-4.67167
1625.00000	-5.46718	0.64708	-2.98867	-3.86579
1628.90625	-3.85525	0.64721	-2.18336	-7.49218
1632.81250	-3.85507	-3.38198	-1.37809	-6.68620
1636.71875	-3.04897	0.24444	-1.37865	2.98426
1640.62500	-2.24293	2.25924	-2.58802	6.61061
1644.53125	-7.07789	-2.97876	-0.97692	2.17832
1648.43750	-7.07766	0.24473	-1.38038	-5.88025
1652.34375	-11.50971	-1.76983	-4.60439	-5.88024
1656.25000	-13.92715	-6.20195	-2.18736	4.19306
1660.15625	-15.13582	-6.20187	-3.39672	-1.04504
1664.06250	-17.15037	-1.76964	-0.57677	-11.92428
1667.96875	-13.52386	-4.59007	1.03442	-13.13308
1671.87500	-3.85342	-15.06618	-2.99549	0.16365
1675.78125	-0.22692	-4.99283	-1.78719	7.01353
1679.68750	7.02587	5.08043	2.64458	9.02830
1683.59375	15.48749	1.05116	3.44991	12.65480
1687.50000	10.65245	2.66287	4.65815	3.79027
1691.40625	10.24984	6.28928	4.25458	1.77560
1695.31250	15.48814	-0.96346	-0.17822	2.17858
1699.21875	9.04141	-1.36643	-3.40228	6.61084
1703.12500	1.38585	6.69224	-5.01463	9.02837
1707.03125	5.41522	5.88653	-3.40345	1.37277
1710.93750	10.25049	4.67785	-4.61282	0.96986
1714.84375	11.05643	-2.17186	-7.83686	0.16401
1718.75000	6.62435	-7.81283	-7.83747	3.79032
1722.65625	5.81867	0.64879	-5.42046	6.61077
1726.56250	7.43053	3.06648	-1.79469	4.59597
1730.46875	2.59560	3.46949	-2.19815	9.43102
1734.37500	2.59577	3.46961	-5.82514	5.40167
1738.28125	8.63986	2.26099	-3.00523	0.16357
1742.18750	6.22251	4.67864	0.62058	4.99870
1746.09375	6.22270	6.69340	-0.58884	2.17818
1750.00000	7.02871	1.45538	0.21643	4.99876
1753.90625	-4.65613	-3.37969	1.02176	10.63987
1757.81250	-5.86472	-0.55912	2.22992	9.43107
1761.71875	-0.22341	-2.17071	-2.60578	8.22235
1765.62500	0.17976	-6.60286	-4.62101	9.02824
1769.53125	1.38878	2.66466	-0.18934	-1.04504
1773.43750	3.00068	10.72335	0.21297	-11.92421
1777.34375	5.01548	9.51467	-0.99641	-4.67131
1781.25000	4.61263	2.66493	-0.99701	6.20786
1785.15625	1.79225	-0.15546	-0.99760	11.84894
1789.06250	-0.62517	-1.36421	-0.59523	0.56686
1792.96875	-2.63967	-6.60223	1.41885	-7.08879
1796.87500	0.18095	-7.00508	-0.59634	-3.46239
1800.78125	-1.43055	-0.55813	-1.80571	4.19339
1804.68750	-5.86249	0.65075	-0.59749	9.43152
1808.59375	-2.23583	1.05380	1.01370	0.56708
1812.50000	-4.65330	0.24799	-0.59859	-5.87963
1816.40625	-9.08541	0.24810	-3.41962	-8.29712
1820.31250	-11.50280	4.27754	-1.80846	-6.28239
1824.21875	-6.66758	5.88932	3.02621	-2.25305
1828.12500	-2.63819	1.05427	1.81685	4.19376
1832.03125	3.40585	-2.57204	-5.43647	9.83476
1835.93750	15.89680	-3.78070	-4.22821	5.40247
1839.84375	8.24129	-4.58643	0.60640	9.43172
1843.75000	-2.63773	-1.36291	1.81467	9.83470
1847.65625	-0.21995	-0.95987	3.02296	6.61124
1851.56250	0.58604	3.87537	3.42528	0.16423
1855.46875	-3.04014	1.05498	3.42469	-5.87979
1859.37500	-3.84588	-0.95957	3.82708	2.98465
1863.28125	-2.23404	0.24924	-0.60574	12.25207
1867.18750	1.79537	-3.37702	-5.84443	11.04328
1871.09375	4.21310	5.08463	-7.45671	4.59637
1875.00000	9.45139	6.69645	-6.65140	2.58162
1878.90625	10.66036	5.48780	-2.62266	9.83430
1882.81250	9.04884	7.90554	-1.41445	10.23714
1886.71875	10.25778	9.51739	-2.62383	4.59612
1890.62500	9.85493	9.92043	-3.43023	3.38729
1894.53125	6.22865	5.48833	-8.66889	-1.04502
1898.43750	4.61699	3.07087	-7.86362	4.19300
1902.34375	8.64640	-0.95834	-3.02906	7.01346
1906.25000	9.45241	-4.18168	-7.05894	1.37241
1910.15625	5.42307	4.68288	-3.03022	4.59581
1914.06250	5.02021	5.48885	1.40146	7.81912
1917.96875	5.82616	1.86262	3.81846	7.01308
1921.87500	6.22915	4.68322	6.63836	-5.88087
1925.78125	3.00564	5.48917	0.59384	-11.52214
1929.68750	-5.05302	3.07173	0.19031	-6.28418
1933.59375	-4.24722	0.25127	3.01028	2.98310
1937.50000	-1.42680	1.05728	2.60675	2.58002
1941.40625	2.19958	3.07201	1.39735	-8.29940
1945.31250	3.40840	2.66912	0.59087	-8.29965
1949.21875	-1.42675	2.26633	0.59027	-1.85294
1953.12500	-3.84438	2.66935	-1.42495	-3.86774
1957.03125	-1.02371	0.65483	-6.26072	-8.70308
1960.93750	1.79690	1.46078	-5.45552	-1.45043
1964.84375	-3.44108	0.25206	0.58781	-0.24179
1968.75000	-5.45557	-2.16538	-1.42745	-4.27122
1972.65625	-0.62028	0.25229	-9.88958	-13.94149
1976.56250	-2.63481	2.67000	-10.69600	-17.97067
1980.46875	-2.63474	3.47598	-1.83216	-14.34420
1984.37500	-1.82881	2.26738	5.01708	-4.27096
1988.28125	-7.06676	2.26754	5.01647	1.77294
1992.18750	-12.70767	2.26769	-0.62514	-3.86810
1996.09375	-8.27529	1.05902	-3.84919	-5.48001
2000.00000	-0.21644	-3.37314	-0.62634	-1.04788
2003.90625	-2.23086	-6.99949	1.79070	3.78721
2007.81250	-7.87172	-1.35834	-1.03042	1.77248
2011.71875	-1.42465	1.86522	-6.67196	2.17533
2015.62500	7.43989	-1.35814	-6.67250	6.20453
2019.53125	11.06639	-3.37268	-3.44958	6.20442
2023.43750	17.11045	1.46260	-3.85309	1.77215
2027.34375	17.91644	7.50671	-4.25659	4.18969
2031.25000	13.88732	7.10398	-3.45134	10.23358
2035.15625	17.91679	4.28361	-3.45191	-5.48076
2039.06250	25.16972	3.88076	-0.22904	-14.74825
2042.96875	18.32002	3.07501	-0.22963	-8.70426
2046.87500	6.63508	-2.56593	-2.64781	-7.09240
2050.78125	5.02345	-4.17755	1.78389	1.36916
2054.68750	-2.22924	3.47817	2.99215	9.83070
2058.59375	-11.09364	6.70179	0.97690	8.62183
2062.50000	-9.07888	1.86682	-3.05307	1.77188
2066.40625	-3.03484	6.70211	-4.26239	-0.64577
2070.31250	0.59155	4.68760	0.16922	2.17459
2074.21875	-1.82594	-3.77384	0.97452	6.20380
2078.12500	-3.84054	0.65851	2.18263	2.98028
2082.03125	-6.25803	0.65865	4.19668	-2.25799
2085.93750	-10.28712	-0.55005	3.39024	-3.86983
2089.84375	-10.68985	-3.37049	-1.04257	-15.55485
2093.75000	-7.86915	-6.19091	-0.23717	-20.79288
2097.65625	-7.06306	-6.19082	1.37398	-13.54009
2101.56250	-15.12140	-4.17604	-0.64127	-0.64641
2105.46875	-12.30073	-2.16125	-3.05948	7.81502
2109.37500	-7.86843	0.25641	2.17805	4.99460
2113.28125	-7.06249	1.86831	0.16284	-9.51082
2117.18750	-6.65941	0.65969	-5.07587	-25.62798
2121.09375	-10.28563	-2.56361	-0.24127	-24.41925
2125.00000	-8.67372	-4.57814	2.98159	-13.13729
2128.90625	0.19096	-1.75753	2.98101	-3.06410
2132.81250	5.02636	-7.80137	0.15993	-0.24360
2136.71875	2.60896	-6.59244	-1.45226	-3.06402
2140.62500	-1.01725	1.06339	-4.27327	0.15953
2144.53125	0.59454	2.67522	-5.88552	5.39771
2148.43750	3.01226	6.70470	-5.48308	8.21821
2152.34375	5.42989	9.52540	-3.06611	11.84457
2156.25000	9.05640	6.30206	-3.06670	9.02391
2160.15625	9.05649	5.89922	-2.26138	6.20321
2164.06250	5.43015	5.89934	-2.26195	4.18845
2167.96875	6.23618	2.27311	-3.47131	9.82952
2171.87500	12.68330	3.07906	-5.88947	18.29100
2175.78125	5.43081	-0.54723	-6.29296	12.64993
2179.68750	1.80461	-0.14411	-1.05550	11.03811
2183.59375	5.83398	-3.77032	1.36157	17.08207
2187.50000	6.23701	-3.77018	2.97279	15.87326
2191.40625	9.86337	-2.15832	3.77807	13.85861
2195.31250	11.47509	-0.54653	2.97163	13.45569
2199.21875	11.07220	9.92978	4.98572	15.06743
2203.12500	11.07230	11.54168	5.38805	14.66442
2207.03125	7.84893	11.54187	0.55233	-0.64700
2210.93750	5.83440	5.90094	-3.07467	-11.92909
2214.84375	3.41690	4.69221	-2.26941	-3.87053
2218.75000	2.61114	7.91575	-1.86711	1.36739
2222.65625	8.25223	-2.96322	0.14699	-2.25921
2226.56250	8.65511	-1.75436	4.57870	-3.87105
2230.46875	0.59661	5.49852	6.99580	1.36702
2234.37500	-6.25304	-0.54532	6.59231	5.79912
2238.28125	-9.47641	-0.54519	3.77127	0.56085
2242.18750	-8.26747	1.06670	0.54729	-7.49789
2246.09375	-3.43210	0.26093	2.56143	-5.08023
2250.00000	-1.82025	0.26105	-1.06550	3.38144
2253.90625	-6.65533	-1.35051	-5.49824	7.00774
2257.81250	-12.29633	-0.94740	-0.26071	-0.64798
2261.71875	-8.26686	3.08203	0.14163	-22.80917
2265.62500	-3.02864	2.67919	0.94700	-26.83849
2269.53125	-0.20806	2.27645	1.34938	-16.76533
2273.43750	-1.81974	4.29124	-1.87461	-14.34779
2277.34375	-11.48995	-2.55853	-4.69567	-15.15366
2281.25000	-15.51921	-4.17013	-4.29325	-8.70680
2285.15625	-9.47519	-1.75249	-1.07036	-1.45392
2289.06250	-3.83409	-0.94650	-6.71182	-6.28891
2292.96875	-0.20754	3.48579	-11.95040	-12.33285
2296.87500	1.00145	1.87422	-6.71284	-6.28891
2300.78125	10.26909	3.08313	0.53935	0.56087
2304.68750	11.88099	-4.16948	3.35930	0.96375
2308.59375	3.41959	-4.16931	3.35875	7.41068
2312.50000	1.40512	7.11294	2.95531	15.06644
2316.40625	1.80823	9.93359	6.17817	12.24594
2320.31250	-1.01219	5.09855	8.19235	20.30441
2324.21875	-2.22092	-3.36288	2.14777	17.88674
2328.12500	-1.01203	-4.16862	-1.47913	-6.69219
2332.03125	-0.20612	1.47252	2.95255	-12.33334
2335.93750	1.00270	6.71083	5.77248	-13.54226
2339.84375	4.22618	6.30813	5.77193	-15.15408
2343.75000	1.80867	5.09944	3.35377	-3.06638
2347.65625	10.27030	7.11419	2.14443	7.00675
2351.56250	15.10547	7.11431	1.74099	10.23013
2355.46875	9.46452	5.90566	2.14333	12.24472
2359.37500	11.47923	7.92039	3.35160	10.23005
2363.28125	9.46464	3.89116	5.36571	10.63289
2367.18750	5.83826	-5.77910	4.55932	17.48249
2371.09375	9.06176	1.87670	2.94708	16.27353
2375.00000	14.70280	15.57644	1.73773	7.00602
2378.90625	13.49401	16.38238	5.76650	7.00600
2382.81250	4.62947	9.53269	3.34835	8.21488
2386.71875	1.00324	4.29470	-2.29320	10.22956
2390.62500	3.01810	3.08601	2.13843	21.51153
2394.53125	4.22706	0.26556	7.37598	24.73495
2398.43750	6.64469	-0.94302	8.58424	15.06456
2402.34375	1.40670	3.89226	6.56900	3.37955
2406.25000	0.60095	1.07187	6.16545	-1.05272
2410.15625	7.04798	-0.94265	8.17958	2.57366
2414.06250	3.42176	9.93657	8.17900	4.18534
2417.96875	6.64546	11.54842	3.74616	0.55884
2421.87500	8.25744	8.32508	2.53677	2.97640
2425.78125	-0.60690	3.89292	6.56548	9.82633
2429.68750	0.19917	-4.16555	5.75904	11.43806
2433.59375	9.86972	-1.74784	2.93794	6.60299
2437.50000	4.22901	6.71387	0.51975	-7.90240
2441.40625	0.60296	6.71397	1.32501	-0.24672
2445.31250	13.49706	2.68478	0.92152	15.06468
2449.21875	9.87095	-4.16491	0.11502	10.63261
2453.12500	5.84197	-4.97072	-2.30309	0.55946
2457.03125	7.85687	5.50546	-2.70659	1.36556
2460.93750	-2.21615	8.72901	0.51633	9.02143
2464.84375	-9.06575	6.71447	2.12750	7.00700
2468.75000	-8.25954	5.50578	2.52989	4.58964
2472.65625	-8.25924	2.28253	4.14102	9.82792
2476.56250	-3.42382	-0.53786	3.33463	10.63392
2480.46875	-0.60306	-5.37282	4.54290	4.18708
2484.37500	1.00895	-8.19318	2.12476	-5.48332
2488.28125	2.62094	-1.74623	-2.71093	-3.87165
2492.18750	0.20371	-2.95486	-7.54664	-1.05115
2496.09375	7.05385	-1.34304	-9.56183	4.99282
2500.00000	7.85992	6.71568	-3.51845	14.66313
2503.90625	15.11294	3.89531	0.91325	10.23092
2507.81250	21.56002	-0.53680	4.53907	13.45442
2511.71875	9.87513	-1.74551	6.15024	23.12476
2515.62500	5.44301	5.91028	4.13508	23.93068
2519.53125	6.24904	9.13389	2.52286	18.28975
2523.43750	3.02567	8.32816	-1.90991	17.48401
2527.34375	9.06969	10.74580	-4.32796	9.82850
2531.25000	18.33720	7.11959	-2.71682	-1.85647
2535.15625	16.72571	5.91091	0.50606	2.17281
2539.06250	14.30831	5.10521	1.31136	7.00796
2542.96875	14.30849	6.31416	1.31084	12.64904
2546.87500	7.86171	6.71717	3.72792	20.30480
2550.78125	4.63839	4.70265	0.90689	15.46977
2554.68750	6.25029	7.92628	-0.30247	7.81410
2558.59375	13.10021	9.13524	2.92041	3.38189
2562.50000	16.72677	7.92657	4.93455	-3.06504
2566.40625	9.47416	7.12082	4.93407	2.97886
2570.31250	7.45964	5.91213	2.91893	6.20232
2574.21875	8.66867	4.30056	3.32132	7.00816
2578.12500	3.43081	4.30070	6.54425	7.81402
2582.03125	1.81934	1.88326	4.12611	7.00817
2585.93750	9.47529	4.70392	2.51385	11.84339
2589.84375	6.25211	5.91289	1.70742	7.00831
2593.75000	-1.00045	-1.74262	2.51273	-1.05012
2597.65625	1.01441	0.27223	1.30340	-3.87052
2601.56250	-3.01466	6.71936	0.09405	2.17345
2605.46875	-5.83502	6.31668	4.12280	6.60562
2609.37500	-7.44650	1.88457	4.12226	9.42611
2613.28125	-12.28156	-1.33876	3.31586	13.85843
2617.18750	-6.23736	0.27308	4.92706	0.15884
2621.09375	1.82149	3.89968	1.70308	-18.37590
2625.00000	-2.61055	0.27346	-1.11802	-20.39052
2628.90625	-1.40155	-4.15856	1.29901	-13.13772
2632.81250	6.65726	1.88558	4.11893	-6.28791
2636.71875	2.62820	3.90040	4.92423	3.78524
2640.62500	-0.19210	5.10934	4.11775	18.29067
2644.53125	6.65784	3.90070	1.69969	17.48478
2648.43750	15.11955	5.51258	-1.52428	9.02320
2652.34375	19.95485	11.15381	-0.71895	4.99381
2656.25000	20.35793	9.54229	0.89227	2.17328
2660.15625	11.09069	5.51310	4.11510	7.81432
2664.06250	7.46442	1.08105	4.11458	13.85830
2667.96875	12.70265	0.67826	0.89068	9.02302
2671.87500	12.70285	1.88721	-1.93040	3.38195
2675.78125	15.52357	0.27561	-0.31917	4.59069
2679.68750	14.31495	6.72264	0.08320	8.61998
2683.59375	6.25653	7.52861	-1.12613	8.61995
2687.50000	3.83908	1.88778	-0.32078	21.51362
2691.40625	-0.99593	-3.35012	-1.12723	30.78101
2695.31250	5.85397	-4.15585	0.88695	24.73710
2699.21875	8.67460	-0.52940	2.90109	16.27559
2703.12500	7.06307	2.69419	0.08002	-4.27378
2707.03125	11.49552	8.73827	2.09416	-11.92942
2710.93750	11.49576	6.72378	4.91422	-1.45318
2714.84375	10.69004	4.30643	2.89909	4.59089
2718.75000	8.67551	4.30658	1.68981	13.45535
2722.65625	14.71958	2.29208	2.49516	18.29050
2726.56250	22.37537	1.48636	5.71813	12.24663
2730.46875	15.92847	-0.12515	4.91179	7.00863
2734.37500	11.09338	-5.36312	1.68784	6.20281
2738.28125	11.09355	3.50142	0.07555	1.36758
2742.18750	9.07911	7.93381	-1.13380	2.97912
2746.09375	7.06463	1.89003	-1.13435	14.66400
2750.00000	7.46766	4.71072	-0.73191	22.31956
2753.90625	5.85613	5.91970	-1.53827	17.48433
2757.81250	3.03575	0.27876	0.47588	10.23156
2761.71875	1.82712	-2.13863	2.49004	7.81399
2765.62500	4.24493	-3.75021	1.68372	14.66382
2769.53125	10.28904	-0.12368	5.71252	17.08134
2773.43750	5.45399	3.90573	5.71204	2.57580
2777.34375	4.64823	4.30882	3.29395	-3.06530
2781.25000	11.09523	5.92068	5.71106	0.96392
2785.15625	7.46901	2.69740	7.32225	-7.90051
2789.06250	2.23109	-2.13757	8.12762	-13.94442
2792.96875	-0.58936	-1.73453	7.32117	-8.30329
2796.87500	1.82838	1.48907	-0.33499	-1.85644
2800.78125	5.05198	9.54783	-1.54428	10.63427
2804.68750	6.26099	8.33914	0.87285	10.23119
2808.59375	7.87286	3.50409	4.90165	-1.85678
2812.50000	9.08174	5.11596	7.31870	-3.46853
2816.40625	10.69356	8.33950	8.52704	-0.64784
2820.31250	8.27622	9.95131	7.72072	7.00795
2824.21875	1.02364	6.32510	3.28803	4.59047
2828.12500	-1.39388	1.89299	3.28757	-7.90035
2832.03125	3.03845	1.49018	6.51053	-7.09452
2835.93750	8.67954	3.90791	4.09241	7.41100
2839.84375	12.70905	-0.12125	2.48019	19.09603
2843.75000	15.12692	-0.92693	4.89729	21.11071
2847.65625	13.91835	4.71421	2.07621	10.63452
2851.56250	11.09798	5.52017	2.88161	4.99338
2855.46875	13.51571	5.52031	6.10449	4.99334
2859.37500	13.91886	2.29707	3.28348	3.38171
2863.28125	9.88981	2.29726	-0.74631	6.60517
2867.18750	8.27838	5.52083	1.26783	7.41095
2871.09375	8.68148	7.93863	2.87907	10.63435
2875.00000	8.27869	5.52123	2.07265	15.06654
2878.90625	6.26423	4.71558	1.66923	15.87246
2882.81250	4.65270	6.32752	-1.15186	9.82851
2886.71875	4.65283	4.31302	-2.76407	2.57576
2890.62500	8.68226	-0.11909	-0.74995	-1.05068
2894.53125	9.08539	4.71619	0.45831	-8.70644
2898.43750	2.63864	11.16324	-1.55688	-0.64780
2902.34375	1.02709	9.95461	0.05427	11.03713
2906.25000	3.84770	7.13427	0.85967	9.02244
2910.15625	5.86244	-1.73008	-0.75261	6.60489
2914.06250	9.89189	-0.92401	-1.15609	3.38143
2917.96875	15.93594	6.73177	0.05220	11.03703
2921.87500	17.95072	9.14955	1.66344	11.43991
2925.78125	17.14509	7.94095	-0.35174	-2.25986
2929.68750	9.08669	2.70297	0.45359	-6.28920
2933.59375	2.23697	2.70309	0.85602	-6.28925
2937.50000	5.05754	4.31500	0.85548	-0.24545
2941.40625	10.69871	3.91220	0.85497	4.58963
2945.31250	9.89305	-3.34036	-1.56315	0.56030
2949.21875	4.65515	-4.54895	-3.17543	0.56040
2953.12500	7.07291	-0.51946	1.25633	6.60443
2957.03125	9.89353	6.33060	4.47929	12.24541
2960.93750	7.07318	11.56888	2.86714	10.63373
2964.84375	7.07333	10.36024	0.04612	1.76925
2968.75000	5.05881	3.51059	-1.16315	-5.08052
2972.65625	-2.99964	-2.13018	3.67155	-1.05119
2976.56250	-11.05814	-2.93586	8.10330	3.78396
2980.46875	-9.44624	-0.92102	4.87940	-0.24537
2984.37500	-8.64030	1.49675	1.25252	-2.26002
2988.28125	-9.84893	-0.92066	2.05790	-4.67752
2992.18750	-9.84875	-2.93522	-0.36012	-5.08049
2996.09375	-3.40171	-4.54689	2.05693	1.36630
