 	TP9	AF7	AF8	TP10	
-1000.00000	-12.07474	-7.52141	-3.82811	-13.05318
-996.09375	-14.08990	-7.92457	-3.42549	-4.59223
-992.18750	-11.67288	-8.32769	-0.60529	0.24228
-988.28125	-8.45009	-6.71620	1.40909	-11.04050
-984.37500	-8.45070	-1.07534	0.60287	-13.45885
-980.46875	-7.24251	0.53615	-2.21794	-11.44484
-976.56250	-5.63146	-0.67286	-6.24758	-9.02788
-972.65625	-6.03500	-1.07596	-5.44205	-6.61094
-968.75000	-12.07965	-4.29963	-2.62184	-4.99992
-964.84375	-12.08028	-7.52329	-2.62215	-5.40350
-960.93750	-6.84282	-7.12063	-2.21952	-7.41885
-957.03125	-6.03757	-7.52375	-3.02569	-1.77857
-953.12500	-4.42657	-7.12106	-4.63778	5.87634
-949.21875	-6.03894	-7.92710	-5.44400	-2.18309
-945.31250	-2.81614	-8.73315	-3.83259	-14.27182
-941.40625	4.03297	-7.92752	-3.43002	-18.30193
-937.50000	1.21178	-9.13656	-6.65382	-22.33207
-933.59375	-8.86224	-5.91334	-6.65414	-15.08015
-929.68750	-16.11575	-1.88427	-7.05736	-11.85751
-925.78125	-12.08721	-1.88453	-8.26651	-13.06712
-921.87500	-1.20880	-1.07887	-9.87861	-14.67963
-917.96875	4.02858	-1.07909	-9.87894	-17.50100
-914.06250	2.01321	-1.48226	-7.05872	-14.68127
-910.15625	2.01246	-1.48249	-6.25319	-18.71143
-906.25000	-1.61467	-2.69155	-5.85056	-13.07114
-902.34375	-7.25637	0.12868	-4.23917	-0.98402
-898.43750	-6.04826	2.54606	-3.43363	-4.61117
-894.53125	-5.24313	1.33704	-2.62811	-8.64131
-890.62500	-13.30244	1.73981	-3.83718	-3.80700
-886.71875	-13.70612	0.93377	-3.83749	-1.39020
-882.81250	-4.03650	-2.28989	-2.62907	-2.59977
-878.90625	-6.05189	-2.69304	-3.03231	-5.42103
-875.00000	-7.26143	-1.88739	-5.04731	-8.24235
-871.09375	-8.47094	-2.69345	-5.04765	-9.45196
-867.18750	-9.27750	-3.49950	-2.63045	-5.02056
-863.28125	-3.23430	-1.48505	-2.22782	-1.39498
-859.37500	0.39125	-0.67943	0.18945	-2.20164
-855.46875	1.19641	-0.27668	3.00960	-6.23180
-851.56250	5.22498	-0.27688	4.21806	-5.42667
-847.65625	5.22424	0.12583	1.80012	-2.60703
-843.75000	3.61179	0.12563	-0.21487	-0.59319
-839.84375	10.05799	-0.68043	2.20241	3.83831
-835.93750	6.02795	0.12521	0.99327	3.03160
-832.03125	1.59493	-1.08373	1.39589	3.83669
-828.12500	-5.25568	-1.48691	3.41023	6.25343
-824.21875	-10.49463	-3.09884	3.81280	5.84972
-820.31250	-5.25730	-4.30786	0.99198	2.22251
-816.40625	-7.27264	-0.68173	-3.03764	-1.40462
-812.50000	-9.28803	-1.48782	-0.21748	-1.40542
-808.59375	-11.70645	-3.09976	-0.21780	-2.61501
-804.68750	-4.85745	0.92929	3.00534	0.60758
-800.78125	1.18578	2.54073	4.61672	-2.21378
-796.87500	-6.87370	1.73467	0.58709	-11.07916
-792.96875	-6.06859	2.94327	-0.62203	-12.28884
-789.06250	-3.65183	2.54009	-2.63701	-2.21638
-785.15625	-5.26433	4.15161	-1.42856	1.00617
-781.25000	-9.29440	2.13672	-1.83180	-6.65032
-777.34375	-9.29515	-0.28112	-5.86143	-7.05413
-773.43750	-8.49004	-0.68434	-4.65301	-6.24909
-769.53125	-12.52003	-1.08749	-1.83278	-12.29380
-765.62500	-10.50606	-0.28187	-1.43021	-10.68283
-761.71875	-2.44817	-0.68505	-1.02760	-3.83386
-757.81250	4.40097	0.92648	-2.63969	-9.87856
-753.90625	0.37092	1.73211	-2.23707	-14.31156
-750.00000	-7.68838	0.92603	-1.02860	-1.82151
-746.09375	-7.68911	3.34334	-1.43188	0.19235
-742.18750	-7.68993	3.34311	-1.43220	-11.49338
-738.28125	-8.09359	1.32823	0.17923	-3.03254
-734.37500	-3.66208	-0.28369	0.58179	5.42821
-730.46875	2.38115	0.92488	1.79025	5.42741
-726.56250	1.97757	3.34219	1.38704	0.59150
-722.65625	-1.24662	3.74492	-1.03086	-7.06502
-718.75000	3.18489	4.95349	-1.43413	-10.69222
-714.84375	8.01933	8.57960	-1.83736	-9.48433
-710.93750	3.58636	9.78817	0.17697	1.39401
-707.03125	-2.05533	7.77328	2.59417	4.21373
-703.12500	-4.87656	5.35546	0.98213	-1.83095
-699.21875	-3.26541	3.34061	0.98181	-2.23454
-695.31250	-5.28072	1.72870	3.39911	-3.84708
-691.40625	-8.50495	0.11674	3.80171	-3.44494
-687.50000	-5.68533	0.11653	3.39851	7.43334
-683.59375	-0.04508	1.72807	2.18940	10.25304
-679.68750	1.16300	3.74251	0.17444	-0.22384
-675.78125	-1.65827	5.75694	-0.63178	-6.67151
-671.87500	3.98208	5.35377	1.38262	-8.68697
-667.96875	3.17553	1.72725	2.59104	-11.10538
-664.06250	-6.89851	1.32414	0.57607	-9.49450
-660.15625	-10.52557	0.11516	-0.63306	-0.22785
-656.25000	-13.74968	-2.30258	2.99301	-3.45209
-652.34375	-14.15333	-0.28816	1.78389	-10.30274
-648.43750	-16.16875	-0.28841	-4.26038	-13.92985
-644.53125	-15.76653	0.51721	-4.66363	-15.13942
-640.62500	-8.91747	4.54631	-4.66394	-10.30508
-636.71875	-0.45666	5.35194	-3.45544	0.97616
-632.81250	3.57194	6.15765	1.37945	9.43689
-628.90625	1.95956	7.36619	2.58785	9.03321
-625.00000	6.39113	6.56015	2.18462	2.98840
-621.09375	7.19626	8.17171	4.19893	-1.84759
-617.18750	14.85117	10.58906	8.22788	3.38969
-613.28125	21.29734	10.18598	7.42168	1.77721
-609.37500	1.55301	7.76820	2.98911	-3.05877
-605.46875	-8.11808	5.35038	1.78000	0.96978
-601.56250	3.56608	6.15606	2.98847	0.56613
-597.65625	1.55076	6.96168	4.19696	3.38589
-593.75000	-1.67336	6.15561	5.40546	8.62325
-589.84375	-0.06231	2.52898	2.98755	-1.45072
-585.93750	-1.27184	2.12587	0.56963	-6.28666
-582.03125	-0.06376	6.15497	-0.23654	0.56245
-578.12500	0.33842	6.55764	0.56899	2.17344
-574.21875	-0.06516	4.54278	1.37457	4.99323
-570.31250	7.58983	4.13969	-1.04335	2.17192
-566.40625	3.15694	2.12484	-3.05833	-3.87278
-562.50000	-6.51408	0.51288	-1.04400	1.76750
-558.59375	-5.30593	3.73615	2.17913	2.16964
-554.68750	-5.30658	5.75063	1.77585	-5.48678
-550.78125	-5.71019	4.54163	-0.64210	-5.48760
-546.87500	-6.91968	5.75021	-0.23949	-4.27971
-542.96875	-8.93503	3.73533	0.56602	2.56932
-539.06250	-3.29474	0.10870	0.16277	3.77731
-535.15625	3.95722	-0.69736	-1.44934	-0.65582
-531.25000	1.94180	1.72003	-1.04673	-0.65672
-527.34375	-1.28246	2.92864	0.96760	2.56584
-523.43750	7.58115	5.34597	2.17608	9.01184
-519.53125	7.98325	6.95748	1.36990	7.39922
-515.62500	2.74433	4.13676	-0.64514	6.18960
-511.71875	7.98172	4.13655	-0.24253	6.18882
-507.81250	6.77224	3.73338	0.56297	11.02326
-503.90625	-4.10755	-0.69908	2.98025	12.23127
-500.00000	-7.33175	2.12127	1.77113	4.17187
-496.09375	3.94948	5.34445	-1.45266	-5.90216
-492.18750	10.39554	4.53837	-3.46766	-9.52937
-488.28125	2.33613	5.74695	-3.06504	-2.68024
-484.37500	-1.69385	4.94092	0.56097	3.76589
-480.46875	-5.32091	2.92609	-0.64816	-0.26425
-476.56250	-7.33624	5.74638	-3.06605	0.94370
-472.65625	-2.50175	8.16380	-3.87225	4.97229
-468.75000	-3.30834	7.76066	-3.87260	3.35973
-464.84375	-3.30907	7.76046	-1.85827	3.35898
-460.93750	-5.32439	7.35731	-4.27619	-7.92374
-457.03125	-5.72797	5.34247	-7.09700	-15.98308
-453.12500	-1.69931	3.73059	-4.67979	-11.55167
-449.21875	-2.90878	1.71577	-0.65084	-10.34362
-445.31250	-2.50665	-0.70201	-0.65117	-8.73267
-441.40625	-4.11907	-2.71684	-2.26319	2.14562
-437.50000	-6.53737	-1.50823	-0.65184	-3.09325
-433.59375	-3.71757	-0.29962	-3.06971	-9.94385
-429.68750	-5.73291	-1.10565	-3.07005	-1.88604
-425.78125	-9.35993	1.31172	0.55597	2.14251
-421.87500	-11.77819	1.71451	0.15272	0.12713
-417.96875	-0.89968	0.90847	2.16701	6.57331
-414.06250	1.92013	0.90827	3.37545	9.39303
-410.15625	-0.90113	2.92274	3.37508	3.75122
-406.25000	5.54493	4.53423	3.37474	-0.27890
-402.34375	4.33542	1.71353	1.35976	2.13779
-398.43750	4.33467	2.11628	2.16529	6.97213
-394.53125	5.54266	2.11608	2.56789	0.92730
-390.62500	5.94482	-1.10758	3.37349	0.12062
-386.71875	6.74984	0.10093	2.97019	9.38715
-382.81250	3.12274	3.72713	1.35815	10.99813
-378.90625	-4.53367	4.12987	2.96951	9.78864
-375.00000	-5.34019	1.30907	1.76038	7.37036
-371.09375	-1.71443	0.50306	-1.06045	-2.30058
-367.18750	-4.13247	-0.30295	0.55091	-9.55396
-363.28125	1.50802	0.90565	0.95353	-10.36041
-359.37500	6.74552	0.90546	0.55022	-5.52587
-355.46875	11.17713	2.11404	0.95282	4.54672
-351.56250	18.42929	3.32254	0.95251	7.76955
-347.65625	7.95252	1.71062	2.16100	8.17183
-343.75000	-2.92717	0.50160	0.95187	10.58884
-339.84375	-4.13656	1.30724	1.35448	10.99124
-335.93750	0.69801	2.91881	-0.25763	7.76725
-332.03125	4.72675	1.30685	-3.07849	-1.50062
-328.12500	-5.74999	-2.72266	0.14460	-7.54500
-324.21875	-8.57103	-0.70822	0.95007	-2.30737
-320.31250	-6.95983	4.12677	0.94969	1.31843
-316.40625	-6.96034	4.93242	0.14347	-3.92017
-312.50000	-0.51397	2.51464	-2.67744	-7.14414
-308.59375	0.29140	0.49981	-3.88655	-6.33889
-304.68750	-6.55885	2.51428	-2.27521	-1.90727
-300.78125	-11.39453	2.91704	-1.46971	8.16536
-296.87500	-12.20101	0.90219	-1.06712	-1.10266
-292.96875	-12.20164	1.30487	0.54422	-10.37074
-289.06250	-11.39636	2.11056	0.14097	-3.92450
-285.15625	-8.57649	2.91624	-1.47115	4.53642
-281.25000	-0.51855	6.54241	1.34902	2.11817
-277.34375	4.71888	10.97447	2.96033	-5.94113
-273.43750	-2.93741	10.57132	1.34828	-1.91248
-269.53125	-3.34094	8.95942	0.54202	2.92208
-265.62500	-0.11804	5.33281	1.75048	1.30982
-261.71875	-6.16256	3.31795	3.36189	2.51799
-257.81250	-4.95438	6.13831	2.95860	5.74071
-253.90625	-4.95498	4.52636	4.56995	5.74001
-250.00000	-6.56726	1.30273	4.56963	0.90418
-246.09375	-4.15027	1.70548	2.95760	-0.30520
-242.18750	0.28129	2.91408	2.55428	-3.93219
-238.28125	-0.12230	2.91387	3.35983	-2.72413
-234.37500	-5.36107	0.89903	2.55359	-0.30738
-230.46875	-3.74991	1.70469	0.53862	-1.11394
-226.56250	-0.12407	2.51033	2.15005	3.72057
-222.65625	2.69582	3.71892	4.16435	1.30222
-218.75000	8.33623	6.53920	4.16399	-6.35414
-214.84375	1.08276	4.52433	3.35779	-6.35483
-210.93750	-8.99127	0.89777	1.74568	4.52357
-207.03125	-8.18600	0.09165	1.34244	5.73162
-203.12500	-6.17198	1.70319	0.13331	-1.11889
-199.21875	0.67711	2.10595	0.13299	1.70104
-195.31250	6.72039	0.89698	0.53555	3.31208
-191.40625	4.30221	0.89679	-1.47941	-0.31498
-187.50000	-1.33949	-1.92397	-1.88261	0.89303
-183.59375	1.48039	-0.31241	2.95224	-1.52517
-179.68750	2.28562	4.11967	2.14608	-0.71996
-175.78125	-0.93844	3.71655	-2.28648	8.54677
-171.87500	-0.53622	4.52223	-1.48093	4.51687
-167.96875	4.70122	5.32793	-1.48123	1.29283
-164.06250	9.13285	5.73073	-1.07859	6.93323
-160.15625	4.29711	4.11887	-0.67603	1.29154
-156.25000	-0.13582	2.90990	-0.67637	-3.94721
-152.34375	-4.97178	1.29795	-0.67673	0.88723
-148.43750	-5.37537	1.29777	-0.27414	0.08069
-144.53125	-4.97312	1.29759	0.12844	-2.74051
-140.62500	-5.37668	1.29738	0.93393	-3.95005
-136.71875	-1.34803	2.10308	1.33652	-5.56249
-132.81250	-0.54281	4.11752	-1.88729	4.10705
-128.90625	0.66537	2.90853	-1.08180	2.09171
-125.00000	4.69406	0.89371	-0.27627	-1.53530
-121.09375	5.90225	0.89355	0.12634	2.49330
-117.18750	8.72208	0.49044	-0.27696	-1.13384
-113.28125	11.54194	1.69910	-4.30661	-3.55205
-109.37500	5.09432	1.69893	-2.29232	0.87942
-105.46875	-0.95035	-0.71887	-1.08387	3.69921
-101.56250	-0.54816	0.08680	-0.27836	2.08673
-97.65625	-1.35473	2.10133	2.94473	-4.76390
-93.75000	-3.77301	-1.52526	-1.08491	-2.75007
-89.84375	-4.17655	-3.54007	-3.90574	4.09896
-85.93750	-1.75964	1.29492	-3.10024	0.06887
-82.03125	4.68666	2.10068	-1.08594	0.47110
-78.12500	7.50653	0.48876	1.33131	-1.14138
-74.21875	5.08836	2.10030	1.73385	3.69316
-70.31250	1.86431	5.32348	-1.08699	3.69258
-66.40625	6.29588	4.11454	-1.49030	-0.74036
-62.50000	17.17430	-0.72086	-1.08770	3.28821
-58.59375	6.69749	-1.92985	-1.08806	3.69048
-54.68750	-5.39103	0.89055	-1.89427	-3.96591
-50.78125	-5.79472	3.71089	-3.10343	-0.34025
-46.87500	-10.63067	2.90490	-4.31256	-0.74403
-42.96875	-9.42269	3.71059	-3.90995	-14.84751
-39.06250	-6.60304	3.71047	-5.11904	-17.66899
-35.15625	-8.61860	3.30741	-4.71642	-17.66992
-31.25000	0.24484	1.29259	-2.70212	-14.85039
-27.34375	7.09367	4.51582	-5.12001	-11.22511
-23.43750	5.07806	5.72440	-7.94089	-8.40563
-19.53125	5.07720	3.30667	-6.32937	-7.60060
-15.62500	4.67336	5.32117	-0.68865	-3.97516
-11.71875	-0.56553	4.51515	1.72861	-7.19963
-7.81250	-4.99858	-1.93192	1.72826	-3.57423
-3.90625	-7.01412	-6.36428	4.95135	8.10979
0.00000	-10.64134	-3.14103	2.53336	8.51185
3.90625	-11.44800	0.48513	0.11546	5.28752
7.81250	-13.46350	0.08202	1.72681	4.48078
11.71875	-6.61454	2.09657	1.72646	9.31506
15.62500	5.06974	3.70810	0.11444	8.50843
19.53125	1.03970	4.51379	0.51702	16.96921
23.43750	-5.40793	6.52826	2.53132	17.77430
27.34375	-3.79690	6.12517	0.91927	3.67107
31.25000	-1.37996	4.51324	0.91892	-0.76191
35.15625	-1.38064	3.30427	1.32150	1.65492
39.06250	-1.78432	2.49830	0.11231	3.26583
42.96875	1.03546	0.08058	3.73826	4.87678
46.87500	4.25811	2.49805	0.11153	2.86126
50.78125	9.89834	4.51254	-3.91814	3.26338
54.68750	15.53866	1.28892	-1.90386	14.54459
58.59375	26.41703	-0.72589	-0.29253	23.00536
62.50000	31.25152	-0.32310	-0.69586	28.24272
66.40625	28.02737	-1.53205	-0.69623	35.89773
70.31250	30.44426	0.07949	-2.30830	39.52337
74.21875	34.47290	0.88522	-5.12916	39.92550
78.12500	33.26346	-5.15889	-3.92075	39.52165
82.03125	29.63633	-7.97961	-3.92112	39.52078
85.93750	30.44147	-4.35340	-4.72736	37.10246
89.84375	31.24664	-3.14479	-4.72770	31.46072
93.75000	27.21652	-3.54793	-3.51926	33.07166
97.65625	31.24516	0.48119	-3.92249	26.62402
101.56250	25.60342	2.09277	-5.53461	23.39974
105.46875	14.72360	0.48084	-5.13201	22.99601
109.37500	15.52883	2.49530	-2.31186	18.16009
113.28125	14.31933	2.49512	0.91124	22.18860
117.18750	12.30402	-0.72852	1.31386	25.81416
121.09375	8.67693	-1.93749	0.50758	14.12842
125.00000	9.88503	-2.34053	-1.91034	9.29242
128.90625	11.49617	-1.13189	-1.91070	11.30630
132.81250	14.31610	-0.32618	0.10358	11.70858
136.71875	10.28618	-1.53513	0.90905	11.30497
140.62500	5.85331	0.88231	0.90865	6.06615
144.53125	15.12005	2.09096	-0.30057	13.31809
148.43750	15.52229	2.49366	-2.31562	16.13788
152.34375	12.29821	3.70227	-0.30137	16.54004
156.25000	13.10343	2.49332	1.31001	13.71882
160.15625	13.50572	0.88146	1.71254	10.49469
164.06250	19.95194	1.28421	3.72683	11.29984
167.96875	25.18946	3.29872	3.32360	12.10507
171.87500	17.53318	4.10449	2.51735	12.91025
175.78125	13.10024	5.31307	1.30825	9.68611
179.68750	10.27912	8.13347	2.11374	6.86494
183.59375	2.21993	7.73035	0.50163	4.04371
187.50000	3.42816	3.70087	0.50131	14.51924
191.40625	1.81583	1.28308	1.30690	17.33907
195.31250	2.21807	0.07406	-1.51400	7.66804
199.21875	5.84382	-1.94082	-3.52898	-1.19721
203.12500	6.64898	-1.94101	-0.70881	-3.21259
207.03125	9.06584	2.49107	0.09672	-0.39282
210.93750	11.88557	4.10265	-1.51541	2.42686
214.84375	12.28778	1.28193	1.30480	3.23196
218.75000	14.70471	0.87890	2.51318	2.02248
222.65625	7.45139	2.89342	0.49817	3.63356
226.56250	5.03321	4.90793	0.09493	9.27388
230.46875	5.03256	5.31065	-0.30835	4.03509
234.37500	0.59972	3.69879	-1.51751	2.42270
238.28125	1.80788	5.71328	-1.92073	5.24256
242.18750	3.41889	6.51898	-1.11520	1.61556
246.09375	2.61233	5.31003	0.49617	1.21199
250.00000	1.40283	5.30988	0.49583	8.86706
253.90625	0.59637	2.89221	2.51013	7.65763
257.81250	-0.61308	3.29496	2.50978	6.85114
261.71875	-0.61376	3.29478	2.91238	4.43288
265.62500	2.60901	3.69757	3.71790	-1.20882
269.53125	0.59369	6.51790	2.50877	7.25202
273.43750	-2.22742	6.51773	1.70260	8.86306
277.34375	7.44220	5.71169	-0.31237	-5.24022
281.25000	7.44155	4.09979	-0.31271	-5.64375
285.15625	0.18813	3.29368	0.89574	4.83183
289.06250	4.21678	1.68182	-1.11927	0.80175
292.96875	3.41023	4.09926	0.89502	2.00985
296.87500	1.39500	7.72544	1.70049	-0.81129
300.78125	6.63251	8.53117	0.08841	-0.40906
304.68750	5.82605	8.53105	1.69971	9.26044
308.59375	-1.42733	5.71043	2.50518	4.42457
312.50000	-0.62216	6.11325	-0.71862	-3.63472
316.40625	3.40650	7.32184	-4.34531	-0.00906
320.31250	9.85278	5.30704	0.48949	10.46647
324.21875	8.64331	4.09816	3.71261	2.81008
328.12500	1.38995	5.30676	2.10058	-4.04035
332.03125	7.83629	9.73888	2.50313	-2.83222
335.93750	16.70014	10.54458	2.09985	-2.42995
339.84375	2.99994	9.33568	-0.31813	-4.44534
343.75000	-15.93839	5.30618	-1.12435	-12.90756
347.65625	-13.52138	4.90316	-1.93058	-12.10244
351.56250	-11.10451	5.70889	-1.52805	-6.05917
355.46875	-13.92565	4.09708	-3.54307	-12.50673
359.37500	-14.73211	4.09695	-1.93168	-18.55141
363.28125	-11.91227	4.18740	1.69431	-5.76334
367.18750	-10.30120	2.78602	-0.32067	7.35679
371.09375	-12.71932	1.11439	-1.93268	5.53159
375.00000	-10.30243	1.94878	-1.53012	-5.07636
378.90625	-4.66205	3.64011	1.29011	-12.85552
382.81250	-5.87147	1.37144	4.51316	-12.09056
386.71875	-1.43980	-0.90004	3.70696	-10.90981
390.62500	5.40944	-0.94729	0.08028	-13.74633
394.53125	-1.44092	0.36296	1.28874	-13.76676
398.43750	-5.47082	-0.72799	1.28841	-7.84408
402.34375	-8.69486	-1.43124	0.88513	-3.96524
406.25000	-10.71010	-0.95272	0.88480	-0.97051
410.15625	-6.27847	0.60896	0.88447	-5.16806
414.06250	-8.69669	-0.42972	4.51044	-7.51143
417.96875	-8.69734	-1.87306	2.89837	0.76641
421.87500	-1.44527	-0.99800	0.88336	2.49220
425.78125	-0.64004	1.01844	2.49468	-5.54836
429.68750	-3.86412	2.15916	2.89727	-6.21237
433.59375	-1.85008	1.98753	2.49396	0.80305
437.50000	1.77575	2.61960	-0.32692	7.74767
441.40625	3.78973	5.08751	0.47856	9.29537
445.31250	2.58029	7.83596	1.68700	9.19158
449.21875	0.16212	7.33223	-1.13388	8.49858
453.12500	-1.04718	6.80884	-1.13425	10.37756
457.03125	-2.25659	6.30038	-0.73170	8.27671
460.93750	0.16026	5.13825	-3.14961	7.58208
464.84375	-1.04918	3.78658	-5.16463	7.78144
468.75000	-7.89973	1.62539	-5.97084	1.48351
472.65625	-5.88576	1.94678	-3.15070	-6.58577
476.56250	-3.87175	1.10825	-1.94228	-6.49874
480.46875	-9.11047	-1.25074	-2.74857	-7.07556
484.37500	-7.90231	-5.48748	-1.94303	-3.74392
488.28125	-5.48534	-6.09378	-0.73466	-2.28671
492.18750	-8.30646	-1.31516	2.48844	-12.21014
496.09375	-6.29246	-0.87062	4.09985	-8.76511
500.00000	-5.89016	-0.38236	3.69654	0.78688
503.90625	-6.29360	1.36922	1.68151	6.44025
507.81250	-2.66777	-0.91429	3.29289	-0.00269
511.71875	-0.25071	-2.16968	2.88957	0.35337
515.62500	1.76334	-0.44397	0.87456	12.77021
519.53125	0.95691	0.89075	2.08297	7.00152
523.43750	-5.49069	2.19522	2.08258	-2.77033
527.34375	-9.52071	0.64627	4.49975	-0.94396
531.25000	-12.74482	0.59410	4.90233	0.47863
535.15625	-14.35724	3.59613	0.06679	-4.74033
539.06250	-18.79007	2.96877	2.08104	-8.97094
542.96875	-20.80525	-1.39865	3.69236	-11.63440
546.87500	-15.16472	-1.81291	4.49786	-13.58348
550.78125	-15.56815	-0.67700	4.49750	-17.88364
554.68750	-20.40391	-0.83874	1.27376	-17.77228
558.59375	-12.74876	-1.00093	1.67633	-13.67622
562.50000	-5.89952	-1.75823	3.69065	-10.07906
566.40625	0.94978	0.17154	3.69030	-8.51890
570.31250	2.56085	-0.74224	4.89878	-1.15154
574.21875	-5.09545	-2.86949	5.30142	-1.74119
578.12500	-9.12540	-0.94773	4.49517	-6.29691
582.03125	-9.93188	-1.30292	0.86847	-4.95186
585.93750	-11.14124	-0.24896	-0.34070	-0.26556
589.84375	-13.15648	1.20702	2.07655	-4.53570
593.75000	-5.90432	2.74267	1.27034	-10.23302
597.65625	-0.26383	1.51429	1.26998	1.89711
601.56250	2.15314	1.17360	2.47838	8.18461
605.46875	-3.48849	4.17901	0.06050	-4.54600
609.37500	-9.53313	5.97930	-3.16326	-13.54121
613.28125	-13.96605	5.92556	-0.34310	-20.68252
617.18750	-15.57836	4.36846	2.07416	-22.12321
621.09375	-17.99655	2.84831	1.67086	-20.62673
625.00000	-19.20597	1.77074	1.26764	-13.71182
628.90625	-13.16263	0.68375	0.46141	-6.42146
632.81250	-9.13393	3.05483	-1.15062	-13.34733
636.71875	-11.14924	4.39001	-2.76271	-15.08698
640.62500	-13.16449	0.89798	-1.55424	-9.58194
644.53125	-11.15041	3.00178	-3.56925	-8.82938
648.43750	-5.10704	4.26037	-3.56961	-12.60202
652.34375	-3.89877	3.80277	-1.15236	-18.85407
656.25000	-10.34623	1.57788	-3.97321	-21.30760
660.15625	-12.76435	0.96087	-3.97356	-16.29031
664.06250	-8.33266	3.03635	-2.76518	-12.86820
667.96875	-3.49805	6.23539	-2.76552	-11.54537
671.87500	-7.12498	6.96323	-4.37756	-5.37712
675.78125	-7.93138	3.58748	-5.58671	-11.76646
679.68750	-0.67915	3.03421	-7.19874	-18.57916
683.59375	3.34966	1.06685	-6.39322	-17.36632
687.50000	3.75210	0.16344	-4.37889	-10.51505
691.40625	0.93102	1.65969	-5.18508	1.69120
695.31250	-6.72532	3.16623	-5.58840	1.45413
699.21875	-13.17281	3.08611	-4.78292	-8.37831
703.12500	-7.93530	1.92654	-4.38032	-12.65089
707.03125	-1.89196	3.37171	-2.36603	-3.07443
710.93750	-3.10126	4.41510	-1.56054	-1.68868
714.84375	-2.69889	3.94114	-1.15792	-3.80417
718.75000	4.15038	1.92005	-0.35242	3.84766
722.65625	6.16441	0.77766	-2.77038	6.92420
726.56250	8.17846	3.77287	-2.77075	4.72454
730.46875	4.55145	1.93554	-5.18865	9.05171
734.37500	1.32747	0.27248	-7.20365	10.33510
738.28125	-2.70232	2.35476	-4.38352	4.41082
742.18750	6.16167	1.64708	-1.96627	4.29663
746.09375	24.69595	0.96404	-3.98127	13.68109
750.00000	29.12758	1.47636	-3.98162	23.82716
753.90625	30.73876	-1.39098	-0.35563	20.90296
757.81250	29.12638	-3.67001	-1.96767	22.73520
761.71875	29.12575	1.30832	-4.38562	19.76838
765.62500	32.75153	4.61494	-7.60942	17.74756
769.53125	39.19783	1.83117	-5.99801	42.22332
773.43750	41.21182	1.37043	-3.17787	48.04218
777.34375	37.58475	1.57403	-1.96946	42.71292
781.25000	34.76367	2.17646	-1.56696	45.69410
785.15625	34.76309	2.63673	-3.17904	41.09771
789.06250	35.97132	3.00209	-3.17942	34.00840
792.96875	33.95611	1.70966	-2.77691	38.96220
796.87500	34.76137	-1.65692	-3.58314	34.93690
800.78125	32.34315	-3.40697	-0.76301	28.89847
804.68750	20.25469	-6.58386	2.05717	32.15738
808.59375	12.59846	-5.88816	1.65385	28.58581
812.50000	12.59788	-3.59400	1.25059	27.09810
816.40625	12.19442	-4.90094	0.04141	26.40870
820.31250	15.41733	-6.57999	0.04104	20.16245
824.21875	22.26661	-6.12595	0.44358	16.71727
828.12500	22.26608	-5.49806	0.84619	19.49907
832.03125	9.37175	-5.67339	1.65168	17.27558
835.93750	-1.10493	-5.33691	0.84547	12.29631
839.84375	-0.70258	-1.70384	3.26270	15.46884
843.75000	0.90866	-1.22985	4.06816	16.94414
847.65625	6.95211	-2.27390	2.85897	14.39587
851.56250	10.17509	-2.91392	2.85857	17.13884
855.46875	7.35404	-2.96327	2.85819	16.77534
859.37500	6.54763	-0.86823	1.24615	13.61963
863.28125	17.42618	-1.16595	0.03699	14.71336
867.18750	24.67830	-1.05108	-0.36633	8.03202
871.09375	7.75454	1.06039	-1.17255	-1.12587
875.00000	6.54511	2.22161	-1.97875	7.60919
878.90625	12.99144	1.96923	-0.77037	13.81899
882.81250	8.15573	2.12163	0.43808	8.42217
886.71875	8.96099	3.40796	1.24364	7.65633
890.62500	7.34865	2.22282	0.03451	6.38896
894.53125	2.51293	3.37033	-2.78636	1.71651
898.43750	8.95922	4.39048	-3.18957	0.76454
902.34375	15.00262	1.78034	-2.78700	4.12550
906.25000	14.19626	0.62592	-3.59318	4.00015
910.15625	12.98685	0.97827	-4.39937	5.01981
914.06250	13.79203	0.08266	-4.39970	2.31417
917.96875	11.37380	-1.26044	-1.57954	-2.97269
921.87500	2.10570	-2.59550	0.03186	-6.62659
925.78125	0.09045	-1.74348	-1.17728	-8.17290
929.68750	-7.16289	-0.65728	0.83702	-0.81139
933.59375	-19.25140	-1.99791	2.04544	-3.09720
937.50000	-16.83440	-2.89534	2.44796	-2.22336
941.40625	-14.01443	-5.77029	4.46226	0.35340
945.31250	-13.61199	-8.53723	3.65604	-3.47517
949.21875	-7.16569	-7.11483	3.25277	-5.87629
953.12500	-8.77798	-7.30047	4.05826	-1.23116
957.03125	-7.56975	-6.55695	4.05791	2.20911
960.93750	1.29413	-5.73127	5.66925	-5.14271
964.84375	-5.55628	-6.05819	2.84839	-2.04713
968.75000	-12.00379	-5.09721	0.02755	-10.18235
972.65625	-11.19852	-2.92851	1.63889	-9.42487
976.56250	-16.03415	-2.57352	5.66784	3.07165
980.46875	-14.02002	-3.68919	4.05582	-2.95727
984.37500	-10.79712	-5.18822	-1.18261	-12.74575
988.28125	-9.99176	-5.48381	-1.58590	-13.33254
992.18750	-5.15713	-9.42905	0.42844	-14.39355
996.09375	-6.76932	-9.88091	1.63691	-24.21728
1000.00000	-16.03723	-3.67461	0.83072	-24.10633
1003.90625	-18.85835	-5.93032	0.83039	-18.23545
1007.81250	-14.42686	-8.27553	0.42709	-18.15057
1011.71875	-7.17473	-2.62394	-1.99078	-19.37229
1015.62500	-14.83094	0.53429	-0.78241	-24.46079
1019.53125	-22.48721	-1.25576	-1.18568	-24.25881
1023.43750	-20.87609	-3.45179	-1.18606	-14.47599
1027.34375	-21.68270	-2.99707	1.63406	-16.98152
1031.25000	-14.43058	-2.65756	0.82780	-23.96951
1035.15625	-1.53737	-1.94791	2.03622	-12.57446
1039.06250	-3.14961	-3.28253	0.42411	-3.40809
1042.96875	-2.34427	-5.41101	-2.79970	-3.47023
1046.87500	2.49037	-4.55878	-2.39710	-1.36207
1050.78125	4.50447	-0.66431	-2.39746	-9.66065
1054.68750	4.10106	0.80694	-2.39782	-7.50443
1058.59375	-0.73464	-1.69611	-1.59233	0.97766
1062.50000	-0.73510	1.08309	-0.38389	5.92917
1066.40625	8.53183	5.57172	0.42159	8.16224
1070.31250	16.99287	4.96850	0.01834	3.39861
1074.21875	17.39527	3.16063	-0.38499	6.85556
1078.12500	19.00636	3.90775	-1.59416	15.49315
1082.03125	14.57354	5.14945	-0.38571	6.48048
1085.93750	11.75249	6.03684	0.01689	-0.89371
1089.84375	14.97543	3.36221	1.22534	5.93315
1093.75000	14.97501	0.28094	4.04550	7.52748
1097.65625	9.33344	0.63689	3.23929	2.66595
1101.56250	8.92997	2.35435	3.23893	4.64247
1105.46875	8.92941	2.07189	4.85029	14.18969
1109.37500	-1.14445	-1.45431	7.26760	15.66730
1113.28125	-7.59199	-1.78597	5.25263	8.60204
1117.18750	-7.18971	-1.03081	2.02881	6.41189
1121.09375	-1.14635	-0.05105	1.62548	11.30285
1125.00000	2.47936	3.74701	1.22220	18.36625
1128.90625	2.07582	4.21762	4.04232	20.91239
1132.81250	6.91049	0.99161	4.04194	10.87301
1136.71875	9.32745	0.11608	1.22108	3.35591
1140.62500	10.93859	1.15662	0.41480	3.90644
1144.53125	14.16155	2.59837	3.23500	8.02147
1148.43750	8.11713	3.85691	5.24928	11.99875
1152.34375	-1.15083	3.78051	6.05475	5.86851
1156.25000	2.47494	5.28906	4.84557	6.78782
1160.15625	4.08620	3.96248	3.63642	3.00882
1164.06250	-5.58461	-0.16813	0.00972	-2.32764
1167.96875	-18.47896	-0.92699	-2.40824	5.85088
1171.87500	-22.50884	-1.07386	-1.60271	-6.42236
1175.78125	-20.89761	-0.82048	-0.39424	-19.96877
1179.68750	-23.71869	-1.30304	-1.20042	-17.57712
1183.59375	-21.30166	-2.54012	-1.20074	-21.93700
1187.50000	-18.48172	-4.09207	1.21652	-31.77594
1191.40625	-20.09395	-5.10889	1.61907	-26.41122
1195.31250	-18.88561	-3.30116	0.81289	-12.85834
1199.21875	-20.90074	-0.93910	1.61841	-11.51264
1203.12500	-11.23097	-2.10194	1.61808	-14.93417
1207.03125	-8.81392	-4.02922	-0.39690	-18.27472
1210.93750	-21.30534	-5.90687	-3.62070	-21.87104
1214.84375	-23.32055	-8.19443	-4.42691	-22.25886
1218.75000	-17.27722	-9.44971	-5.23314	-20.70399
1222.65625	-15.26323	-6.51103	0.00458	-12.33434
1226.56250	-22.51664	-4.77063	0.40711	-9.24102
1230.46875	-16.47329	-5.48297	-6.44307	-16.17603
1234.37500	-7.20643	-6.23044	-6.04050	-12.72395
1238.28125	-7.60991	-6.68631	-5.63795	-14.53127
1242.18750	-5.19294	-6.09807	-3.62367	-17.35093
1246.09375	-2.77582	-6.31909	-4.83284	-16.75259
1250.00000	-2.77628	-4.24098	-6.44490	-14.96969
1253.90625	-3.58258	-4.25659	-4.02764	-1.59122
1257.81250	-2.37424	-3.12222	-0.80459	5.38809
1261.71875	1.25163	-3.28077	0.80680	0.24347
1265.62500	5.28043	-5.85661	1.61229	5.94162
1269.53125	1.65356	-5.80844	0.40314	4.71510
1273.43750	-6.40560	-5.89757	-1.61182	-5.79491
1277.34375	-4.79443	-4.79917	-1.20918	-6.48504
1281.25000	-4.79491	-4.10337	-2.82127	-7.09153
1285.15625	-10.43646	-5.80377	-2.01572	-9.64526
1289.06250	-9.22818	-4.14387	-0.80732	-7.48621
1292.96875	-10.43749	-1.88500	-2.41934	-3.99029
1296.87500	-15.27311	-2.04397	-2.01672	-4.62930
1300.78125	-11.24436	0.29927	-0.00243	-3.08875
1304.68750	1.24593	5.11929	2.81774	-2.65876
1308.59375	2.45418	3.57115	1.20573	-6.84293
1312.50000	1.24487	0.93212	-0.00342	-5.45270
1316.40625	2.05016	5.14631	0.80209	-7.58966
1320.31250	-3.59141	4.69059	-0.40705	-11.11708
1324.21875	0.03437	1.92907	-2.01912	-10.15720
1328.12500	2.45139	1.61992	-2.82543	-11.48065
1332.03125	-2.38437	-1.47510	-2.82580	-9.78645
1335.93750	-2.38500	-0.55152	-2.42319	-2.88757
1339.84375	1.24075	3.02836	-0.40890	-7.40545
1343.75000	7.68711	5.57643	-0.00632	-10.77503
1347.65625	9.29830	4.90793	-0.81258	-8.09367
1351.56250	6.47728	4.18924	0.79881	-9.33977
1355.46875	-0.77604	5.04056	0.39551	-11.08337
1359.37500	-4.80588	3.77616	-2.82828	-6.05913
1363.28125	-9.64151	0.74908	-2.42568	-3.29282
1367.18750	-13.26839	-0.67032	-1.21723	-5.53494
1371.09375	-13.26889	0.59816	-1.21761	-9.35201
1375.00000	-12.06059	0.97228	1.19962	-10.83319
1378.90625	-13.26988	-1.12219	0.39333	-7.89035
1382.81250	-19.31433	-0.86842	-2.83051	-3.01545
1386.71875	-11.65909	0.19394	-4.03960	0.23489
1390.62500	0.42829	2.25562	-4.44287	-5.79424
1394.53125	-1.58695	0.94500	-2.02562	-3.76038
1398.43750	-6.42266	-3.20237	0.79451	-0.01394
1402.34375	-8.03495	-4.51399	2.00296	4.56774
1406.25000	-7.63248	-5.39569	1.59969	9.63058
1410.15625	-10.05052	-6.55468	2.00231	-2.29021
1414.06250	-13.67736	-5.51624	4.01663	-10.42421
1417.96875	-14.08080	-5.68488	2.80750	-11.85331
1421.87500	-5.21678	-6.56015	2.80715	-6.32756
1425.78125	0.82681	-6.56218	4.01561	-10.77904
1429.68750	-1.99422	-6.09136	-0.41697	-17.36895
1433.59375	-3.20345	-3.50236	-2.02902	-0.61261
1437.50000	-1.99518	-2.52297	-0.82067	4.52956
1441.40625	-5.21905	-3.37940	-0.01516	-5.07800
1445.31250	-9.65169	-2.09872	0.38735	-9.00475
1449.21875	-12.47273	-2.80405	2.40163	-8.31302
1453.12500	-12.87609	-2.28089	3.20715	-6.16399
1457.03125	-9.25017	-2.57850	1.19211	3.18842
1460.93750	-7.23596	-1.81966	-1.22588	-0.55035
1464.84375	-0.38656	-2.48288	-2.03211	-4.78006
1468.75000	2.03050	-3.54544	0.38505	-3.31851
1472.65625	0.82127	-0.64366	-0.01823	-11.36772
1476.56250	-11.67005	1.40340	0.78724	-15.88813
1480.46875	-27.78778	1.74750	2.39853	-19.34180
1484.37500	-25.77364	1.95472	1.59231	-23.48049
1488.28125	-20.93896	0.94904	1.18906	-25.74473
1492.18750	-22.95415	3.42293	1.18871	-25.08977
1496.09375	-28.19282	7.00742	1.59125	-29.34181
1500.00000	-31.81967	8.93647	1.59089	-43.32719
1503.90625	-31.82011	9.60222	2.79933	-49.78753
1507.81250	-29.80593	9.06496	4.00776	-46.16632
1511.71875	-29.40345	7.49961	1.18689	-38.86780
1515.62500	-31.01573	6.57946	-0.42521	-34.36275
1519.53125	-14.49610	6.85626	-0.02264	-37.86266
1523.43750	-6.03498	2.73103	1.18578	-36.95651
1527.34375	-27.39069	-0.95830	-0.02336	-31.93422
1531.25000	-31.01753	0.70530	2.79681	-27.31386
1535.15625	-28.60040	2.13519	3.60230	-25.31938
1539.06250	-18.52763	0.34475	2.79609	-23.10450
1542.96875	-12.48418	-0.52621	1.18402	-19.23337
1546.87500	-18.52868	-0.11220	-2.03980	-26.55283
1550.78125	-13.69398	2.78096	-2.04015	-27.08901
1554.68750	-16.51499	2.13662	-2.44346	-20.35163
1558.59375	-24.97702	-0.52190	-1.63797	-21.62828
1562.50000	-17.72475	-2.58539	0.77927	-20.39147
1566.40625	-8.45775	-3.30656	0.37595	-17.11767
1570.31250	-12.08455	-2.79593	-0.02731	-14.81588
1574.21875	-15.71128	-5.90695	1.58402	-10.60102
1578.12500	-18.12928	-6.21726	4.00130	-16.11970
1582.03125	-19.33858	-4.25056	4.80682	-17.06303
1585.93750	-16.11568	-4.90189	4.00063	-14.49768
1589.84375	-16.92204	-5.55230	5.20910	-14.66082
1593.75000	-21.35478	-5.87944	2.79115	-16.21740
1597.65625	-23.77277	-5.86012	0.37321	-16.26075
1601.56250	-20.14670	-4.71384	0.37285	-15.29658
1605.46875	-18.53543	-4.89895	-3.25388	-22.71359
1609.37500	-21.35635	-7.50532	-1.23960	-26.21046
1613.28125	-18.93911	-7.85477	-0.43410	-17.86145
1617.18750	-12.49264	-1.86567	-3.65786	-11.18369
1621.09375	-8.46370	1.26597	-2.44939	-9.86069
1625.00000	-8.46410	0.32867	-3.25560	-12.34441
1628.90625	-6.44988	-0.19633	-0.83842	-7.14494
1632.81250	-5.64445	1.05862	-0.03286	-2.23462
1636.71875	-6.45071	2.94660	-3.25667	-14.59840
1640.62500	-11.68924	2.00617	-2.45117	-21.31326
1644.53125	-10.07796	1.51372	-2.04855	-15.21711
1648.43750	-4.03440	2.26961	-4.06354	-8.22206
1652.34375	4.42673	3.53283	-0.43754	4.87865
1656.25000	4.82923	6.56331	1.57676	5.31650
1660.15625	-6.45330	6.37421	1.17355	2.71563
1664.06250	-6.85669	3.49258	1.57614	4.93354
1667.96875	0.39560	1.50211	0.77000	1.99783
1671.87500	-1.21657	4.40041	-0.03617	3.48403
1675.78125	0.39470	4.95535	1.17228	7.85774
1679.68750	7.64702	2.68794	1.57482	10.64009
1683.59375	3.61735	5.05796	-0.84315	-4.27347
1687.50000	-9.27682	5.96115	-0.84352	-14.34917
1691.40625	-16.93292	5.67347	1.97667	-26.55642
1695.31250	-22.57445	4.56966	1.57334	-34.78204
1699.21875	-27.81301	2.63492	1.97590	-29.78588
1703.12500	-25.39589	1.37668	3.58722	-25.51443
1707.03125	-15.32313	-0.06874	3.58686	-20.18350
1710.93750	-6.45917	0.49931	3.58650	-13.10881
1714.84375	-10.48897	0.57015	3.18324	-7.77095
1718.75000	-16.13043	-0.22954	3.98873	-0.51547
1722.65625	-12.90758	-1.10199	-0.04094	2.85381
1726.56250	-4.84953	-0.06818	-3.66770	-2.60324
1730.46875	-2.02956	1.76889	0.76419	0.72407
1734.37500	-2.43304	3.02871	1.56966	6.28933
1738.28125	-0.82195	-2.68008	1.16642	4.15384
1742.18750	-3.64297	-5.19609	1.56900	2.65513
1746.09375	-2.03179	0.72469	-0.04301	-1.89540
1750.00000	-1.62935	-0.99665	-1.65507	-9.22220
1753.90625	-14.92657	-4.17356	-0.04361	-11.94023
1757.81250	-12.91251	-1.49179	2.37363	-10.55031
1761.71875	-3.24274	0.37943	-1.25303	-10.80812
1765.62500	-3.24328	2.31071	-3.67096	-16.04135
1769.53125	-4.45271	1.87078	-1.25371	-14.73075
1773.43750	-0.82703	1.92830	-0.85116	-22.16260
1777.34375	-4.45400	-0.29025	-0.85152	-24.89322
1781.25000	-9.69274	-0.89285	-0.85188	-18.20543
1785.15625	-6.06704	-0.54751	0.35657	-14.81911
1789.06250	-8.08231	-2.52488	-0.44964	-17.80435
1792.96875	-11.30635	-4.45610	2.37053	-11.47719
1796.87500	-5.26305	-3.91034	7.20542	0.20251
1800.78125	-7.68125	-2.16052	5.99630	1.00153
1804.68750	-12.51706	-2.61020	2.36956	0.15895
1808.59375	-13.32346	-2.90318	0.75754	-2.31474
1812.50000	-6.47417	-4.39172	-0.04863	-11.70738
1816.40625	1.98673	-4.69671	-1.66072	-6.18409
1820.31250	-5.26657	-2.21210	0.75653	-0.34195
1824.21875	-9.69928	0.96003	1.15914	-6.97117
1828.12500	-8.08808	1.13781	-3.67641	-3.30720
1832.03125	-2.44756	2.52167	-3.27382	-0.27880
1835.93750	1.17823	0.97615	-2.06538	-2.15052
1839.84375	-5.26918	-3.46299	-2.46871	-3.71251
1843.75000	-6.88144	-2.72839	-0.45443	-1.15963
1847.65625	-4.46440	-0.47581	0.75401	-1.83590
1851.56250	-6.88251	-2.65649	-0.05221	-14.25036
1855.46875	-10.10636	-5.42779	-1.26136	-15.09669
1859.37500	-6.48032	-3.49374	-0.85883	-8.71867
1863.28125	-8.09251	-0.77870	-4.08260	-16.26037
1867.18750	-10.51057	-2.10261	-5.69473	-17.63879
1871.09375	-8.89927	-5.02019	-2.47167	-11.30260
1875.00000	-12.92904	-2.95820	-2.06911	-11.17433
1878.90625	-10.10903	-1.49726	-2.06946	-0.46222
1882.81250	-8.90067	-1.24693	1.55653	6.54530
1886.71875	-12.93041	-3.33940	1.95912	-4.37491
1890.62500	-9.70737	-5.37791	1.15291	-12.77913
1894.53125	1.17138	-2.49631	2.36126	-10.92843
1898.43750	1.97682	0.91557	4.77845	-3.93362
1902.34375	-6.88810	-0.90677	1.95755	-8.50462
1906.25000	-5.27691	-3.37888	-1.26628	-4.35121
1910.15625	-0.03933	-0.91096	-0.86374	3.08956
1914.06250	-2.05447	0.38727	-2.87874	-6.69669
1917.96875	-4.06956	-0.28451	-5.29667	-10.67829
1921.87500	-3.26407	0.64742	-2.87952	-10.65193
1925.78125	-3.26452	0.19804	0.34358	-1.45094
1929.68750	-2.05626	-1.29129	-1.26845	-3.57529
1933.59375	0.36090	-1.96561	-1.67174	-8.14043
1937.50000	7.21025	-3.08302	1.14849	-1.35963
1941.40625	4.79225	-4.23766	-0.06063	-2.72873
1945.31250	2.37417	-2.67972	-1.67270	-2.52773
1949.21875	12.04403	-0.07312	2.35630	1.88701
1953.12500	8.41717	-1.90249	3.96775	0.46433
1957.03125	-3.26821	-0.63156	0.34105	-2.17117
1960.93750	-6.08929	0.15421	-2.47977	-6.50545
1964.84375	-2.46335	0.48087	-4.89770	-4.76682
1968.75000	0.35678	1.13134	-3.68921	-0.25903
1972.65625	-0.85242	-0.23182	1.54858	-3.43517
1976.56250	-4.07629	0.62173	1.14537	-9.48585
1980.46875	-3.27078	-0.27752	-0.86967	-6.68147
1984.37500	-4.07706	-2.40502	-2.88464	1.49419
1988.28125	-4.48043	-4.52733	-3.28782	2.88572
1992.18750	1.96589	-7.02935	-0.46760	1.12509
1996.09375	5.99475	-5.36891	-0.06496	5.70964
2000.00000	-0.04979	-1.50226	-0.87119	2.37420
2003.90625	-3.27368	-2.87326	1.94906	-10.34755
2007.81250	-2.87124	-2.94592	2.75461	-3.58361
2011.71875	-6.09515	0.66960	1.14261	-1.15415
2015.62500	-8.91605	-0.07129	0.33640	-7.34878
2019.53125	-3.67835	-2.71368	0.33609	3.32734
2023.43750	-5.69339	-2.93551	1.94751	3.21383
2027.34375	-14.96114	-2.18164	2.35008	-10.80182
2031.25000	-10.93227	-1.31253	-0.06779	-7.84416
2035.15625	-1.26236	2.00688	-0.87402	-5.94361
2039.06250	-1.66574	2.93830	0.33447	-11.48451
2042.96875	-3.68085	3.85779	2.75174	-10.61749
2046.87500	-5.69595	5.42285	3.15433	-5.87682
2050.78125	-4.48754	3.54280	3.95982	-3.62321
2054.68750	1.95895	0.86260	6.37703	-2.95992
2058.59375	-3.68240	-0.66395	4.36204	-3.38443
2062.50000	-10.12962	0.18303	1.54119	-10.35163
2066.40625	-10.12992	2.14107	2.74966	-9.36227
2070.31250	-8.92144	1.93816	4.36102	-5.40559
2074.21875	-10.93645	0.11941	1.54017	-10.87829
2078.12500	-15.77206	-1.03083	-0.47482	-9.44379
2082.03125	-11.34034	-1.86979	1.94243	-4.05871
2085.93750	-2.07336	-0.33980	3.55378	-5.14700
2089.84375	-8.11767	-0.08300	1.13586	-9.55713
2093.75000	-19.40000	-0.62838	1.94135	-9.94348
2097.65625	-16.57977	-0.17874	2.34390	-9.51496
2101.56250	-11.74478	1.32707	1.53771	-12.70105
2105.46875	-11.34219	2.01221	-1.68610	-10.56416
2109.37500	-10.93955	-1.71473	-2.08932	-12.84842
2113.28125	-2.88131	-0.17467	-0.47805	-12.23094
2117.18750	4.37107	3.50205	1.13320	2.85200
2121.09375	2.75921	0.91030	3.55038	9.64516
2125.00000	-0.86730	1.14132	1.53542	4.19282
2128.90625	-1.27029	3.08810	-1.68837	0.03417
2132.81250	4.37056	3.89627	-4.50921	-2.01517
2136.71875	6.38502	6.38323	-1.68905	0.66609
2140.62500	4.77315	7.35715	0.72818	2.53244
2144.53125	2.35533	5.51221	-0.48099	-7.22442
2148.43750	3.16088	4.65641	-2.09302	-5.56142
2152.34375	6.38402	3.12088	-6.92858	3.79143
2156.25000	0.33975	1.61205	-7.73479	9.72103
2160.15625	-0.86941	2.93842	-3.70586	3.42594
2164.06250	1.54784	4.24837	-2.90038	-17.02608
2167.96875	3.96512	-0.63399	-5.31827	-17.95266
2171.87500	3.56181	-5.32247	-2.90107	-13.73892
2175.78125	-4.90010	-0.74094	-2.09550	-11.87839
2179.68750	-7.31801	3.36783	-2.49885	-5.80946
2183.59375	-8.92999	1.78422	-0.88753	-5.88272
2187.50000	-6.51269	0.51537	-0.88791	-8.93833
2191.40625	-4.90135	1.12906	-0.88828	-6.64828
2195.31250	-4.90173	0.93282	1.52895	1.15326
2199.21875	-2.08155	0.18220	0.72275	-0.99920
2203.12500	-2.88768	-3.89329	-3.30690	-2.01086
2207.03125	5.57354	-3.17504	-3.71019	-0.68600
2210.93750	9.60249	0.31408	-2.90467	-9.98442
2214.84375	3.55823	0.98974	0.72142	-9.59746
2218.75000	1.94619	1.03599	1.52695	-7.12401
2222.65625	-4.09808	0.91758	0.31781	-7.03306
2226.56250	-6.51598	1.59452	2.73507	-1.26283
2230.46875	-7.32222	0.29197	-0.48871	6.07418
2234.37500	-6.11378	-0.57257	0.71975	10.67967
2238.28125	-1.27901	1.09182	3.94287	8.45675
2242.18750	-0.07066	1.71218	2.33078	2.81394
2246.09375	-0.07100	-0.08176	2.33043	-3.02346
2250.00000	-4.10059	-0.14542	1.52425	-7.62780
2253.90625	-4.50377	0.27294	1.52392	-13.35145
2257.81250	-2.89237	2.36191	0.31477	-16.30224
2261.71875	-4.90733	3.32614	-0.49142	-10.75553
2265.62500	-2.89298	-0.54509	-0.08880	1.67725
2269.53125	1.94185	-1.80225	-2.50675	5.72343
2273.43750	-1.28191	2.31603	-2.91005	2.53284
2277.34375	-1.28225	0.81451	-2.50744	3.62491
2281.25000	-1.68552	-0.68732	-2.10483	0.20102
2285.15625	-13.37087	1.41577	-0.09053	-0.46968
2289.06250	-13.37126	2.17329	0.71499	2.60836
2292.96875	-8.93944	2.33180	-0.09116	-0.48556
2296.87500	-8.13401	0.47585	-0.89736	-1.86213
2300.78125	-6.11971	0.14709	-0.89767	1.83457
2304.68750	-7.73176	-1.85253	-0.89798	-12.29594
2308.59375	-0.47940	-2.31921	-4.92761	-22.61807
2312.50000	-3.30028	-1.69507	-6.13672	-10.71259
2316.40625	-14.17981	-2.28304	-2.51076	-6.56206
2320.31250	-10.95675	-2.63337	-1.30232	-6.66209
2324.21875	-6.12198	-2.28962	-2.51149	-8.02600
2328.12500	-8.13700	-1.57769	-2.10890	-12.34458
2332.03125	-8.13739	-5.73564	-0.90050	-12.83100
2335.93750	-3.30256	-7.06239	-0.09491	-9.65773
2339.84375	-5.72051	-1.77798	-0.09523	-2.72332
2343.75000	-8.94431	-2.31165	-0.90145	-3.78701
2347.65625	-8.13884	-3.25500	-0.49883	-10.49856
2351.56250	-10.55686	-3.74539	1.11259	-2.80645
2355.46875	-13.78066	-4.99982	0.70928	-0.25788
2359.37500	-12.16934	-2.92980	-0.90283	-5.68605
2363.28125	-6.93160	-2.72347	-1.70901	-8.05025
2367.18750	-5.32028	-4.12487	-2.11222	-9.43525
2371.09375	-3.30596	-4.99058	0.30502	-5.61906
2375.00000	0.72298	-2.94740	1.11060	-2.12405
2378.90625	0.31966	1.56446	-0.09854	2.18511
2382.81250	0.31924	2.11632	1.10993	-0.67598
2386.71875	0.72182	1.45664	0.70662	-1.91254
2390.62500	-1.29320	-0.20229	0.70625	2.50395
2394.53125	-1.69653	-1.30953	-0.90587	-1.14254
2398.43750	-10.96427	-0.78872	-2.51791	2.76584
2402.34375	-15.39682	0.52272	-0.90656	-3.83140
2406.25000	-11.77074	1.80716	-2.51860	-23.80354
2410.15625	-10.15945	3.77175	-4.53360	-29.61258
2414.06250	-7.74219	3.94189	-3.32516	-24.29997
2417.96875	-12.98060	1.69275	-1.31087	-15.61894
2421.87500	-17.41326	1.35907	0.30048	-15.90741
2425.78125	-11.36967	1.36092	-4.93794	-14.27721
2429.68750	-9.35528	0.88994	-8.16172	-8.09100
2433.59375	-10.56437	0.71836	-4.93860	-5.91048
2437.50000	-7.34122	0.54463	-5.34185	-5.81536
2441.40625	-6.93853	-1.82255	-2.52171	-6.28194
2445.31250	-9.75934	-3.10341	-0.50739	-4.77358
2449.21875	-10.56561	-0.38358	-1.31356	-0.22806
2453.12500	-13.38646	-1.30985	-2.52271	4.87472
2457.03125	-14.99851	-2.22117	-2.52306	8.01218
2460.93750	-8.95487	-4.18904	-0.91172	-5.57610
2464.84375	-5.73173	-5.13769	-1.71792	-12.62930
2468.75000	-4.52335	-1.65777	0.29638	1.62248
2472.65625	-0.09156	-0.53050	0.29602	2.82088
2476.56250	7.56380	-1.77192	-0.10721	-0.71819
2480.46875	2.72832	-2.11624	1.50414	2.33169
2484.37500	-4.12194	-3.12954	-1.71964	-1.58909
2488.28125	-2.10765	-4.94459	-6.15217	-1.34038
2492.18750	-2.51082	-3.79237	-6.15251	-5.62257
2496.09375	-6.54045	-2.54195	-1.31768	-8.22117
2500.00000	-10.97305	-1.24773	-1.72094	-7.53328
2503.90625	-9.76457	2.51852	-7.36226	-13.56454
2507.81250	-6.54146	1.84675	-8.16851	-5.90456
2511.71875	-6.54180	0.59132	-6.15414	-0.71317
2515.62500	-1.70694	0.70536	-4.13984	-11.26302
2519.53125	7.15721	-0.78044	-4.14019	-10.18155
2523.43750	-0.49867	-1.49057	-6.15520	-1.41817
2527.34375	-8.15461	-2.23371	-6.96147	-3.62075
2531.25000	-3.72277	-2.28579	-5.35004	-3.80960
2535.15625	-4.52903	-2.91009	-3.33572	-4.19317
2539.06250	-3.72358	-3.94046	-4.54488	-6.40888
2542.96875	-4.12692	-5.08443	-4.14229	-3.43105
2546.87500	-7.75367	-5.09577	-2.12799	-2.55931
2550.78125	-8.15709	-5.57156	-1.32248	-1.62105
2554.68750	-7.75453	-6.13627	1.09480	0.10231
2558.59375	-3.72548	-5.49261	1.90033	-1.03944
2562.50000	0.30356	-3.42931	0.69121	-1.47123
2566.40625	2.31788	-1.49950	2.30257	0.89522
2570.31250	0.30295	-0.39859	3.91400	0.20433
2574.21875	-7.35302	-1.31703	2.70488	-5.22011
2578.12500	-3.32396	-3.82748	1.89873	-8.96953
2582.03125	13.19590	-2.16800	-0.51918	-6.01222
2585.93750	10.77804	-2.72563	-0.92247	5.52421
2589.84375	-5.74237	-4.89600	0.28596	8.90990
2593.75000	-6.95149	-3.36027	-0.52026	4.42154
2597.65625	-4.53424	-1.36512	-0.11768	0.43473
2601.56250	-4.53459	-2.91455	-0.92396	-7.38004
2605.46875	-7.35549	-4.74417	-1.73017	-6.00782
2609.37500	-5.74409	-4.15263	-1.32757	-1.70595
2613.28125	1.91122	-2.99743	-2.53671	-9.65281
2617.18750	-2.11842	-3.74868	-2.13412	-10.28743
2621.09375	2.31351	-3.25408	-0.92575	-2.34379
2625.00000	7.55135	-2.71991	-0.92611	-1.87553
2628.90625	-2.52217	-2.59802	-0.92645	-9.09040
2632.81250	-10.17824	-0.62980	-1.32966	-15.61317
2636.71875	-10.98444	-0.10037	-0.92708	-16.94968
2640.62500	-6.14962	-0.36888	-0.52446	-7.41498
2644.53125	-1.71768	-0.68255	-0.52479	6.63465
2648.43750	1.50552	-1.43858	-0.92809	3.26534
2652.34375	-4.94161	-1.09030	2.69793	0.23715
2656.25000	-7.35952	1.11710	3.50339	8.66295
2660.15625	-0.91293	1.70887	1.08547	9.24839
2664.06250	3.92208	1.36684	1.89093	3.80623
2667.96875	-0.51036	1.34247	3.50224	0.29419
2671.87500	-6.95752	0.86156	1.08432	-0.78987
2675.78125	-9.77832	-0.90238	-1.33365	0.87964
2679.68750	3.92102	-0.64982	1.08360	-1.90351
2683.59375	14.79983	3.42686	1.08328	-11.97247
2687.50000	-0.10892	3.32931	-0.93177	-11.97079
2691.40625	-9.77948	-2.02425	0.27670	-2.58471
2695.31250	-4.54161	-2.53233	2.69397	2.81953
2699.21875	3.51675	0.61101	4.30532	7.08988
2703.12500	6.73997	1.06316	7.93140	9.26456
2707.03125	9.56022	-2.72966	9.54277	11.99157
2710.93750	11.97752	-2.08916	8.33370	14.98952
2714.84375	8.35077	1.46626	5.91576	9.24804
2718.75000	13.18566	1.86284	1.08028	8.84162
2722.65625	16.00585	2.33220	0.67702	13.53025
2726.56250	3.91767	2.50697	3.09431	2.86938
2730.46875	1.09685	1.87850	1.48224	-3.27921
2734.37500	5.12582	3.43891	-0.12978	-3.60726
2738.28125	1.49913	1.49183	1.07870	-5.90483
2742.18750	5.12517	-0.02169	3.09302	-9.24214
2746.09375	8.34840	0.50420	2.68973	-2.67773
2750.00000	1.09544	-0.19224	3.09234	9.88625
2753.90625	-2.93415	2.17865	0.67440	5.75370
2757.81250	-2.12854	0.70552	-1.34054	4.76583
2761.71875	-1.32281	-3.18048	2.68846	13.08133
2765.62500	-1.72599	0.12621	1.47933	4.21112
2769.53125	-2.12921	0.96891	-0.13270	-8.78523
2773.43750	-0.92072	0.10538	1.47865	-8.60709
2777.34375	1.89949	1.11494	1.88126	-13.93594
2781.25000	5.92857	0.10556	1.88092	-14.17765
2785.15625	5.12237	0.96875	4.29813	-4.67098
2789.06250	3.51037	1.33418	2.68609	-6.52177
2792.96875	1.89833	0.84762	-0.13475	-4.38819
2796.87500	-1.32532	1.10747	1.47661	-5.59255
2800.78125	-5.75780	0.16323	-0.13543	-10.42176
2804.68750	-6.56385	-0.99898	-0.53872	0.89616
2808.59375	-3.74356	-1.10907	1.07270	7.80118
2812.50000	-4.95255	-2.44121	-0.53938	5.50806
2816.40625	-4.95278	-0.92762	0.66909	2.80435
2820.31250	-2.93843	0.61680	4.29509	-11.90320
2824.21875	-2.53574	-0.54085	0.26545	-20.98907
2828.12500	-1.73010	-1.52471	-2.15244	-9.74534
2832.03125	-1.73029	-0.89421	-0.54110	-5.92457
2835.93750	-0.92457	-0.55775	-0.54143	-8.48582
2839.84375	-3.34217	0.25483	1.06995	-2.08941
2843.75000	-2.13352	-1.68879	2.27833	-3.83709
2847.65625	3.10437	-3.13574	1.06923	-9.20539
2851.56250	1.89535	-0.95523	0.26294	-0.82101
2855.46875	1.89518	-0.19871	0.26258	0.83044
2859.37500	2.29796	0.68753	1.87401	5.73384
2863.28125	2.70076	3.21034	1.47070	8.43967
2867.18750	6.32702	1.31067	-0.54430	-1.06167
2871.09375	7.13282	-0.20420	2.27587	-1.35450
2875.00000	7.13278	-1.05756	3.88729	6.17230
2878.90625	2.29759	-1.71284	0.66350	10.77094
2882.81250	-3.34349	-1.96337	-0.14268	5.37460
2886.71875	-3.34368	-4.30332	1.87161	4.60919
2890.62500	-2.13511	-3.87665	4.69173	9.38622
2894.53125	7.53513	0.09139	5.49720	5.92303
2898.43750	5.11741	0.30569	4.28803	0.53923
2902.34375	-2.13544	0.91910	4.28768	3.09481
2906.25000	-2.53847	0.57055	2.67562	8.61097
2910.15625	-6.97088	1.72888	1.06357	1.97531
2914.06250	-6.56810	-1.18129	1.46613	-4.35641
2917.96875	-13.41815	-6.15071	2.67462	-2.39019
2921.87500	-14.62718	-2.65053	2.27134	-10.87885
2925.78125	-10.19521	-0.58963	1.46515	-18.06585
2929.68750	-11.00139	-1.11512	2.67363	-3.04824
2933.59375	-6.16649	-1.64978	0.65866	1.11321
2937.50000	-10.59894	-1.74137	0.65832	-5.26521
2941.40625	-12.61382	-1.79573	1.46381	-5.10567
2945.31250	-5.36130	-1.74215	-0.55118	-8.53091
2949.21875	-0.92929	-3.94606	4.68658	-2.47022
2953.12500	0.27925	-3.32578	4.68622	2.98111
2957.03125	-3.75027	-2.17937	1.46242	-3.24864
2960.93750	-6.16815	-1.35370	1.46207	-6.57074
2964.84375	-5.36255	-2.08353	1.86466	-0.25150
2968.75000	2.29299	-4.74876	2.26720	5.71617
2972.65625	7.12793	-4.19171	0.65518	2.44467
2976.56250	3.09844	0.19264	0.65485	-6.01077
2980.46875	2.69533	1.09171	1.86332	-2.77174
2984.37500	-2.14010	-0.40732	1.86300	-1.27769
2988.28125	-1.73744	0.50595	-3.37542	-9.51984
2992.18750	1.08279	-1.42452	-3.77870	-11.38626
2996.09375	6.72365	-1.47341	-1.76438	-6.70404
