 	TP9	AF7	AF8	TP10	
-1000.00000	-1.57762	-3.91382	-2.03916	-4.94249
-996.09375	-1.98039	-3.51049	-3.65123	-1.97978
-992.18750	-3.59191	-5.12187	-6.47205	-7.06213
-988.28125	-1.98003	-3.50977	-4.45773	-12.05268
-984.37500	-3.59153	-3.50941	-2.44339	-7.60330
-980.46875	-8.42655	-5.12080	-2.04074	-5.29865
-976.56250	-8.82926	-5.52331	-2.84698	-7.28660
-972.65625	-10.44085	-5.12001	-3.25021	-5.13991
-968.75000	-8.82890	-1.89615	-2.44469	-9.62846
-964.84375	-3.18769	-2.29861	-4.45969	-9.92144
-960.93750	-0.76983	-2.70112	-6.87764	-2.41310
-957.03125	-0.76952	0.52277	-2.84866	-4.11474
-953.12500	0.43958	0.92613	-1.23723	-9.26768
-949.21875	1.64866	-1.89403	-3.25220	-10.85175
-945.31250	-0.36573	-4.71411	-0.83498	-9.42769
-941.40625	-12.85634	-5.11666	1.17934	-5.95929
-937.50000	-13.66194	-7.13090	-0.02970	-9.78848
-933.59375	-3.99140	-8.74217	-0.83592	-1.71284
-929.68750	-11.24394	-7.53294	-0.03034	4.42387
-925.78125	-16.07889	-4.71204	-0.03065	2.73810
-921.87500	-10.03474	-1.48821	0.77489	7.42917
-917.96875	-6.00521	-0.27902	1.98336	4.30186
-914.06250	-2.78158	1.33309	0.77424	2.21798
-910.15625	0.03913	0.12469	-0.43488	5.57814
-906.25000	-1.16934	-2.29246	0.77361	-4.04944
-902.34375	-1.57203	-1.48621	-0.83845	-9.79704
-898.43750	5.27806	-1.08284	-1.64461	-3.74753
-894.53125	7.69600	-1.08242	1.17559	-4.32042
-890.62500	4.87586	-1.88791	-2.04809	-2.95451
-886.71875	-1.16773	-5.91677	-4.86895	-1.58795
-882.81250	-6.80856	-5.91635	-0.43699	-8.48455
-878.90625	-4.39072	-4.30417	-0.43727	-7.34352
-875.00000	-5.19636	-3.90085	-1.64637	-3.99792
-871.09375	-5.59903	-3.09451	-2.45251	-7.87379
-867.18750	-1.97237	-2.28824	0.77068	1.65960
-863.28125	-0.76327	-1.48196	2.78504	8.94474
-859.37500	4.07210	-0.67568	-0.03576	-0.04057
-855.46875	6.08705	-0.67525	0.36684	-0.03456
-851.56250	-0.35959	0.53400	-0.84223	7.34355
-847.65625	-1.16515	1.34030	-2.45419	3.27381
-843.75000	-1.56781	-0.27094	-2.05151	-1.83664
-839.84375	0.04419	-0.27050	1.17158	0.02700
-835.93750	1.65622	-0.27006	1.97718	2.73713
-832.03125	-2.37294	0.53622	0.36514	4.82621
-828.12500	-0.76102	0.53665	-2.05269	0.03162
-824.21875	1.65690	0.53707	-3.66474	-5.37450
-820.31250	3.67189	1.74631	-6.08261	-4.72588
-816.40625	5.68692	0.53794	-4.47114	-5.75358
-812.50000	7.29893	2.95591	-4.87436	-5.34767
-808.59375	10.11972	2.15037	-6.88926	-4.84247
-804.68750	8.50821	-0.26676	-4.06902	-4.49297
-800.78125	3.27039	-1.07219	-4.06925	1.41191
-796.87500	-3.57912	-4.29522	-2.86068	2.69986
-792.96875	-3.57882	-5.90656	-1.65214	-0.20673
-789.06250	-1.56390	-7.51787	-2.45828	1.14411
-785.15625	0.04806	-5.90578	-4.07032	2.81930
-781.25000	2.86896	-2.27898	-4.07061	-1.71033
-777.34375	-2.36879	-1.87567	-4.47380	-9.77759
-773.43750	-2.36844	-1.47228	-3.26530	-3.51957
-769.53125	-1.56225	-2.27769	-1.65389	1.07091
-765.62500	0.85561	-2.27725	-2.46002	-5.19844
-761.71875	8.51147	0.54366	-2.46030	-5.63550
-757.81250	-0.75566	-2.27644	-4.07233	-4.90834
-753.90625	-6.39639	-6.70831	-5.28134	-1.98584
-750.00000	-10.02247	-8.31961	-4.87872	0.98481
-746.09375	-14.05137	-6.70750	-4.47604	-6.78972
-742.18750	-9.61873	-6.70708	-7.69978	-11.57660
-738.28125	-10.42434	-9.93013	-10.92353	-12.51011
-734.37500	-9.61821	-11.54141	-8.90920	-10.91300
-730.46875	-5.18573	-11.54098	-5.28313	-5.95973
-726.56250	-6.39412	-11.94345	-5.68642	-6.79033
-722.65625	-7.60260	-13.15180	-8.10431	-6.24151
-718.75000	-6.39351	-12.74845	-8.10458	-3.17189
-714.84375	-11.63129	-8.71878	-8.91070	-2.89940
-710.93750	-11.63096	-5.49493	-7.70217	1.19342
-707.03125	-3.97502	-2.27106	-6.49366	-0.76817
-703.12500	-6.39221	-0.25602	-5.68807	-10.18361
-699.21875	-8.00361	-1.86738	-5.68829	-7.92173
-695.31250	-8.40623	-3.07572	-8.10614	-3.73012
-691.40625	-1.15312	-0.25482	-6.89759	-4.14443
-687.50000	6.09999	2.16313	-4.07733	-4.43627
-683.59375	-2.76411	0.95481	-2.06287	-4.87207
-679.68750	-5.18132	-1.05940	-2.86904	-1.37910
-675.78125	-4.37506	-1.86489	-3.27217	-1.71947
-671.87500	-1.55425	-1.86453	-3.27238	-5.44918
-667.96875	0.46070	-0.65538	-3.27262	-5.30244
-664.06250	-3.56831	-3.87844	-2.06407	-5.62149
-660.15625	-1.95631	-6.29558	-2.46729	-4.90339
-656.25000	-2.35892	-3.87766	-2.87051	4.74448
-652.34375	-6.38798	-3.07139	-0.45321	8.56564
-648.43750	-4.77599	-5.08573	1.15817	-0.54315
-644.53125	2.88001	-4.68242	2.36669	-8.80761
-640.62500	0.46267	-3.87624	1.96353	-11.64896
-636.71875	-10.41619	-4.27882	3.97793	-15.36423
-632.81250	-9.20708	-0.65216	3.97769	-17.29727
-628.90625	-6.78917	0.55698	3.17150	-10.70406
-625.00000	-4.77418	-1.45731	1.55952	-3.95566
-621.09375	-0.74452	-0.65108	0.75343	-0.66773
-617.18750	-3.96762	0.96105	-0.05267	-3.21934
-613.28125	-3.96732	1.76727	-1.66468	-0.03112
-609.37500	-2.35530	1.36472	-2.87376	2.89941
-605.46875	-5.57845	-1.05244	-2.87401	-0.73662
-601.56250	-1.54875	-1.05205	-0.05367	-3.79551
-597.65625	5.70441	1.76885	-0.85980	-1.13085
-593.75000	11.74871	4.99270	-2.06879	1.53926
-589.84375	8.12270	4.18726	1.15436	-0.82667
-585.93750	-1.54730	-1.45339	1.96004	0.84985
-582.03125	-2.35277	-4.67644	-0.05485	1.12467
-578.12500	0.46809	-3.46723	-4.08443	1.77713
-574.21875	2.48308	0.15951	-5.29340	-0.09367
-570.31250	2.08051	0.56289	-4.89071	-10.19349
-566.40625	6.11026	0.16035	-6.50259	-6.04518
-562.50000	4.09592	0.56369	-4.89109	4.82185
-558.59375	2.48457	1.36992	1.55563	15.17108
-554.68750	5.70833	2.17618	3.57008	14.81459
-550.78125	0.47063	0.16194	2.76403	-0.61767
-546.87500	-1.54359	-2.25519	1.95797	-12.15202
-542.96875	-0.33444	-5.07532	2.36064	-8.01833
-539.06250	-5.97510	-5.88074	1.95753	-1.24585
-535.15625	-8.39230	-4.26856	1.55436	0.73338
-531.25000	-4.36255	-4.26815	0.34533	-1.91167
-527.34375	0.07004	-3.46190	-2.87834	-4.57387
-523.43750	-7.58523	-0.23807	-2.87853	-3.14879
-519.53125	-15.64355	0.97112	-0.05815	-6.78219
-515.62500	-19.67257	-1.44608	1.15040	-8.49240
-511.71875	-21.28399	-3.46033	0.74730	-6.81962
-507.81250	-15.23970	-3.45994	0.34412	-9.49861
-503.90625	-11.61291	-2.25073	1.55271	-6.76212
-500.00000	-11.20962	-1.44447	0.74666	-1.84574
-496.09375	-8.38871	-1.84701	-2.47699	-5.20879
-492.18750	-3.95610	-1.44365	0.34331	-6.47333
-488.28125	-2.34400	1.37725	0.74607	-0.32797
-484.37500	-3.55249	4.19823	-0.05998	2.09434
-480.46875	-3.14932	4.19866	0.74566	1.06876
-476.56250	-3.55193	4.19905	-0.06036	-2.71489
-472.65625	0.07470	3.39354	0.74534	-0.06456
-468.75000	11.35704	3.79693	2.35687	6.01852
-464.84375	16.99840	4.60323	4.37136	10.52660
-460.93750	9.34300	4.20074	5.98294	9.20990
-457.03125	10.14923	7.42452	2.35635	13.89443
-453.12500	12.96998	6.61906	1.55031	17.24343
-449.21875	7.32912	4.20188	1.55013	8.33682
-445.31250	3.70301	1.38168	1.14699	6.85139
-441.40625	2.89742	0.57618	3.16145	7.66571
-437.50000	2.09179	2.59118	2.75840	4.72534
-433.59375	0.88343	2.59152	4.36995	-1.28792
-429.68750	0.07787	2.99485	6.38440	-2.23284
-425.78125	1.68997	0.17470	6.38422	8.80004
-421.87500	3.70492	-2.24245	4.36943	2.88065
-417.96875	1.69054	-1.03324	2.35461	-6.85610
-414.06250	-1.12963	0.98181	1.95152	-4.08363
-410.15625	0.48244	-1.43540	2.75719	-2.71917
-406.25000	3.30331	-1.43498	3.96580	1.46729
-402.34375	6.93007	0.98305	2.75680	1.29960
-398.43750	3.30407	-0.22535	0.74196	-6.34861
-394.53125	-4.35111	0.17794	1.54760	-0.41196
-390.62500	-5.96244	2.19299	3.96500	4.86672
-386.71875	-3.14152	1.79049	3.96484	2.98830
-382.81250	-2.33519	2.19376	0.74123	8.96510
-378.90625	-5.15535	2.59711	0.74106	3.01941
-375.00000	0.08319	1.79166	-2.07960	-0.75132
-371.09375	4.51588	0.98619	-3.69153	6.42521
-367.18750	4.11334	2.19531	-4.90050	13.76987
-363.28125	3.71089	0.98694	-5.70647	8.95351
-359.37500	1.29369	0.18141	-2.08019	2.30626
-355.46875	1.29405	1.79356	-1.67746	6.58074
-351.56250	7.33837	0.18224	0.73996	1.95874
-347.65625	5.32406	-1.83196	-0.06604	-2.44733
-343.75000	-3.54005	-5.05497	-1.67795	-1.55509
-339.84375	-4.74854	-4.24861	-0.06636	-1.64274
-335.93750	-1.12179	-0.21890	0.73934	2.23966
-332.03125	-1.52431	0.99032	1.14209	1.54168
-328.12500	-3.94150	0.18480	0.33607	-5.36630
-324.21875	-7.16453	0.18519	1.14176	-10.87443
-320.31250	-4.34354	-0.62029	0.33576	-8.02470
-316.40625	3.71549	0.18593	1.14147	2.33967
-312.50000	3.31297	-2.23119	2.75308	1.14650
-308.59375	-0.71589	-6.26001	1.14114	-3.84605
-304.68750	1.29923	-7.46837	2.34976	-4.49572
-300.78125	-1.92374	-7.06504	3.15545	0.48413
-296.87500	-5.14677	-3.43820	0.73777	1.23526
-292.96875	-1.11699	-0.61729	-2.48586	0.36930
-289.06250	3.31566	0.99488	-3.29189	4.93721
-285.15625	3.31607	0.99527	-2.48620	4.28650
-281.25000	-5.14507	-0.21312	-3.69517	-2.30948
-277.34375	-3.93580	0.19021	-2.88949	-0.27250
-273.43750	-1.92070	0.19061	-2.08375	-0.79096
-269.53125	-0.30848	-0.61484	-3.69567	-1.97975
-265.62500	7.34763	-3.83787	-3.29287	-0.64085
-261.71875	7.34802	-5.44916	-2.48717	0.11420
-257.81250	7.75136	-2.22533	-2.08435	9.09455
-253.90625	11.78098	2.20723	-1.68161	12.16944
-250.00000	8.96082	4.62519	-3.69639	3.61128
-246.09375	7.75239	3.81969	-4.50236	5.30492
-242.18750	7.34984	3.82005	-4.90543	11.38114
-238.28125	6.14150	3.41745	-4.50259	10.39432
-234.37500	10.97704	3.82076	-5.30855	14.26609
-230.46875	8.96288	3.01528	-3.69699	14.86299
-226.56250	1.71066	1.40394	-0.47371	8.83174
-222.65625	4.12873	2.21015	-0.47387	2.88416
-218.75000	13.79962	2.61342	-1.27985	2.01141
-214.84375	15.81483	1.00206	-0.87713	7.51029
-210.93750	2.11574	-0.20638	2.74908	10.10731
-207.03125	-1.91307	0.59979	2.34592	12.52556
-203.12500	-3.12145	1.00307	0.33106	4.06462
-199.21875	-3.52380	1.80929	1.13669	-5.60502
-195.31250	-0.29972	1.80966	1.53942	-3.99266
-191.40625	0.90977	-3.42808	1.94216	5.67837
-187.50000	-1.10418	-3.83067	3.15074	12.12596
-183.59375	-1.10348	1.00490	3.15056	8.50037
-179.68750	1.71771	-1.41232	2.74749	0.84541
-175.78125	2.12122	-4.23241	2.74733	3.66664
-171.87500	6.95700	-3.82913	1.94131	6.08477
-167.96875	22.67187	-1.41114	0.32940	-0.76442
-164.06250	15.01678	1.00683	1.13512	0.04213
-160.15625	-1.09983	-0.60455	-1.28254	3.26630
-156.25000	1.72119	-1.81296	-2.89442	2.05815
-152.34375	7.76568	-1.00666	-2.08864	6.08814
-148.43750	7.36329	1.41127	-2.08875	7.70057
-144.53125	3.33456	3.42633	-0.88013	1.65726
-140.62500	4.94686	1.00919	0.32851	4.47838
-136.71875	9.78253	0.60664	-2.08919	9.31407
-132.81250	10.58891	2.21873	-5.31276	6.49416
-128.90625	3.33672	-0.60137	-5.31287	0.45084
-125.00000	1.32264	-4.22731	-5.31299	-2.36914
-121.09375	4.54663	-2.21226	-3.70142	1.25787
-117.18750	5.75595	-0.19723	-1.68689	5.28781
-113.28125	13.00914	0.60899	-2.08991	14.15294
-109.37500	15.83002	1.41521	-2.89594	10.52717
-105.46875	4.95128	-1.00195	-2.49311	0.05153
-101.56250	-2.70404	-2.21038	-2.09029	7.30471
-97.65625	-3.50945	0.61048	-0.07578	4.88757
-93.75000	0.92330	-0.59795	0.32696	3.67938
-89.84375	6.56483	-4.22391	1.93857	7.70929
-85.93750	0.92438	-3.01470	2.74426	9.32161
-82.03125	-0.28390	-0.99966	-0.07641	6.50171
-78.12500	6.96938	1.01536	-0.07657	8.91992
-74.21875	12.20798	-0.59604	0.72915	14.96445
-70.31250	10.19376	-1.40153	2.74367	8.51808
-66.40625	10.59708	0.21055	2.74355	2.07167
-62.50000	3.34486	0.21094	0.32582	5.69855
-58.59375	-2.29565	-1.40039	0.32572	12.54880
-54.68750	2.94285	-3.01172	1.53442	11.34045
-50.78125	6.97252	-1.80259	1.93725	8.11740
-46.87500	6.97290	-1.80218	2.34002	2.07388
-42.96875	6.57031	-2.20467	3.14579	3.68607
-39.06250	15.83801	1.82504	3.95160	13.35673
-35.15625	24.70283	5.85474	3.54856	12.14829
-31.25000	15.43569	3.03464	3.54847	3.28419
-27.34375	-1.89021	0.61742	2.74252	3.28446
-23.43750	-2.69579	1.02076	3.54827	2.47893
-19.53125	2.13964	3.84164	4.75699	1.27043
-15.62500	6.57211	6.66252	5.96571	5.29998
-11.71875	8.58697	5.05123	3.95098	8.52371
-7.81250	7.37836	3.03698	3.54793	14.56796
-3.90625	2.94638	2.23147	6.36835	22.22400
0.00000	0.93197	0.62020	6.36829	19.80676
3.90625	13.42311	0.62061	7.57702	12.55436
7.81250	14.22924	2.23269	8.78576	12.95766
11.71875	1.73873	3.44186	6.77105	10.13751
15.62500	6.57423	5.05398	4.75633	10.94389
19.53125	9.39512	5.45725	2.74163	19.00298
23.43750	8.99260	6.26354	2.74157	10.54184
27.34375	8.99296	5.45798	5.15911	7.72174
31.25000	8.99335	3.44370	2.33850	9.33390
35.15625	16.24648	3.84703	-0.07908	0.46991
39.06250	16.64977	3.04154	2.74136	-1.14135
42.96875	14.23257	5.05657	5.15889	2.88847
46.87500	14.23284	4.25109	4.75587	10.14168
50.78125	11.81566	1.83384	3.94999	10.54512
54.68750	6.57808	1.83421	3.54701	3.29291
58.59375	4.56391	1.43161	3.54697	4.50224
62.50000	11.01127	3.84958	3.54695	0.47349
66.40625	8.99704	5.86459	1.93524	-3.15236
70.31250	-3.89636	3.04447	0.72642	-4.76348
74.21875	-5.10484	2.23894	1.93518	-5.56879
78.12500	2.95410	3.44811	2.33808	0.87852
82.03125	9.40120	0.62800	0.32347	2.49072
85.93750	9.80429	-0.98331	0.32341	0.87925
89.84375	1.74585	-0.58003	3.94976	2.89413
93.75000	5.37233	1.83797	4.75562	9.74424
97.65625	14.63975	3.04708	2.74089	14.57955
101.56250	9.40167	1.83855	3.14368	11.75921
105.46875	4.56671	2.24178	1.93493	13.77410
109.37500	2.55233	3.45102	-0.48260	6.11865
113.28125	4.56709	2.64551	-2.49733	3.29835
117.18750	10.20832	1.43702	2.74063	8.93962
121.09375	2.14999	2.24321	4.35224	6.52226
125.00000	-1.47598	1.43772	1.93462	6.92550
128.90625	2.95665	-1.38242	2.33746	2.09060
132.81250	6.98623	1.43845	1.53158	-1.53538
136.71875	4.16589	1.43878	3.54620	3.30022
140.62500	8.19553	-0.17261	3.54613	8.53874
144.53125	13.83683	3.05116	1.93434	11.35962
148.43750	0.13751	3.45439	1.53133	8.53954
152.34375	-1.87678	1.44008	3.54593	7.73409
156.25000	2.55586	0.63456	3.54586	8.94326
160.15625	0.94455	2.64957	2.33699	8.54068
164.06250	6.58590	4.26169	3.14277	9.74995
167.96875	6.98929	3.45612	4.75444	4.51237
171.87500	3.36335	3.85943	6.36606	-1.53114
175.78125	5.37841	4.26273	3.94847	8.54252
179.68750	5.37880	2.65134	0.72496	11.76636
183.59375	6.18511	2.24876	2.33658	5.31986
187.50000	3.36500	3.05501	3.94826	4.91730
191.40625	4.57424	2.65241	3.54523	3.30601
195.31250	7.39519	2.65278	1.93345	-1.93162
199.21875	5.38099	5.47363	2.33624	-2.73700
203.12500	7.79905	5.87693	3.54497	4.51619
207.03125	13.84339	4.66845	0.72438	10.15769
210.93750	14.64961	2.25116	2.33596	10.15823
214.84375	9.41199	2.25154	3.14173	14.99396
218.75000	5.38319	4.26663	3.14165	6.93588
222.65625	6.59249	6.68455	6.36500	1.69833
226.56250	10.21943	7.49076	6.36492	10.56332
230.46875	13.84626	7.49110	7.57367	14.59308
234.37500	11.42912	5.87975	9.18538	12.98182
238.28125	11.02669	5.07425	8.78238	18.22041
242.18750	11.02717	6.68630	7.57352	21.84732
246.09375	6.59537	3.86616	7.17057	18.62443
250.00000	9.41627	3.06064	6.76756	17.41614
253.90625	16.66951	3.06096	4.34989	12.58155
257.81250	19.08763	5.07596	4.75277	10.16447
261.71875	13.04415	5.47918	7.57322	11.77673
265.62500	11.43287	3.06197	7.97613	7.74795
269.53125	17.07439	6.68865	5.15556	10.97188
273.43750	13.85139	8.30074	5.15550	17.82217
277.34375	9.41961	3.06298	9.58764	9.76406
281.25000	11.43476	-0.56308	9.58759	-0.30869
285.15625	11.03233	2.25774	8.37875	-3.12881
289.06250	5.79467	4.27278	7.97583	1.30393
292.96875	4.18342	3.87017	7.97579	-0.30724
296.87500	7.81029	4.67634	8.78160	-4.33610
300.78125	5.79600	7.09427	6.76691	-1.11215
304.68750	7.00518	7.09459	5.55805	2.91769
308.59375	8.61736	1.85679	7.16972	11.78280
312.50000	9.42381	1.45411	8.78133	15.00683
316.40625	12.64789	4.27494	9.58710	11.38101
320.31250	10.63386	5.48398	10.39286	10.57581
324.21875	11.84327	7.90193	11.60161	9.36771
328.12500	12.64960	7.09636	8.37805	11.38305
332.03125	7.41196	4.27606	7.16913	18.23352
335.93750	9.02440	5.48508	8.78077	21.05473
339.84375	16.68078	5.48534	11.60126	18.63791
343.75000	21.91959	3.87390	13.61588	16.62402
347.65625	14.66749	5.48590	11.19827	17.83351
351.56250	11.44466	9.91852	12.40700	17.02835
355.46875	13.45998	9.51593	11.19815	16.22321
359.37500	13.05760	7.90455	7.97462	13.80629
363.28125	19.90791	8.71072	7.57157	4.13654
367.18750	13.86447	9.51688	7.57148	7.76356
371.09375	-5.07278	9.11427	7.97436	5.74958
375.00000	-3.46052	5.89112	8.78012	2.92971
378.90625	3.38984	4.68261	10.39174	7.76553
382.81250	3.39035	5.89172	9.18294	7.36316
386.71875	-2.25016	5.89203	7.97409	5.75207
390.62500	-8.69657	3.47475	9.58570	10.18485
394.53125	0.97427	2.66924	12.00324	13.00600
398.43750	10.24215	3.07256	11.19735	9.78312
402.34375	9.83976	5.08752	10.79434	8.57487
406.25000	8.63157	5.49073	10.39131	8.17244
410.15625	11.45261	-0.95578	9.98834	9.38175
414.06250	15.48247	-4.17891	10.79412	15.02334
417.96875	13.46829	4.28292	8.77941	14.21798
421.87500	10.24530	8.31254	6.76469	6.96571
425.78125	15.08093	7.10407	8.37631	6.56326
429.68750	14.67844	4.28388	9.58504	6.96675
433.59375	7.02326	2.67243	11.19675	10.59361
437.50000	2.18850	4.68738	8.77910	7.37067
441.40625	-2.24324	2.67303	6.36147	1.32730
445.31250	-1.03391	3.07627	6.36145	-3.10437
449.21875	7.02514	4.28535	7.97318	-1.89502
453.12500	2.99626	4.28564	10.39068	4.95525
457.03125	-1.83845	3.07713	8.37598	2.53816
460.93750	-0.22627	0.25687	9.18183	-2.69945
464.84375	0.17702	0.25718	10.39048	-2.29613
468.75000	-2.24005	0.25747	7.97287	-1.08688
472.65625	-1.83670	0.66071	8.77869	3.34587
476.56250	2.19306	1.46684	9.98746	3.74935
480.46875	2.99942	-0.14456	10.39033	-3.50279
484.37500	4.20863	-2.56188	9.58442	-1.48758
488.28125	3.80620	-2.96450	8.77849	3.75103
492.18750	-0.22265	-0.14371	9.58425	4.15442
496.09375	5.01595	2.67709	9.18130	7.37836
500.00000	9.44864	1.06569	7.97247	5.76717
503.90625	4.61391	-0.94870	7.97245	4.55890
507.81250	0.98796	-1.35140	9.18121	2.94765
511.71875	6.22645	-0.14234	9.98702	4.15693
515.62500	16.30008	0.66377	10.38992	13.42476
519.53125	7.83894	-2.15647	12.40461	11.41058
523.43750	-5.05438	-2.96205	10.79283	6.17299
527.34375	-1.42751	-2.15594	8.37521	4.56186
531.25000	3.81100	-2.96150	9.98694	1.74197
535.15625	2.19968	-4.17002	6.76347	-4.30148
539.06250	2.60311	-6.18441	5.15177	-4.70383
542.96875	3.40944	-5.37832	9.58396	-3.89740
546.87500	5.42457	-2.96049	9.58396	-2.68805
550.78125	5.02214	-2.55737	7.56930	5.37101
554.68750	-4.64777	1.47215	10.38979	8.99791
558.59375	-1.82685	4.69584	9.18105	2.14863
562.50000	4.62054	1.87560	3.94295	-3.49177
566.40625	2.60641	1.07003	4.74878	6.17910
570.31250	0.18924	1.87613	7.16639	10.61191
574.21875	5.42776	1.87637	6.76342	5.77728
578.12500	15.50156	1.47368	5.55460	4.16601
582.03125	5.83171	-0.54069	6.36041	4.56949
585.93750	-4.24107	-3.76388	7.16625	12.62862
589.84375	5.83260	-4.56948	6.36027	14.64380
593.75000	13.08578	-2.95745	7.56901	16.25612
597.65625	16.71254	-0.53964	7.56895	14.24199
601.56250	18.72763	1.07240	6.76305	9.81021
605.46875	21.14570	1.87855	3.13661	18.67514
609.37500	19.53445	0.67002	2.33070	17.06392
613.28125	12.68500	-4.16488	7.16586	14.24391
617.18750	13.49129	-3.76175	7.16587	14.24443
621.09375	16.71510	-0.94096	3.13651	14.64782
625.00000	26.38589	-4.56712	5.55408	23.51278
628.90625	24.77459	-4.56688	5.15115	25.52793
632.81250	14.70166	-2.14904	1.52471	22.30500
636.71875	13.89622	-0.13418	0.31585	20.29092
640.62500	8.25565	1.88067	0.31580	16.66507
644.53125	2.61503	-0.53671	1.12164	14.65096
648.43750	6.64477	-0.93936	-3.71353	10.21920
652.34375	12.28628	1.47842	-6.93697	5.78750
656.25000	12.68966	3.09040	-2.50471	11.42904
660.15625	16.71943	6.31409	1.52457	17.47359
664.06250	23.97265	5.50842	1.12159	12.23610
667.96875	25.18198	3.49402	-0.89309	17.07185
671.87500	18.73559	3.49427	-0.08721	21.90751
675.78125	15.91556	1.88282	-0.08722	18.28169
679.68750	15.91604	0.67426	0.31568	17.87927
683.59375	17.12535	1.07745	1.12152	9.82120
687.50000	17.52876	-2.54871	4.34494	8.61292
691.40625	7.05301	-4.96608	7.16547	9.82220
695.31250	7.45633	0.27229	5.55369	5.79335
699.21875	7.05383	2.28723	7.16543	9.82308
703.12500	7.45714	2.28749	9.18008	12.64401
707.03125	12.29275	1.88487	10.79179	10.62983
710.93750	6.65211	0.67634	13.61230	13.85377
714.84375	5.44373	1.88542	11.59764	15.06302
718.75000	19.94966	4.70620	10.38880	13.04878
722.65625	15.92082	3.90064	12.80637	13.85507
726.56250	-3.82231	1.48332	12.80635	12.24381
730.46875	-2.61312	2.28944	8.77704	11.43848
734.37500	0.61074	1.08096	10.38873	14.66244
738.28125	-0.19468	-0.93345	14.41809	16.67761
742.18750	0.61158	0.27551	11.19463	11.03718
746.09375	2.62661	0.67867	7.97119	4.59088
750.00000	4.23863	-0.52994	9.18002	3.38270
753.90625	8.26831	-0.12678	9.98587	6.60674
757.81250	16.32723	2.29092	7.56825	5.39850
761.71875	18.74512	2.29107	7.56822	2.57857
765.62500	18.34263	1.88835	5.55357	7.01136
769.53125	13.10495	0.67976	4.34476	16.27929
773.43750	10.68778	-1.73762	5.55357	25.95006
777.34375	13.10583	-0.93150	8.37407	22.32419
781.25000	11.89747	3.50088	7.16532	12.25142
785.15625	15.12128	5.51569	2.33015	16.68418
789.06250	16.33046	-2.94564	3.94196	29.17553
792.96875	17.94260	-4.96018	6.76250	42.06982
796.87500	30.83686	-3.75116	5.15085	43.68202
800.78125	40.10476	-3.34796	1.92744	31.19172
804.68750	41.31404	-0.93014	-1.29597	31.99808
808.59375	42.12030	-0.92994	-1.69890	38.04258
812.50000	38.09141	-4.15319	3.13624	37.23713
816.40625	42.52410	-6.97353	5.55384	44.08746
820.31250	49.37438	-5.36154	5.95680	49.32608
824.21875	38.49567	-4.15251	3.94217	45.29732
828.12500	29.22867	-4.95823	2.73339	41.26848
832.03125	35.27308	-2.13745	2.73341	38.85131
835.93750	31.24413	0.28033	3.13631	34.82249
839.84375	24.79767	-0.52529	3.94224	30.39071
843.75000	25.60394	-2.13677	1.12172	22.73552
847.65625	23.99276	-1.33068	1.52468	19.10970
851.56250	19.56116	3.10181	4.34515	21.93073
855.46875	21.17331	1.49030	1.92760	15.48436
859.37500	20.36788	0.28176	-1.29584	11.85854
863.28125	15.53319	3.90841	-0.48998	12.26198
867.18750	25.60691	5.52035	-0.08701	12.26250
871.09375	26.81616	4.71477	-0.08698	13.47179
875.00000	11.50513	1.49153	-0.89287	5.41368
878.90625	5.86452	-0.52294	-0.48993	-3.04743
882.81250	5.86492	0.28307	-1.29580	-2.64402
886.71875	9.89460	0.28324	-1.69879	2.19155
890.62500	13.92424	1.08934	-0.08709	-2.24032
894.53125	16.74508	1.08953	-0.89302	-0.22521
898.43750	15.93960	0.28382	-1.29592	7.02798
902.34375	11.10481	1.89576	-0.89305	3.80497
906.25000	5.86708	1.49299	2.33038	6.62588
910.15625	4.65867	0.28437	1.92748	19.11719
914.06250	10.30010	1.09049	-1.29598	21.13234
917.96875	15.94147	3.50825	-1.29601	16.70057
921.87500	26.01512	5.92605	0.31567	15.49224
925.78125	26.82146	2.70278	-1.69902	4.21063
929.68750	13.52525	0.68829	-4.51955	4.21110
933.59375	9.09345	-0.11740	-0.49031	13.07609
937.50000	10.70550	0.28566	2.33015	15.89699
941.40625	11.91464	-0.52001	1.92725	15.49446
945.31250	17.55607	-2.13152	3.94193	17.91253
949.21875	15.54180	-3.74309	2.33022	17.10722
953.12500	11.91580	-3.33997	2.33026	16.30192
957.03125	9.90161	-0.92222	5.15084	15.09363
960.93750	9.49910	-0.11623	5.95670	16.70581
964.84375	17.15524	1.09273	4.74790	19.52673
968.75000	15.14101	0.68993	4.74793	18.72135
972.65625	5.87403	-1.32458	3.53915	19.93069
976.56250	4.26265	-1.72739	0.31571	17.91653
980.46875	8.29237	0.69036	2.33037	15.09649
984.37500	10.71030	2.30220	1.92750	12.67936
988.28125	9.50195	-2.53280	6.35970	17.11210
992.18750	13.12881	-3.74145	8.77731	21.94772
996.09375	16.35262	2.30265	3.13626	19.93352
1000.00000	11.51780	3.51162	2.73340	9.86072
1003.90625	3.45964	2.30302	3.53926	-3.83846
1007.81250	1.04253	1.90035	1.92755	3.01182
1011.71875	2.25168	4.31817	4.34512	8.25040
1015.62500	4.26676	3.51248	6.76276	0.19223
1019.53125	10.31124	3.51267	4.34518	-1.01612
1023.43750	11.52046	5.52749	1.92765	-5.04496
1027.34375	9.10335	4.31891	-0.48994	-4.23865
1031.25000	6.28333	5.12491	-0.48993	-1.41761
1035.15625	3.06036	3.51331	3.94231	1.00037
1039.06250	0.24015	0.29001	4.74814	2.61257
1042.96875	-2.58002	0.69311	1.12174	1.00134
1046.87500	-0.56499	1.90203	4.34522	2.21070
1050.78125	7.09115	2.30506	8.77750	5.83758
1054.68750	15.15017	2.30521	7.97169	6.24089
1058.59375	9.91244	2.70830	9.58342	12.28533
1062.50000	5.48061	2.30546	7.16592	15.50928
1066.40625	7.09279	1.90268	5.15129	13.09225
1070.31250	9.51070	1.09695	7.16597	15.10744
1074.21875	8.30236	0.69411	5.15132	9.86984
1078.12500	6.28809	-0.51459	4.74837	7.45270
1082.03125	9.10893	-1.32033	4.34543	7.45315
1085.93750	6.69169	1.09740	2.33080	3.02139
1089.84375	10.31854	3.91804	2.33084	6.24531
1093.75000	14.75120	4.72404	1.92798	9.06632
1097.65625	4.27544	3.51539	1.52507	6.64920
1101.56250	11.52860	2.30673	0.31631	15.11129
1105.46875	19.99055	5.12743	1.12221	13.09712
1109.37500	4.67958	7.94810	1.92819	-3.01971
1113.28125	-15.06365	7.54530	4.74870	-16.71894
1117.18750	-17.07790	16.40995	19.25421	-19.53905
1121.09375	-34.40345	12.38082	13.61321	-34.04414
1125.00000	-54.14658	-3.33330	0.71950	-54.99612
1128.90625	-49.71389	3.51668	10.79277	-49.35465
1132.81250	-50.51924	6.74032	8.77817	-54.59227
1136.71875	-60.18910	-3.73571	-0.89213	-69.09732
1140.62500	-73.08242	-3.73553	0.31671	-73.52918
1144.53125	-70.66431	3.92037	7.56948	-65.87305
1148.43750	-55.35254	5.12937	7.56953	-54.59054
1152.34375	-46.89054	1.90611	3.94324	-49.75492
1156.25000	-45.68130	1.50330	1.92864	-44.91923
1160.15625	-45.68093	1.50343	4.34622	-42.09824
1164.06250	-40.03965	1.90651	7.16682	-37.66548
1167.96875	-30.36902	-0.91388	7.16686	-34.03864
1171.87500	-29.96577	-1.71966	5.55516	-28.80007
1175.78125	-26.74196	0.69806	2.73473	-27.18784
1179.68750	-27.54748	-0.91355	3.94358	-30.41083
1183.59375	-28.75589	-0.51056	6.76413	-27.99283
1187.50000	-25.12906	-0.10749	5.15247	-27.18640
1191.40625	-19.48763	0.69850	4.74954	-22.75370
1195.31250	-15.86079	1.90745	3.54077	-18.72390
1199.21875	-11.83111	-0.91290	5.15257	-14.69413
1203.12500	-12.23368	-1.31573	6.76430	-9.85845
1207.03125	-16.66547	2.31070	5.55553	-13.88729
1210.93750	-10.62117	7.14599	4.34675	-12.27525
1214.84375	-5.78566	5.13142	7.16734	-1.79868
1218.75000	-7.39699	4.72855	8.37611	-1.39534
1222.65625	-3.36735	6.34039	7.57029	4.64900
1226.56250	-4.97880	1.90823	4.74984	4.64944
1230.46875	-3.36676	-1.31512	2.33227	-0.18531
1234.37500	6.30396	1.90841	1.92940	5.45616
1238.28125	7.51311	3.11731	2.33233	6.26255
1242.18750	12.75161	1.90863	4.34701	9.88946
1246.09375	18.39308	1.50580	5.95880	6.26352
1250.00000	9.93195	-0.10577	4.34709	-0.58576
1253.90625	-0.54383	-0.50859	0.31783	-3.40571
1257.81250	-0.94630	-0.50846	0.31784	-6.22583
1261.71875	4.69504	-3.32882	5.55595	3.84786
1265.62500	5.09831	-3.32870	4.34717	12.30975
1269.53125	3.08404	0.29778	1.92962	10.69850
1273.43750	-0.13900	-0.10498	2.33254	6.26670
1277.34375	-4.16798	2.71560	2.73553	0.22322
1281.25000	-2.95896	1.50691	3.54143	-2.19393
1285.15625	-0.13805	0.70119	3.54148	-2.99935
1289.06250	0.66823	3.92478	5.15328	-4.61062
1292.96875	2.28035	1.10443	4.34740	-2.59546
1296.87500	1.87788	-0.10424	2.33277	7.47824
1300.78125	-5.77733	-0.50707	1.12400	3.44935
1304.68750	-6.58267	-1.71575	0.31819	-7.42929
1308.59375	-7.79102	0.70198	1.93001	-3.39941
1312.50000	-2.55255	1.91093	0.72129	0.63032
1316.40625	7.11813	1.50813	2.73603	1.03365
1320.31250	4.70090	2.31412	6.36243	7.48102
1324.21875	3.49251	5.13484	3.94494	4.66100
1328.12500	8.32815	5.13502	0.72155	-1.38245
1332.03125	5.50806	-0.10292	2.73624	7.48250
1335.93750	-6.57933	-3.32620	9.18318	11.51224
1339.84375	-2.95255	-2.11724	9.98908	1.43941
1343.75000	2.28593	1.50923	4.75101	0.63400
1347.65625	4.30096	-0.90819	3.94519	3.45495
1351.56250	6.31603	-2.51981	4.34812	2.64960
1355.46875	3.89876	1.10673	5.95991	3.05293
1359.37500	-2.14484	0.70393	7.16877	-0.97593
1363.28125	-9.39719	-0.50471	1.93072	-9.83990
1367.18750	-4.56164	1.51010	-0.08388	-9.03361
1371.09375	-7.78473	3.52490	2.33371	-3.39220
1375.00000	-9.39606	3.92803	2.73672	-6.61527
1378.90625	-5.36632	2.71938	2.33380	-9.43536
1382.81250	-0.12773	3.92833	3.13968	-6.61431
1386.71875	0.67858	-0.10081	4.34852	-3.79330
1390.62500	-2.94737	-7.75637	4.75149	1.04233
1394.53125	-4.15569	-4.93577	2.73685	-3.79232
1398.43750	-5.76706	-1.71222	1.52807	-6.61233
1402.34375	-4.15494	-0.90618	0.31929	-3.38840
1406.25000	1.88936	-0.90605	-1.29238	-7.01438
1410.15625	4.30729	-2.11470	-0.08354	-3.79050
1414.06250	4.30770	-2.11457	-0.88940	-5.40173
1417.96875	3.90525	-2.11445	-1.69520	-2.17784
1421.87500	0.27931	-2.92017	-0.08337	2.65790
1425.78125	-1.33187	-1.30836	0.31961	1.44958
1429.68750	-4.95775	1.10938	-0.88912	-0.56458
1433.59375	-4.15137	0.30359	-1.69490	-0.96700
1437.50000	-3.74806	-2.11386	1.12564	4.27160
1441.40625	-3.74770	-2.91962	3.14031	4.27208
1445.31250	1.08785	-1.30783	2.33449	5.48135
1449.21875	8.34097	2.72155	5.55799	-0.15916
1453.12500	7.13248	1.51282	6.36389	-0.96458
1457.03125	2.70052	-0.09883	4.75226	9.91503
1460.93750	5.92426	1.91586	3.94647	6.69203
1464.84375	11.56560	3.12472	3.54358	7.49826
1468.75000	3.50746	2.31886	3.14069	5.88693
1472.65625	-0.92426	-1.30740	2.73786	2.66391
1476.56250	3.50838	-3.72491	3.94673	7.90250
1480.46875	3.50882	-3.32187	1.93215	9.11181
1484.37500	6.32983	-2.91884	0.72342	3.87422
1488.28125	8.74786	-0.90410	2.33516	-1.76632
1492.18750	3.91318	-0.09816	3.14106	2.66642
1496.09375	-0.11570	-0.50103	3.54405	8.71084
1500.00000	-0.51827	0.30488	4.75289	11.12892
1503.90625	-4.14423	1.11084	3.54414	8.30887
1507.81250	-6.56148	1.51381	1.52957	5.48883
1511.71875	-4.54649	2.31973	3.94726	1.86282
1515.62500	2.30365	-2.91824	3.94732	-5.79257
1519.53125	8.34797	-1.30649	3.94736	-2.97168
1523.43750	9.55703	0.70820	6.76791	3.47561
1527.34375	9.96038	-2.51518	5.55914	1.05838
1531.25000	5.52847	1.11129	1.93283	3.07346
1535.15625	5.52879	3.93182	-1.29057	-1.76125
1539.06250	8.75252	3.93184	-1.69347	-4.98430
1542.96875	3.51471	4.73772	-0.08163	3.07471
1546.87500	5.12681	5.94656	-2.49917	5.08981
1550.78125	5.93301	4.73779	-3.70789	-1.35655
1554.68750	3.91871	4.33493	-2.90196	-1.35607
1558.59375	5.12780	1.51440	-2.49894	5.89712
1562.50000	0.69579	1.51443	-0.48423	3.88291
1566.40625	3.91952	4.73792	-3.30467	3.07743
1570.31250	6.74035	3.52920	-2.49876	3.48083
1574.21875	3.92022	2.72341	1.93355	2.67549
1578.12500	3.51766	7.96154	-0.08102	4.28769
1582.03125	6.33865	9.17039	-0.48393	2.67642
1585.93750	2.30971	6.34994	-1.28974	-5.38181
1589.84375	-8.16615	2.72354	-1.28969	-11.02248
1593.75000	-5.74817	-0.09693	-1.28967	-9.00744
1597.65625	-0.50969	2.32064	-2.09549	-0.54549
1601.56250	-0.91220	1.51480	-0.88670	0.26073
1605.46875	-3.73234	-1.70863	-0.88665	2.27576
1609.37500	-8.16422	-2.11150	0.72515	3.48498
1613.28125	-8.16388	-1.70858	3.94866	-0.94684
1617.18750	-8.56640	0.30611	3.14285	-8.19912
1621.09375	-4.53669	0.30615	2.74005	-8.60154
1625.00000	-8.56558	-1.30552	3.14302	-3.36295
1628.90625	-15.81789	1.51501	0.72556	3.48738
1632.81250	-12.19100	1.51505	-2.49780	4.29379
1636.71875	-7.75823	3.52976	-4.51238	-4.97307
1640.62500	0.30079	6.35036	-2.09471	-4.97255
1644.53125	7.55397	4.73866	-3.30344	-5.37497
1648.43750	5.13678	0.70941	-5.31803	-8.19512
1652.34375	-4.53329	-0.09644	-5.31796	-4.97124
1656.25000	-2.51840	2.32108	-5.31789	0.67025
1660.15625	1.51115	2.32103	-3.70611	1.87950
1664.06250	-2.11485	2.32098	-3.30310	-4.56692
1667.96875	-0.50280	1.11223	-3.70600	-5.77527
1671.87500	5.94446	-4.52882	-3.30300	1.07501
1675.78125	0.70673	-5.33467	-2.90007	2.68718
1679.68750	-2.91935	-1.30541	-3.30291	2.28455
1683.59375	11.58648	0.70920	-1.69116	-0.53560
1687.50000	13.19861	1.51500	-0.88526	-0.13232
1691.40625	4.73742	1.91793	1.93536	4.70320
1695.31250	-1.30620	1.11206	3.54712	6.71825
1699.21875	-7.75278	-2.51437	3.14421	9.13621
1703.12500	-6.94659	-5.33486	5.15898	3.89846
1707.03125	-1.70815	-4.12604	2.74144	3.09281
1710.93750	-2.51364	-1.70848	-0.88492	6.31654
1714.84375	-3.72207	-4.12599	-1.28776	-2.54750
1718.75000	5.94857	-3.72308	-5.71994	-9.39693
1722.65625	5.14310	-3.32013	-5.71986	-5.36716
1726.56250	10.38166	-7.34944	-1.28752	-0.53158
1730.46875	21.66406	-7.34948	1.93603	2.28941
1734.37500	3.12958	-1.70852	-0.07851	-4.55983
1738.28125	-2.91403	1.11203	-4.10774	-2.54456
1742.18750	11.59189	0.30611	-4.91346	13.17033
1746.09375	8.36895	1.51489	-3.70454	20.82652
1750.00000	1.92246	-3.72323	1.53364	18.00657
1753.90625	5.14628	-4.93206	2.74252	19.61872
1757.81250	4.34076	3.12658	-3.30135	15.18695
1761.71875	2.72943	4.33537	-4.91302	9.54638
1765.62500	8.77373	1.11189	-3.30117	13.17331
1769.53125	6.75939	2.32061	-4.91283	12.36783
1773.43750	9.58025	2.32059	-5.31564	13.57707
1777.34375	12.80408	1.11181	-4.10682	16.39809
1781.25000	5.55169	-0.09700	-4.50963	11.96620
1785.15625	3.53737	-2.11165	-1.68907	5.11670
1789.06250	5.14942	-1.70878	-2.89779	2.69947
1792.96875	7.16436	-2.91756	-3.30063	-0.52362
1796.87500	9.17934	-4.52933	-2.49470	-3.34368
1800.78125	3.53862	-4.12638	-3.70340	-0.92573
1804.68750	-3.71381	-5.73815	-2.09155	10.35674
1808.59375	0.31583	-6.14104	-2.49441	13.17770
1812.50000	7.97193	-3.72349	-1.68847	12.77512
1816.40625	7.97231	-4.93231	-0.07663	9.55207
1820.31250	9.18145	-6.54401	1.53513	5.92611
1824.21875	7.57006	-3.72351	4.35569	11.56752
1828.12500	8.77928	-3.32057	3.14697	14.38856
1832.03125	12.00308	-3.32059	2.74417	11.97144
1835.93750	2.33306	-3.32064	1.93840	9.55431
1839.84375	-3.30756	-6.94709	-0.47911	5.92842
1843.75000	0.31913	-8.15588	-0.88200	7.13768
1847.65625	2.33413	-6.14129	-4.50825	6.73526
1851.56250	1.93158	-4.52965	-6.11990	2.30353
1855.46875	-4.91789	-3.32094	-4.50805	3.91574
1859.37500	-7.33502	-4.12688	-6.11970	3.51325
1863.28125	-2.09653	-4.52988	-6.52250	4.31960
1867.18750	4.75365	-2.51528	-3.29898	8.75235
1871.09375	4.35102	-1.30655	-2.09011	13.58788
1875.00000	-2.49849	-1.70960	-0.88131	15.60287
1878.90625	-1.28935	-0.50091	1.13340	5.93299
1882.81250	0.72565	-3.72441	0.32762	-0.91648
1886.71875	4.35232	-3.72446	-0.07524	1.09854
1890.62500	5.56148	-0.90397	-0.88110	1.90480
1894.53125	5.15898	-1.70993	-3.70153	-4.13885
1898.43750	5.56224	-0.90409	-5.31315	-6.55602
1902.34375	3.54790	-1.71008	-3.70138	-7.36155
1906.25000	9.99510	-2.11306	-1.68667	-1.72007
1910.15625	7.98083	-3.72489	-0.07485	5.93600
1914.06250	-0.48032	-5.33663	1.53691	0.69829
1917.96875	2.34052	-5.33669	3.95458	1.50457
1921.87500	1.93803	-2.91913	3.55170	7.95185
1925.78125	-2.49378	1.91596	2.34298	6.74351
1929.68750	0.32716	2.72173	0.73136	-0.91167
1933.59375	3.55109	3.12459	3.14898	-3.32875
1937.50000	1.53692	6.75086	4.35787	0.29805
1941.40625	-1.28317	5.54196	3.95507	1.50725
1945.31250	3.14948	2.72138	5.16400	2.31357
1949.21875	6.37328	3.12425	6.37286	7.55217
1953.12500	-0.87914	0.70656	4.76127	2.31453
1957.03125	-0.07295	0.70649	3.55257	-0.10254
1960.93750	0.33034	1.51229	2.34388	-0.90805
1964.84375	-6.92198	-1.30826	1.53814	-6.14576
1968.75000	-7.32446	-1.71128	1.53823	-3.32481
1972.65625	-6.11528	-4.12891	3.95595	-0.10096
1976.56250	-8.12963	-6.54660	4.35896	-2.11522
1980.46875	-7.32331	-6.94965	2.34442	-1.71177
1984.37500	-6.92000	-6.94975	3.15040	-1.30832
1988.28125	-9.33712	-7.75571	0.73299	-5.33717
1992.18750	-4.50159	-5.74119	1.53896	-1.30738
1996.09375	0.33388	-5.74133	5.16547	2.72242
2000.00000	1.54302	-4.12971	3.95678	-2.91823
2003.90625	6.37855	-0.10050	2.74810	-4.93248
2007.81250	-0.47101	-1.30936	0.73356	-5.73793
2011.71875	-9.73807	-2.11527	-0.07216	-8.15512
2015.62500	-9.33475	-2.92116	-0.47500	-10.16938
2019.53125	-7.31971	-3.32417	-1.68370	-10.57189
2023.43750	-8.52818	-2.51843	-0.87772	-13.79499
2027.34375	-8.52787	-3.32441	-1.68345	-16.21223
2031.25000	-4.49817	-2.51867	-2.08625	-12.98846
2035.15625	-6.10936	-0.90700	-1.68326	-9.36175
2039.06250	-10.94410	-0.50419	-0.87729	-6.54079
2042.96875	-10.54070	-1.31014	-0.07126	-6.94334
2046.87500	-2.48167	-2.11610	-0.87707	-7.34584
2050.78125	-1.67540	-2.92205	-4.10041	-8.55408
2054.68750	-7.71891	-3.72806	-5.30904	-8.55358
2058.59375	-8.52434	-4.13108	-2.08547	-4.12089
2062.50000	-4.49463	-3.72831	0.73515	-2.91161
2066.40625	3.56442	-3.32545	-0.07057	-7.74624
2070.31250	1.14727	-8.16072	-0.07046	-5.73107
2074.21875	-2.47879	-8.56381	1.13838	4.74550
2078.12500	-0.46376	-3.72881	0.73560	9.58100
2082.03125	1.55126	-3.32600	1.94454	14.41663
2085.93750	2.35741	-1.71444	2.75050	11.59657
2089.84375	4.37240	0.30005	0.73596	1.52382
2093.75000	6.38752	-0.10301	-2.08442	1.52425
2097.65625	6.38788	1.91149	-0.06967	1.92761
2101.56250	1.95599	2.71721	2.34800	1.52511
2105.46875	0.34465	2.31412	0.33348	6.36070
2109.37500	6.79197	2.71696	-1.68104	3.94351
2113.28125	5.58354	2.31389	-1.27796	1.12326
2117.18750	4.37503	1.10502	-1.68081	2.33240
2121.09375	8.40466	2.71658	-0.87485	5.55624
2125.00000	7.59907	2.71645	2.34870	9.98886
2128.90625	3.16719	1.10460	1.94590	12.00385
2132.81250	-0.05590	1.50736	-1.27745	7.16905
2136.71875	-3.27897	1.10439	-0.47150	5.96065
2140.62500	-3.27858	-1.31332	-0.06843	5.96105
2144.53125	-3.68116	-1.71640	0.33457	-9.35001
2148.43750	-2.87498	-0.10477	-0.06822	-7.33497
2152.34375	-3.27752	-2.52248	0.33479	1.12700
2156.25000	-4.08302	-3.73139	-3.29145	-4.51363
2160.15625	6.39353	-1.31391	-4.50015	-7.33387
2164.06250	3.17043	-2.11989	-1.27661	-7.73645
2167.96875	-2.47028	-2.12003	-4.90292	-5.72147
2171.87500	0.35049	-1.71730	-3.29104	-4.10945
2175.78125	-2.06677	-0.91154	0.33543	-8.94423
2179.68750	-0.05182	1.90880	0.33554	-2.89996
2183.59375	1.15721	1.10280	2.35028	8.38236
2187.50000	1.56034	-0.91200	0.73868	1.93579
2191.40625	-3.27451	-4.53852	-0.47004	-2.89910
2195.31250	-10.92993	-6.55327	2.35054	-5.31626
2199.21875	-5.69159	-6.55341	3.96238	-7.73353
2203.12500	-0.05031	-4.13599	3.15655	-1.68927
2207.03125	-6.09401	-2.92735	1.54495	1.93746
2210.93750	-6.89968	-1.31582	1.14211	3.14652
2214.84375	1.56214	1.10162	0.73933	6.37027
2218.75000	3.17420	0.29553	2.35114	9.19115
2222.65625	-5.68999	-0.91339	-0.87218	6.37095
2226.56250	-8.91317	-2.12238	-0.87204	3.55083
2230.46875	-2.86896	-0.51089	3.56038	0.32775
2234.37500	2.77241	1.10067	1.14295	-3.70119
2238.28125	1.56395	1.50338	0.74020	-0.47737
2242.18750	0.35551	1.90614	1.54618	5.16399
2246.09375	-0.45000	0.69714	2.75509	9.19368
2250.00000	-0.44967	-0.51185	1.94937	3.55301
2253.90625	6.40048	0.29382	0.33774	-4.50515
2257.81250	1.56552	1.09954	0.33788	-3.29600
2261.71875	-3.67232	-0.91530	-0.06485	-6.11624
2265.62500	-3.67204	-2.12429	-0.06470	-11.75688
2269.53125	-6.08927	-3.33332	-0.46750	-6.92140
2273.43750	-0.04504	-2.52771	0.74147	-2.89176
2277.34375	-0.04476	-2.12494	1.14452	-4.50307
2281.25000	-1.65619	-4.54273	-1.67582	-4.50271
2285.15625	-1.25291	-2.52827	-2.88448	-2.48764
2289.06250	-4.07311	-1.31966	-2.88434	-0.06957
2292.96875	-6.08743	-2.93153	-0.46658	-5.71020
2296.87500	-7.29586	-3.73762	-0.46642	-8.53031
2300.78125	-4.87792	-4.54368	-3.28675	-5.30655
2304.68750	-6.08630	-4.94684	-2.48077	-2.48574
2308.59375	-9.30941	-2.93231	-1.27183	2.75268
2312.50000	-6.08566	-1.72376	-2.07752	-0.47044
2316.40625	-4.07080	-0.51515	-5.30083	-8.12580
2320.31250	-1.65298	-1.32115	-4.89778	-5.70785
2324.21875	4.39128	-4.54474	-1.67417	-0.87235
2328.12500	9.22679	-2.93316	-0.46524	3.56032
2332.03125	-0.04028	-5.75392	-0.46511	-5.30367
2335.93750	-10.51615	-8.17165	-2.47960	-3.69152
2339.84375	-1.65139	-3.73963	-1.27067	6.38223
2343.75000	4.39286	-2.12810	-0.46470	-4.49640
2347.65625	-4.87423	-1.72543	-2.07627	-9.33126
2351.56250	-9.30605	-3.33731	-2.47915	-8.12217
2355.46875	-6.48518	-4.94926	-2.07611	-13.76288
2359.37500	-2.05270	-0.92011	0.34154	-11.74791
2363.28125	-1.64963	-0.51741	-0.46420	-4.49485
2367.18750	-3.26110	-3.74105	-2.07576	-9.32975
2371.09375	-3.26094	-3.33828	-2.07560	-23.83496
2375.00000	-2.05193	-2.53265	-2.47842	-18.99954
2378.90625	-1.64876	-4.14456	-2.47830	-8.12026
2382.81250	-4.06605	-2.13013	-1.67232	-10.53753
2386.71875	-4.87170	-1.72745	1.14832	-5.70209
2390.62500	-10.10953	-2.93638	0.34260	-0.46369
2394.53125	-9.30335	-4.14539	-1.26897	0.74540
2398.43750	-9.70599	-6.96617	-2.88057	-0.46309
2402.34375	-16.95847	-7.77225	-2.07454	3.16356
2406.25000	-13.73479	-6.56368	1.95488	9.61065
2410.15625	-7.28762	-4.14629	1.95500	0.74637
2414.06250	-3.66100	-4.95241	1.14920	-2.07395
2417.96875	2.78614	-4.95265	0.34348	9.20844
2421.87500	11.65082	-3.74410	0.34360	13.64092
2425.78125	11.24815	-4.95315	2.35836	5.98559
2429.68750	6.41325	-5.35631	-1.26786	1.95658
2433.59375	-0.03334	-4.95366	-2.87947	3.97154
2437.50000	-0.43597	-4.14798	1.95589	3.97193
2441.40625	8.42888	-2.93939	3.97069	1.15179
2445.31250	8.42921	1.89554	2.76204	3.56984
2449.21875	-0.83788	-0.52229	3.56803	7.19667
2453.12500	-4.86694	-4.55185	3.56817	-1.66745
2457.03125	-5.67252	-3.74625	-0.86393	-9.32279
2460.93750	-8.08983	-3.34356	-0.86379	-7.30785
2464.84375	-8.08955	-2.94086	0.34512	-10.53095
2468.75000	-2.04534	-0.92646	-0.86361	-12.54532
2472.65625	-4.86572	-1.32967	-3.28106	-7.70999
2476.56250	-10.10360	-2.53872	-1.66927	-6.09809
2480.46875	-6.87986	-0.12135	-0.05742	-2.47142
2484.37500	-4.46197	3.50475	-1.66906	-2.47114
2488.28125	-4.05876	4.71329	-1.66892	-12.14117
2492.18750	-3.65562	3.90721	-2.47463	-14.96142
2496.09375	2.38857	2.29520	-2.07157	-6.09677
2500.00000	10.04451	0.68326	-1.66856	-0.85845
2503.90625	4.80661	-0.12281	-3.68310	-0.85823
2507.81250	-0.02833	-3.34652	-2.87717	1.96261
2511.71875	0.37480	-4.95856	0.34637	0.75406
2515.62500	2.79262	-0.12366	-2.47402	2.76893
2519.53125	2.79280	2.69653	-3.68273	3.17209
2523.43750	1.98711	-0.12426	-2.87677	0.75485
2527.34375	1.98728	-2.54216	-2.87665	5.18735
2531.25000	2.39038	-2.94535	-2.07061	5.18763
2535.15625	4.40519	-0.12512	-1.26462	4.38206
2539.06250	4.00243	1.08340	0.75016	9.21760
2542.96875	6.42023	-0.93155	1.55612	11.23256
2546.87500	15.68776	-0.52896	-0.86136	8.00932
2550.78125	12.86729	2.69420	-1.66708	8.81535
2554.68750	8.83819	2.69388	-2.06987	7.60676
2558.59375	14.07644	1.08188	-1.26393	4.78649
2562.50000	9.24141	-2.94772	0.34785	8.01022
2566.40625	4.00348	-3.35101	-1.66671	0.75772
2570.31250	4.40652	-3.35135	-2.87542	-2.86852
2574.21875	0.78031	-5.36634	-1.66654	3.17557
2578.12500	-3.65177	-0.93441	-1.26353	5.19044
2582.03125	-7.27793	1.07994	-2.06935	5.59364
2585.93750	-1.23380	1.07965	-0.86057	5.59385
2589.84375	1.98985	1.88523	-0.45758	5.99702
2593.75000	-4.45686	1.48199	-1.26337	1.56498
2597.65625	-1.63619	0.67582	-4.48676	-6.49338
2601.56250	3.60213	3.89895	-5.69550	-2.06097
2605.46875	6.82585	2.28690	-5.69541	0.75984
2609.37500	14.07886	-0.13092	-7.30698	-10.52189
2613.28125	6.82644	0.27170	-4.48635	-10.92450
2617.18750	-7.27584	-1.34028	-2.87457	-6.49187
2621.09375	-0.82871	-1.34057	-2.47153	-2.46214
2625.00000	3.20094	-0.13204	-0.85974	-6.08813
2628.90625	2.39532	-1.74411	-2.87429	-12.53463
2632.81250	0.78387	-2.95317	-6.50052	-12.53430
2636.71875	-7.27445	-3.75941	-5.29161	-9.31059
2640.62500	-6.06541	-3.35678	-3.27688	-6.48974
2644.53125	-0.82714	-2.14828	-5.29147	-6.89242
2648.43750	1.59057	-6.58084	-2.47090	-1.65403
2652.34375	0.78490	-6.98412	-1.26201	1.56964
2656.25000	1.59095	-0.94040	0.75274	5.59917
2660.15625	4.00881	0.26806	3.57335	7.61407
2664.06250	4.00910	-0.53813	0.35000	3.18207
2667.96875	5.21816	-0.53847	-0.45574	3.98822
2671.87500	7.63595	-2.95636	-2.06734	3.58545
2675.78125	-0.42239	-2.95670	-2.06727	0.36220
2679.68750	-0.42221	-4.16581	0.75329	2.37708
2683.59375	6.02481	-0.13684	3.17090	2.78022
2687.50000	2.80150	9.13022	-0.45536	2.37739
2691.40625	-3.64522	7.11523	-4.88754	2.78051
2695.31250	-9.28602	3.89145	-0.45517	-3.66612
2699.21875	-8.07709	1.07064	3.97719	-4.47167
2703.12500	-5.65932	1.07032	4.78314	-2.85970
2707.03125	-8.07677	3.08462	3.97740	-5.27697
2710.93750	-8.07662	2.27836	2.36575	-2.45628
2714.84375	-4.85305	0.26335	0.75415	0.76735
2718.75000	-6.46460	0.66595	-1.26041	-4.47050
2722.65625	-5.25566	2.27730	-0.05152	-2.45560
2726.56250	-4.04677	2.27692	-1.66317	-5.67881
2730.46875	-1.22612	3.08244	-1.66306	-7.29027
2734.37500	-0.42001	2.67910	1.96346	-0.84303
2738.28125	0.38615	1.87291	0.35179	3.58959
2742.18750	14.48904	2.27546	-0.45398	4.79879
2746.09375	12.87763	2.27508	-1.25970	-2.05063
2750.00000	-4.85093	1.46883	-0.85669	1.97919
2753.90625	-9.68567	0.66260	0.35220	1.57665
2757.81250	-4.44716	0.66221	-2.06522	-7.69026
2761.71875	-3.64092	1.46767	-1.25926	-12.12200
2765.62500	-4.84933	0.25849	-1.66212	-12.12154
2769.53125	-6.46058	-0.14477	-1.66202	-6.88294
2773.43750	-12.90701	-1.75686	-0.85607	-5.27063
2777.34375	-10.08603	-3.36889	-2.87061	-10.50822
2781.25000	-4.44453	-2.96629	-4.07928	-10.91069
2785.15625	-8.87638	-1.75789	-5.69083	-12.92478
2789.06250	-9.27879	-2.96697	-4.88486	-18.16233
2792.96875	-9.27829	-4.17612	-2.87010	-13.72967
2796.87500	-12.50123	-1.35596	-1.25823	-8.08823
2800.78125	-6.85974	0.25545	0.75655	-4.86430
2804.68750	-2.02403	-3.77415	-1.25800	-7.68434
2808.59375	-1.21767	-4.98328	-2.86964	-9.29566
2812.50000	6.43850	-0.55131	-0.04897	0.77806
2816.40625	7.24477	-1.76042	3.57748	5.21067
2820.31250	-0.81348	-3.77544	2.77173	-1.63875
2824.21875	-3.63376	-1.76117	-0.45161	-0.02666
2828.12500	-3.63352	0.25309	2.36901	2.39118
2832.03125	-8.06554	0.65569	3.17499	-0.02608
2835.93750	-8.46818	-1.35932	1.16046	-1.63762
2839.84375	-5.24453	-0.95675	-1.25697	-2.44328
2843.75000	0.79956	-0.15126	-2.46563	-1.63721
2847.65625	8.45543	0.65423	-2.86842	-0.83111
2851.56250	6.44095	0.65387	-1.65946	-0.02491
2855.46875	1.20299	-0.55531	0.35531	2.39293
2859.37500	-0.00568	1.05606	-2.86806	1.99035
2863.28125	2.81501	0.24976	-4.47964	4.00528
2867.18750	10.47092	-2.97403	-4.47952	5.61720
2871.09375	4.42708	-3.37739	-2.06179	3.19986
2875.00000	-6.45180	-3.37776	0.35587	-2.84385
2878.90625	-8.06335	-1.36347	0.35597	-5.26118
2882.81250	-6.45142	0.65078	2.37073	1.99179
2886.71875	-6.85416	0.24741	3.17670	-2.03733
2890.62500	-6.85390	1.45581	1.96809	-0.82826
2894.53125	-8.86828	1.05253	0.35647	-0.02203
2898.43750	-8.06218	-3.78305	-0.85218	-7.67739
2902.34375	-4.03260	-4.58930	0.35678	-8.48300
2906.25000	-2.82364	-2.97797	1.16279	-6.87104
2910.15625	-3.22633	-1.76963	1.16296	0.38204
2914.06250	-0.40562	-2.17290	3.17776	-0.02059
2917.96875	2.41508	-4.59088	0.76038	-4.04969
2921.87500	1.20655	-3.78543	-2.86587	-2.03479
2925.78125	-8.06067	-3.78582	-2.86572	-0.82574
2929.68750	-11.68674	-3.78619	-0.04500	-3.24298
2933.59375	-4.43365	0.24270	2.37272	-3.64564
2937.50000	-6.44803	3.06285	3.17872	-4.45123
2941.40625	-7.25374	-0.16099	1.97015	-6.46564
2945.31250	1.61089	-2.57897	0.35855	-6.06251
2949.21875	6.04334	-0.56470	0.76161	-4.45050
2953.12500	-1.61222	0.24076	-1.25294	-4.04730
2957.03125	5.64067	1.04628	-0.84992	-3.64406
2960.93750	-0.00011	2.25462	-1.25269	-2.43495
2964.84375	-16.11713	1.04551	-2.05841	1.99760
2968.75000	-12.08768	0.64216	-3.67001	-3.64325
2972.65625	-5.23772	2.25336	-4.47566	-10.89574
2976.56250	1.61224	2.65581	-1.65496	-0.41919
2980.46875	5.23888	2.65532	-1.25182	4.01346
2984.37500	1.61276	0.23729	-0.44580	-3.23889
2988.28125	1.21016	-1.37480	1.97196	-2.43262
2992.18750	6.04561	1.44531	1.56918	3.20876
2996.09375	3.62831	3.45958	0.76353	3.61202
