 	TP9	AF7	AF8	TP10	
-1000.00000	3.83712	2.52187	1.59969	-8.86743
-996.09375	1.41769	5.74472	4.82271	-4.84006
-992.18750	0.61000	0.50597	2.80766	-5.24494
-988.28125	1.41403	-3.12103	2.80728	-2.42644
-984.37500	1.41223	-1.51000	0.79222	5.63020
-980.46875	7.05144	0.10106	-0.41697	8.44870
-976.56250	1.40852	-2.72002	1.19442	12.87891
-972.65625	-5.04024	-0.30300	0.79113	7.23585
-968.75000	-1.01281	5.33736	0.79077	-9.68924
-964.84375	-2.22347	4.53089	-0.82138	-12.91473
-960.93750	1.40093	4.53027	0.79000	-6.06689
-957.03125	1.39899	4.12671	1.59541	5.61611
-953.12500	4.62055	1.30551	-0.82263	14.88152
-949.21875	7.43915	2.11079	-0.42008	6.82088
-945.31250	2.60207	0.09545	-0.42048	-2.44853
-941.40625	2.19723	-3.12860	-1.22672	-3.25636
-937.50000	-2.23684	-6.75568	-1.22710	1.57690
-933.59375	-7.47691	-0.71242	-0.82456	1.57492
-929.68750	-11.10532	4.12212	-1.63075	-4.87404
-925.78125	-14.73367	3.31553	-3.24282	-11.32299
-921.87500	-13.52697	1.70317	-0.01977	-10.51922
-917.96875	-7.88794	0.49367	-1.63197	-10.92426
-914.06250	0.97452	0.09001	-4.45295	-12.13524
-910.15625	6.21053	0.08935	-1.63294	-15.76379
-906.25000	3.79101	0.49166	-3.24510	-16.57167
-902.34375	-3.46378	-4.74712	-3.24554	-9.32094
-898.43750	-3.86877	-9.58293	-1.23134	-0.05562
-894.53125	-2.25900	-11.19529	-1.63479	12.83607
-890.62500	-2.26096	-7.16661	-1.23230	19.28082
-886.71875	0.15475	-7.16723	-1.23272	7.99675
-882.81250	9.42035	-9.18247	-3.24776	-2.48148
-878.90625	13.85071	2.09899	-1.63650	1.54579
-875.00000	13.04295	6.12766	-2.03984	-7.32078
-871.09375	10.22054	2.50062	-4.05492	-12.15790
-867.18750	5.78637	3.70878	-1.23482	-2.08660
-863.28125	8.20204	4.11110	-1.23522	-0.47683
-859.37500	11.42347	0.08111	-1.23563	-6.52268
-855.46875	12.22741	-1.93415	0.37563	-8.53925
-851.56250	5.77857	-1.53181	-0.43065	0.32320
-847.65625	2.95616	-0.72655	-0.02812	3.94752
-843.75000	5.77472	0.88466	1.98611	5.55725
-839.84375	2.95223	-0.32480	1.17985	10.39029
-835.93750	-3.89964	-4.35483	-0.43230	9.98524
-832.03125	-9.13973	-5.96727	-0.02977	5.55095
-828.12500	-8.33582	-5.16200	0.77564	5.14592
-824.21875	-6.72599	-5.96855	-4.05999	3.53222
-820.31250	-3.50449	-4.35743	-3.65755	2.72422
-816.40625	3.34329	0.07409	2.38594	-0.09843
-812.50000	-0.28499	-1.94122	3.19138	-12.18838
-808.59375	-9.55429	-7.58286	1.98210	-9.36986
-804.68750	-9.15332	-3.15129	3.59335	2.31317
-800.78125	-1.09661	4.50365	6.41343	2.31114
-796.87500	0.11026	2.48833	3.59250	-8.97297
-792.96875	-2.30922	0.87597	1.17452	-10.58680
-789.06250	-3.92286	0.47238	-0.03468	4.72245
-785.15625	-3.92485	-0.73710	-0.84098	5.92915
-781.25000	0.10247	-0.33482	-1.64727	-4.54910
-777.34375	-3.92874	-0.73843	-2.05062	-12.20673
-773.43750	-5.94528	-6.78305	-6.48331	-22.68486
-769.53125	-7.55888	-8.39540	-5.27493	-21.07508
-765.62500	-12.79897	-1.94919	0.76860	-1.73633
-761.71875	-11.18931	1.27361	2.78282	7.52911
-757.81250	-11.99713	0.46713	2.78239	-4.15782
-753.90625	-10.79025	-3.15981	1.17027	-1.33938
-750.00000	-2.73357	-4.77219	1.57276	8.73181
-746.09375	4.51728	1.27113	0.36359	-1.34356
-742.18750	0.48609	4.89695	-2.45727	-17.05995
-738.28125	-9.99201	-0.34176	-3.26354	-22.30012
-734.37500	-7.97929	-3.96883	-2.05518	-15.04943
-730.46875	-1.13141	-1.95484	-1.65270	-4.57530
-726.56250	-3.14796	-7.19360	-0.44433	-0.95085
-722.65625	-9.19384	-12.83524	-1.65358	-1.75866
-718.75000	-10.40453	-8.40362	-3.66867	-2.16361
-714.84375	-0.33310	-11.22481	-5.68376	0.25207
-710.93750	0.06787	-13.64299	-5.28123	7.90583
-707.03125	-12.02202	-3.16747	-0.04354	10.32157
-703.12500	-9.60640	4.48751	1.97071	9.51379
-699.21875	-9.20539	1.66636	3.58198	3.87074
-695.31250	-7.99844	0.05396	1.16405	-2.17520
-691.40625	-0.74759	0.05329	-0.04515	-4.99770
-687.50000	-3.16714	-0.75326	1.56612	-12.25249
-683.59375	-5.18374	0.85781	2.37153	-15.47795
-679.68750	-4.78274	-0.35167	-0.85235	-10.64478
-675.78125	-3.57587	0.45352	-5.28498	-10.24385
-671.87500	-2.36895	2.87052	-0.85324	-10.64893
-667.96875	-8.01190	-3.97992	1.16106	-10.24814
-664.06250	-11.23734	-4.78638	-2.86873	-5.41514
-660.15625	-6.00124	-2.36947	-1.66041	0.22380
-656.25000	-8.01789	-8.81708	1.15969	-4.21059
-652.34375	-7.21404	-1.96797	5.99437	-10.65965
-648.43750	-5.20135	3.67243	6.79976	-9.45293
-644.53125	-8.02381	-1.96930	3.97884	1.82710
-640.62500	-2.38473	1.25349	3.57548	-0.99540
-636.71875	2.44846	4.47633	3.17217	-7.44428
-632.81250	1.64068	3.26689	1.15711	-4.22281
-628.90625	2.44456	1.65456	0.35078	-9.46295
-625.00000	-1.18378	1.65392	1.96208	-0.60054
-621.09375	-4.00613	1.65327	-0.45597	13.09707
-617.18750	-2.39620	-1.97377	-0.45641	12.28915
-613.28125	-5.62150	-5.60075	0.34902	2.61683
-609.37500	-11.66736	-1.97512	-1.66603	-1.81728
-605.46875	-12.87810	-1.97579	-3.68112	-2.62524
-601.56250	-5.62729	-7.61739	-3.68159	-7.46245
-597.65625	-6.43511	0.03760	-2.47325	-13.50841
-593.75000	-12.07814	1.24574	-4.08537	-18.74852
-589.84375	-12.88592	0.03630	-5.69754	-13.51242
-585.93750	-8.85851	0.03565	-2.47451	-3.44111
-582.03125	-4.83118	0.43792	-1.66908	-5.86062
-578.12500	-1.20679	3.25773	-2.87832	-3.84799
-574.21875	2.41773	2.45120	-1.26701	9.84956
-570.31250	6.04221	3.25638	1.15014	1.38600
-566.40625	0.80226	0.43523	4.77602	-9.49527
-562.50000	-8.87003	-4.40056	4.77558	-3.05044
-558.59375	-3.23100	-2.78952	-0.06003	7.42372
-554.68750	1.60223	-5.61064	0.74534	15.88317
-550.78125	-0.41437	-7.22300	3.16253	17.49280
-546.87500	-2.43091	-1.17967	-1.27008	18.29659
-542.96875	3.61113	2.84894	-5.29977	22.72675
-539.06250	8.44440	0.43070	-0.06211	15.47184
-535.15625	8.44254	-0.77877	1.95208	-2.66220
-531.25000	14.08167	0.83230	0.74282	-5.88756
-527.34375	8.43867	0.42869	2.35406	2.16903
-523.43750	-0.02484	1.63684	2.75656	-2.26531
-519.53125	-6.07077	4.85960	-0.46733	-5.08783
-515.62500	-10.50500	1.23251	-1.67659	5.38633
-511.71875	-12.52164	-2.39447	1.94942	10.62234
-507.81250	-13.32944	-2.79809	-0.46855	-1.87053
-503.90625	-6.88445	-0.78410	0.33688	-2.67842
-500.00000	-11.72146	0.42402	2.75407	-4.29211
-496.09375	-15.75270	-4.00888	0.33605	-17.18789
-492.18750	-4.87550	-6.02416	0.73858	-15.57813
-488.28125	-3.26577	-1.18964	0.73817	-11.95374
-484.37500	-7.69997	-1.59330	-4.50034	-12.35862
-480.46875	-8.10497	-4.81745	-3.29196	-7.92847
-476.56250	-8.50998	-3.20640	0.73694	-7.52757
-472.65625	-9.72077	-0.38662	-1.27809	-9.94723
-468.75000	-6.90228	-1.19318	-2.48729	0.12398
-464.84375	6.79534	2.83543	-2.08477	2.94237
-460.93750	11.62843	2.43179	-2.08521	-4.31244
-457.03125	6.38829	-4.41871	-4.10028	-4.31447
-453.12500	4.77455	-2.80774	-3.69783	6.56257
-449.21875	7.99597	0.41496	1.13694	18.64844
-445.31250	3.56172	-2.00338	3.95699	14.21408
-441.40625	1.54507	-5.22746	2.74775	3.73576
-437.50000	3.55777	-2.81060	1.53850	-1.10155
-433.59375	3.55588	3.23267	-0.47658	-2.71539
-429.68750	10.80672	3.63499	-2.08870	-4.73200
-425.78125	3.95493	5.64895	-3.29794	-11.58380
-421.87500	-6.92616	8.46874	-6.92475	-12.39164
-417.96875	-5.71930	2.42412	-4.91051	-3.52920
-414.06250	-3.30365	-1.60586	-3.70216	-0.30779
-410.15625	-4.51431	0.00512	-5.71726	-3.93610
-406.25000	-0.08406	0.40732	-6.12053	-3.93802
-402.34375	1.92863	-0.80223	-3.30043	0.49221
-398.43750	0.71791	0.00290	-0.48040	-7.16554
-394.53125	4.34229	0.00222	-1.68965	-9.98820
-390.62500	11.59305	2.82210	0.32459	1.29187
-386.71875	11.18807	2.41846	2.33885	12.97478
-382.81250	4.73924	-3.62618	0.32377	12.16695
-378.90625	7.96073	-6.44739	-2.49718	6.92679
-375.00000	5.94406	-4.43344	-4.10935	4.10420
-371.09375	5.94208	3.62452	-3.30394	4.50505
-367.18750	5.13428	6.04143	-0.88682	8.53233
-363.28125	-3.32920	1.60845	-2.09596	-2.34893
-359.37500	-0.91352	3.21943	-2.49929	-7.18625
-355.46875	2.30797	4.83046	-2.49971	1.67596
-351.56250	-1.32046	2.00924	-2.09721	0.86793
-347.65625	-1.72533	6.44074	-2.09770	1.26868
-343.75000	3.10787	8.85769	-5.32167	13.75728
-339.84375	3.91170	3.21599	-0.88995	20.20210
-335.93750	2.29797	-1.21688	3.94481	16.17076
-332.03125	4.71355	2.40873	3.94438	1.66326
-328.12500	-1.33251	-0.41250	0.31756	-12.44140
-324.21875	-6.97554	-6.45715	-2.10040	-16.87586
-320.31250	-4.55990	-1.21978	-0.89212	-14.05746
-316.40625	-1.74138	4.42050	1.92799	-4.79212
-312.50000	-6.17563	6.43448	1.12171	0.84686
-308.59375	-5.37183	4.82209	-2.90809	-1.16988
-304.68750	9.93750	3.20960	-2.50558	4.06610
-300.78125	10.33840	2.00018	1.12036	-2.38293
-296.87500	-2.15434	-0.82099	0.31401	-10.84665
-292.96875	-5.37967	-1.22451	-0.49223	-1.58141
-289.06250	-2.15815	-1.22519	-0.49266	10.50443
-285.15625	-4.57759	-2.83764	-0.49310	12.91989
-281.25000	-9.01175	-3.64417	-0.89647	4.45628
-277.34375	-8.20783	-3.64484	-1.70274	5.66305
-273.43750	-5.38929	-3.64551	0.71443	9.69031
-269.53125	0.65280	1.18898	2.32570	1.22673
-265.62500	3.87426	4.00882	-0.49519	-16.10144
-261.71875	-2.17165	1.99339	-3.31610	-15.70056
-257.81250	-11.03811	-4.85721	-4.12241	-4.01758
-253.90625	-9.02549	-2.84323	-1.30235	7.66529
-250.00000	-4.99817	-0.02338	4.74119	12.49838
-246.09375	-9.43240	-2.84455	1.11441	6.04942
-242.18750	-8.62855	0.37824	-2.51241	-1.60828
-238.28125	-2.98952	3.19809	1.51647	-18.13043
-234.37500	2.24658	3.19747	-0.90156	-24.57937
-230.46875	3.45344	2.79395	-3.72250	-21.76079
-226.56250	4.25729	4.80792	-0.09655	-12.09248
-222.65625	4.25526	4.40426	0.30590	-6.05053
-218.75000	-2.19368	-2.84924	-1.70915	-11.29070
-214.84375	-2.19571	-9.29688	-1.70955	-9.27814
-210.93750	0.21991	-6.07418	-3.32167	-5.25093
-207.03125	-0.58790	-2.85146	-3.32211	-2.02953
-203.12500	-4.61915	-2.44918	-2.91966	-6.06084
-199.21875	-3.00940	-5.27034	-4.93474	-16.13610
-195.31250	1.42089	-5.27099	-8.15863	-14.12343
-191.40625	5.04532	5.60748	-1.71218	2.39469
-187.50000	-3.82105	6.41266	4.33131	11.25714
-183.59375	-13.09043	-0.43780	2.71915	18.50779
-179.68750	-9.86895	-2.85605	1.91284	15.68523
-175.78125	-5.84162	-4.06547	1.50940	-1.64284
-171.87500	-7.85824	-0.43974	1.10605	-10.50931
-167.96875	-7.45730	0.36539	-0.10319	-11.72013
-164.06250	-3.42988	-7.69393	-5.74467	-7.28993
-160.15625	3.41809	-2.45658	-6.55095	-13.73883
-156.25000	3.81904	2.78077	-2.11913	-14.54656
-152.34375	-0.61511	2.37712	-3.73135	-4.07228
-148.43750	1.39750	4.79401	-6.95526	-2.05961
-144.53125	3.41016	8.01673	-5.34397	-3.67335
-140.62500	-2.23279	6.00138	-3.73267	-0.04893
-136.71875	-3.84644	2.77724	-4.53892	-6.09490
-132.81250	-1.02792	1.56777	-6.55399	-6.49990
-128.90625	2.19361	-0.85050	-6.95732	1.15373
-125.00000	9.04151	-1.65701	-3.73423	-4.08648
-121.09375	7.83088	-2.46354	-3.73460	-3.28275
-117.18750	1.78493	-0.85256	0.69723	3.16209
-113.28125	4.60354	-0.04741	1.50265	6.38345
-109.37500	8.63091	-0.45095	-5.75052	14.44010
-105.46875	7.42017	2.36885	-4.94510	17.25858
-101.56250	3.79175	-1.25826	-3.73674	9.19786
-97.65625	-0.64247	-1.66188	-2.93132	-0.07162
-93.75000	-7.89725	1.96387	0.29173	-13.77326
-89.84375	-9.51108	-1.26026	-0.51448	-16.19283
-85.93750	-9.11017	-5.69321	-0.91782	-11.35958
-82.03125	-9.91799	-1.66459	-0.11231	-7.33229
-78.12500	-3.87597	2.76702	-2.53033	-1.69335
-74.21875	-3.47508	1.55753	-1.32195	-3.71011
-70.31250	1.76096	3.57144	1.90108	-8.54736
-66.40625	8.20583	4.77950	1.09479	-8.14651
-62.50000	7.39798	-0.05643	1.09433	4.74519
-58.59375	2.56083	-2.87760	-2.12957	3.53426
-54.68750	-2.67923	3.97161	-1.32418	-6.54111
-50.78125	-2.68119	1.55332	0.68996	-2.11097
-46.87500	-3.08616	-2.07379	1.09243	-8.15708
-42.96875	-4.29698	1.14898	0.28604	-15.00897
-39.06250	-4.29903	-0.46338	-0.11730	-4.93780
-35.15625	-5.10692	-1.26991	-0.92363	-2.52229
-31.25000	-3.09425	2.35575	-2.53575	-7.35960
-27.34375	0.12721	0.74337	-3.74499	-1.31783
-23.43750	-3.90409	0.33969	-2.53663	9.96209
-19.53125	-12.36763	1.54778	-1.32824	13.58635
-15.62500	-7.13154	-0.46759	-0.92577	-5.75635
-11.71875	1.32799	-0.87126	3.50604	-3.74365
-7.81250	0.52021	-2.48363	4.31145	9.14818
-3.90625	6.56228	-8.12539	1.49051	8.34024
0.00000	8.97789	-4.09683	0.28127	8.33818
3.90625	0.91732	-2.08291	-0.12206	5.51570
7.81250	4.94463	-4.09828	-2.54011	3.09630
11.71875	7.76317	-2.08432	-3.34641	3.90014
15.62500	1.71718	3.95901	-0.92933	1.88344
19.53125	-5.13457	3.55542	-2.94444	1.47845
23.43750	-4.73354	1.94310	-2.13897	-5.77632
27.34375	0.09969	4.35999	-0.52770	-12.22527
31.25000	-2.72272	3.15051	0.68068	-2.15408
35.15625	-1.11296	1.94109	0.27731	0.66427
39.06250	-0.30904	-2.49186	-0.93189	-2.96419
42.96875	0.89784	-3.29845	-2.54400	-6.59249
46.87500	1.29887	-3.29919	-7.78255	-2.96814
50.78125	0.49106	-4.10577	-7.78299	-0.95550
54.68750	7.74182	0.72878	-1.33656	4.68349
58.59375	7.33682	2.33983	1.88645	11.93407
62.50000	5.32015	1.13037	5.10946	4.67915
66.40625	3.70637	-0.07911	6.31773	-1.36697
70.31250	-3.54841	-2.49733	2.28796	1.45136
74.21875	-5.56508	-3.30391	-0.13004	1.85227
78.12500	1.68561	1.12752	-2.54808	-6.20838
82.03125	-5.16622	-4.51419	-1.33972	-10.64269
85.93750	-17.25610	-6.12662	-1.74310	-13.06229
89.84375	-13.22876	0.31961	-3.35521	-15.07891
93.75000	-11.61902	-0.48687	-3.35563	-7.42521
97.65625	-8.80048	-0.48755	-0.13260	2.24307
101.56250	-5.98193	-2.10003	3.09044	1.83814
105.46875	-3.96927	-4.11539	0.26948	-17.10162
109.37500	-0.34489	-4.92194	-2.14847	-23.95332
113.28125	-1.95856	-0.08753	0.26868	-13.07617
117.18750	-4.78097	5.55277	2.68589	-3.40789
121.09375	-0.75360	5.55206	3.08844	-1.39537
125.00000	4.48255	5.14840	1.47625	-14.69421
128.90625	-6.39857	6.75946	-1.74766	-10.26416
132.81250	-13.25037	5.14701	-0.13639	-7.04286
136.71875	-14.05830	3.13168	1.07192	-8.65664
140.62500	-13.65738	0.31045	0.26558	-7.44985
144.53125	-4.39199	-0.49615	1.47397	-8.25776
148.43750	-0.36469	-1.30272	-0.13814	-7.45393
152.34375	1.24505	0.30830	-4.16786	-2.21804
156.25000	-1.98046	5.94869	-2.15359	5.03248
160.15625	2.44971	-2.51357	0.66654	2.20974
164.06250	5.67109	-6.94654	2.68075	3.41639
167.96875	2.04277	1.51433	5.09790	9.05537
171.87500	0.02603	5.54294	5.09746	6.23275
175.78125	-5.61705	5.13931	3.88821	5.82774
179.68750	-7.23072	6.75040	1.87308	2.60224
183.59375	-0.38296	8.36141	3.48428	13.07640
187.50000	7.67371	3.52561	2.67792	9.44788
191.40625	6.86581	3.12199	0.66282	-3.04514
195.31250	0.01398	3.92716	-3.36687	-0.62968
199.21875	-5.22618	0.70296	-5.78486	-2.24351
203.12500	-4.82530	-1.31241	-6.99406	-2.64858
207.03125	-6.03622	-4.13371	-3.36811	-3.85945
210.93750	-6.44129	-2.92568	1.86952	-7.48784
214.84375	-2.41403	0.69999	3.88374	-9.50447
218.75000	0.00161	3.51979	3.07746	-10.31237
222.65625	5.64067	5.53376	0.25649	-10.71723
226.56250	4.42999	3.11549	-0.95273	-5.88411
230.46875	4.83092	3.51775	-0.95311	-0.64804
234.37500	8.05243	-0.51223	1.06122	-3.87351
238.28125	3.61824	-0.91589	2.67246	-3.06971
242.18750	-0.81596	0.69509	7.50715	0.15170
246.09375	0.39084	1.50013	7.50671	-0.25322
250.00000	3.61226	4.31991	3.47698	2.56520
253.90625	-4.04536	2.70753	5.08832	10.62169
257.81250	-4.45028	1.49806	4.68495	15.45488
261.71875	-3.24351	3.51205	4.28160	8.20021
265.62500	-5.26018	2.30251	3.47534	0.94548
269.53125	-1.23290	-1.72757	5.08668	-0.66834
273.43750	2.39143	3.10683	1.86281	-0.67045
277.34375	4.00107	5.92669	-0.15227	-0.26958
281.25000	2.79020	-0.52089	3.47366	-0.67460
285.15625	6.81744	1.89601	3.87617	-0.27379
289.06250	8.02422	5.52160	3.87569	-0.27598
292.96875	6.81338	3.50620	3.06940	-4.30744
296.87500	0.36452	1.89376	-0.15450	-8.74181
300.78125	-2.45802	0.68419	-0.55790	-5.92341
304.68750	-0.04237	5.51861	3.06809	-2.70206
308.59375	-4.07362	6.72670	2.26175	-9.15107
312.50000	-4.07560	-1.33260	0.24665	-7.94432
316.40625	2.36928	-5.36261	-1.76843	0.11225
320.31250	5.99362	-6.97509	-4.99229	3.33364
324.21875	3.57402	-11.00511	-5.39560	2.92867
328.12500	1.15451	-8.18535	-2.57553	-1.90869
332.03125	-1.26503	-1.73917	-0.96429	-3.11968
335.93750	-7.71391	3.49820	-1.36760	-8.35985
339.84375	-7.71590	7.92975	-1.36803	-5.54135
343.75000	-3.28559	5.91438	-3.38312	12.58841
347.65625	-6.10799	2.28721	-3.38356	14.19815
351.56250	-5.70700	0.27181	-0.96646	-4.33860
355.46875	-1.27670	0.27106	1.04783	-18.44319
359.37500	-2.48749	-0.53554	3.46495	-11.59537
363.28125	-4.50413	-3.35679	4.67330	-1.12127
367.18750	-3.29733	-9.80442	4.26988	-3.94376
371.09375	-4.50811	-13.02859	-0.96861	-11.60140
375.00000	-3.70426	-6.98541	-1.77485	-8.78298
378.90625	-4.10916	-0.53930	3.46283	-0.32346
382.81250	-3.70829	1.87757	1.85071	0.48042
386.71875	-6.12786	3.48854	-0.56731	-3.14802
390.62500	-5.32406	2.68192	-2.98531	-9.99992
394.53125	-3.31141	4.69582	-6.61209	-17.25472
398.43750	-11.37199	1.47166	-3.79202	-18.46556
402.34375	-21.44730	-12.63167	-0.97192	-18.87050
406.25000	-22.65799	-15.45287	-2.98695	-16.05201
410.15625	-19.43648	-7.79785	-2.58444	-3.16027
414.06250	-20.24432	-1.75465	0.63854	-6.78862
417.96875	-15.00813	-2.96420	1.44395	-3.56719
421.87500	-8.16026	-9.81469	1.04060	4.89232
425.78125	-3.32713	-4.98026	2.65181	-1.55660
429.68750	-1.71741	3.07759	3.45720	-3.17042
433.59375	-4.13692	-3.36997	1.84504	3.27439
437.50000	-7.36237	-3.77364	1.84457	5.68993
441.40625	-4.54386	-0.55089	-2.58811	0.44975
445.31250	-3.73998	-1.76044	-5.40902	-0.35815
449.21875	1.09329	-0.95540	-1.78308	5.28082
453.12500	1.49426	-2.97080	3.05169	3.26412
457.03125	-6.56623	-7.40379	3.45414	3.66499
460.93750	-3.34471	-5.79276	0.63319	9.30396
464.84375	2.69729	0.25048	-1.78486	2.45224
468.75000	-3.34867	-3.37660	-2.59115	2.45035
472.65625	-3.75368	-7.40666	-0.57695	9.70119
476.56250	-3.75569	0.65130	-4.20372	-3.19463
480.46875	-7.38401	3.47112	-6.21885	-8.83776
484.37500	-4.16252	4.27631	-3.80182	-9.24291
488.28125	1.47654	5.48443	0.22697	-15.28905
492.18750	-0.54007	3.06609	-2.19103	-9.65015
496.09375	-4.16840	1.85661	-4.20611	2.83861
500.00000	0.26185	-4.18814	0.62860	5.25415
503.90625	0.25983	-2.57718	1.03115	6.05803
507.81250	0.66078	3.06304	2.64242	3.23551
511.71875	3.07647	1.45063	5.86544	2.42757
515.62500	1.86576	3.06169	3.85036	4.03722
519.53125	-2.16546	5.07576	2.64113	1.21471
523.43750	-6.59965	1.44875	5.05828	4.43605
527.34375	-8.61618	0.64218	5.86368	4.83687
531.25000	-2.17114	0.64143	2.63978	2.82020
535.15625	-1.77011	-1.77693	-0.58413	-6.44918
539.06250	0.24277	2.25163	-0.98755	-20.95675
542.96875	2.65846	3.05676	-1.39086	-22.16742
546.87500	-4.19321	1.44438	-3.80889	-11.69321
550.78125	-4.59802	4.66711	-3.40637	-2.83083
554.68750	-6.21159	5.87518	2.63717	-0.01235
558.59375	-10.24280	-0.16949	3.84555	-6.46121
562.50000	-8.23005	1.84460	4.24801	-5.65745
566.40625	-9.84369	1.44097	3.84467	0.78739
570.31250	-4.20452	-3.79785	1.82957	1.99415
574.21875	3.04634	-3.39564	1.82912	-0.42544
578.12500	-3.80541	0.22997	-0.58894	-1.23346
582.03125	-6.22481	3.45268	-3.00700	-3.25019
585.93750	-2.19743	3.85493	-2.20155	-6.87859
589.84375	-2.19940	0.22781	-2.60496	-5.26892
593.75000	-2.60430	-0.17586	-3.81422	1.17594
597.65625	-5.02385	-2.19122	-0.18827	14.87353
601.56250	-7.84644	-6.62413	3.43763	21.72128
605.46875	2.22489	-7.02780	4.24307	10.43719
609.37500	10.28153	0.62720	1.42218	-11.72600
613.28125	3.02684	7.47633	1.82470	-19.38377
617.18750	0.60728	7.47565	2.63012	-14.95356
621.09375	2.61993	4.25149	-3.01131	-9.71745
625.00000	7.45316	4.65374	-7.04099	2.36853
628.90625	7.85411	3.44421	-2.60917	6.79899
632.81250	9.46398	-2.60048	0.61380	7.60291
636.71875	13.49140	1.02508	-0.19248	9.21253
640.62500	8.65430	3.03892	2.62759	1.15193
644.53125	5.42890	0.62056	4.64180	-3.28228
648.43750	7.44168	3.44032	2.22381	3.96851
652.34375	11.46906	6.66309	0.20878	10.41347
656.25000	1.79675	2.23016	3.43182	12.82916
660.15625	-7.06967	-6.63497	3.83437	15.64774
664.06250	-0.62479	-3.81518	1.41643	14.43699
667.96875	-1.83555	5.85445	2.62487	0.33248
671.87500	-5.06093	5.04782	4.23615	-2.89300
675.78125	-7.07761	3.83834	2.62402	-0.47751
679.68750	-3.05035	3.43459	0.20596	-1.68838
683.59375	0.97692	2.22499	-0.19737	4.75645
687.50000	-3.05442	1.41839	-1.40660	7.97779
691.40625	4.59920	1.82061	-3.01877	0.72293
695.31250	15.47641	1.81986	-1.40740	-7.74078
699.21875	12.25105	1.41616	-1.00487	-10.56349
703.12500	-1.85345	-0.19628	0.20351	-10.16258
707.03125	-9.10809	-3.01745	2.21771	-0.89713
710.93750	-7.49818	-2.61516	1.41143	1.92156
714.84375	-8.30585	-2.61584	0.20219	0.71098
718.75000	-6.69603	-7.45170	3.02233	3.12666
722.65625	-0.25104	-5.84064	3.42482	-1.71033
726.56250	-0.25294	0.20259	0.60388	-4.12986
730.46875	-5.49293	-1.40977	-1.81417	-0.50542
734.37500	-8.31531	-4.63393	-3.42632	1.91010
738.28125	-12.74945	-1.41121	-0.60628	0.29632
742.18750	-10.73672	-0.20317	-3.83018	6.33819
746.09375	-2.68009	-0.20386	-4.63648	3.11268
750.00000	0.13847	-1.41330	-1.01058	-15.42419
753.90625	4.97168	-2.21994	-1.01103	-16.63498
757.81250	5.37265	2.61452	0.19735	-8.57834
761.71875	1.74435	5.83728	2.21160	-4.14812
765.62500	-2.28688	9.06005	2.21121	-3.34434
769.53125	-5.91524	2.61246	2.21080	3.50344
773.43750	-5.51429	-6.65567	0.59866	9.54529
777.34375	-6.72507	-0.20960	-1.41646	-8.18575
781.25000	2.13748	5.02772	-0.61110	-15.44056
785.15625	11.40295	5.02697	0.19427	-6.17521
789.06250	4.55117	2.20575	-1.41788	2.68731
792.96875	-2.70353	1.39919	-3.03007	16.38502
796.87500	-3.51129	1.39851	0.19297	5.10109
800.78125	-4.72194	-1.42266	0.99848	-3.76536
804.68750	-5.12665	-0.61748	0.99806	-9.00552
808.59375	-3.91973	-1.02111	2.60929	-16.26026
812.50000	-0.69813	-1.42471	6.23520	-6.59191
816.40625	6.14984	0.18625	3.01139	-1.75882
820.31250	4.13330	-0.21743	-2.22712	-1.76087
824.21875	-5.13600	-1.42690	-0.61585	-0.15122
828.12500	-4.33210	0.98991	0.59253	-0.55615
832.03125	0.50111	-3.44300	-0.21374	3.06816
835.93750	-3.53006	-6.66715	-0.61713	3.46906
839.84375	-5.94959	0.98777	1.39705	-2.17401
843.75000	-4.33987	3.00164	3.41124	1.45051
847.65625	-6.75948	-0.22257	-3.84195	-0.96896
851.56250	-10.38782	-5.05843	-8.67753	-0.56800
855.46875	-10.38981	-5.46207	-5.05161	5.87686
859.37500	-3.94491	-0.22480	-1.82859	1.44265
863.28125	0.08248	-0.22555	-1.42605	-9.03567
867.18750	-1.93424	-2.64386	-1.82941	-16.69342
871.09375	0.07846	0.17588	-1.82981	-13.47195
875.00000	0.47943	2.99567	-1.42727	-8.23585
878.90625	-1.94006	6.62137	-1.83066	-3.80561
882.81250	4.10200	3.80021	0.18352	-3.00178
886.71875	10.54689	-1.03568	-0.62283	-0.58619
890.62500	7.32160	-0.23054	-5.05556	1.42654
894.53125	2.88744	0.17172	-4.65305	3.43925
898.43750	5.70602	2.18565	-1.02714	10.28709
902.34375	8.52461	2.99073	-0.22164	17.94083
906.25000	11.34324	5.00467	0.18084	19.95350
910.15625	6.50605	3.79524	-2.23714	9.87828
914.06250	0.05718	0.57105	-1.02884	1.01172
917.96875	-1.15361	-0.63853	3.00007	-5.84021
921.87500	-5.99078	-3.86278	5.01424	3.42504
925.78125	-11.23089	-5.07231	4.61085	5.03459
929.68750	-4.78604	-2.65543	1.38698	-14.71106
933.59375	4.47937	0.97017	-1.43393	-20.35395
937.50000	-3.98417	3.38701	-1.43432	-5.04446
941.40625	-13.25356	1.77457	-0.22592	4.22103
945.31250	-3.58514	-3.06136	-3.85274	-6.25711
949.21875	3.26275	-8.70304	-4.65902	-16.33235
953.12500	-5.60361	-6.28617	-2.24188	-17.14023
957.03125	-5.60553	-5.48095	-2.24230	-9.08362
960.93750	-3.99571	-3.06414	0.17481	0.58479
964.84375	-8.83269	-1.05022	-2.64613	3.80620
968.75000	-7.62571	-1.45379	-4.66121	1.78954
972.65625	-4.40408	1.36602	-5.06460	5.01098
976.56250	-4.80883	1.76825	-2.64742	17.90277
980.46875	3.24796	1.36455	0.57556	14.27439
984.37500	0.82857	1.36385	-0.23076	0.16990
988.28125	-6.02314	2.57198	0.97759	-5.47313
992.18750	1.63072	0.55667	1.78300	-8.29561
996.09375	5.25519	-2.26457	-0.23209	-8.70051
1000.00000	-1.19362	2.16692	1.78212	3.38547
1003.90625	-2.40437	-0.25145	2.99050	11.84507
1007.81250	0.81719	-5.49023	2.99009	4.18746
1011.71875	0.00945	-2.67046	-0.63673	2.17081
1015.62500	4.84267	-7.90928	0.16869	-7.90446
1019.53125	9.27300	-5.89537	2.18296	-20.39729
1023.43750	2.42116	3.37124	1.37672	-21.60809
1027.34375	-2.01307	1.35584	7.01735	-10.73097
1031.25000	-9.26774	-0.25662	10.64329	1.75799
1035.15625	-11.68718	0.14565	10.23999	0.14436
1039.06250	-12.09202	0.54792	9.03076	-3.48402
1042.96875	-18.54084	-1.87040	2.98641	-9.52993
1046.87500	-17.33395	-1.87111	-0.64041	-7.51724
1050.78125	-10.88892	0.54579	1.77677	-6.71329
1054.68750	-4.84690	0.14213	4.99981	-13.96801
1058.59375	-8.07230	-0.26153	6.20814	-13.56698
1062.50000	-8.07420	-2.67986	4.19309	-11.95719
1066.40625	-1.22625	-5.50114	1.77515	-7.52697
1070.31250	2.39822	-1.06967	6.20693	-3.90257
1074.21875	-0.02118	2.15304	7.81824	4.95987
1078.12500	-6.87289	-2.68286	4.99728	8.58430
1082.03125	-7.68063	-1.47479	3.38508	0.52371
1085.93750	-2.84741	5.77721	-0.24170	0.92459
1089.84375	-0.02875	4.56769	1.77253	9.38410
1093.75000	-1.23942	2.14939	7.41311	9.38203
1097.65625	-2.04716	6.98381	1.36874	-0.29034
1101.56250	0.77159	8.59485	-2.25803	-3.91867
1105.46875	3.18729	3.75899	1.36784	5.74962
1109.37500	-1.24672	0.93772	3.38201	15.01511
1113.28125	-7.69542	-1.07764	4.59035	10.17804
1117.18750	-0.04156	-1.48127	5.39574	-2.31462
1121.09375	3.98587	1.74150	4.58944	-6.74867
1125.00000	-0.85119	2.14372	3.78316	-3.93008
1128.90625	8.81734	3.75473	4.58861	-1.91739
1132.81250	8.00966	5.76864	2.57358	-5.54582
1136.71875	-0.05078	2.94736	0.96147	-8.36835
1140.62500	2.36492	0.52908	2.16977	-3.93803
1144.53125	0.34845	-3.50093	0.96059	-0.31353
1148.43750	2.36127	-2.29285	-2.26329	3.31101
1152.34375	-1.26696	2.13873	0.15384	-1.52605
1156.25000	-6.50690	-2.69713	-0.24945	-6.36309
1160.15625	-3.68824	-3.90664	-0.24986	-1.52987
1164.06250	1.95091	1.73368	1.36143	2.49761
1167.96875	8.39586	2.94167	-3.47415	7.33085
1171.87500	3.15589	1.73215	-1.45994	9.34355
1175.78125	-1.27819	2.13431	4.18064	12.16209
1179.68750	2.74921	-2.70154	2.56853	14.98079
1183.59375	5.56783	-3.91102	1.76225	5.71152
1187.50000	-0.07509	-0.68824	2.56766	-3.55780
1191.40625	1.13170	-0.68897	1.76138	-0.33634
1195.31250	1.53272	2.93668	-0.25369	-1.54716
1199.21875	1.93376	4.14481	-1.86587	-11.21948
1203.12500	0.72302	4.14407	-0.65751	-11.22145
1207.03125	-6.53166	4.54628	0.55086	-8.80588
1210.93750	-3.31009	-3.11018	-1.46421	-2.76382
1214.84375	0.31438	-6.33438	-1.46463	5.29283
1218.75000	-2.50798	0.91762	-3.07684	7.70844
1222.65625	1.11653	7.76675	-5.09191	15.76510
1226.56250	5.14394	6.96012	-0.66009	8.91338
1230.46875	1.51574	2.93007	2.15995	-7.20574
1234.37500	-0.50070	2.52647	0.14487	-10.43115
1238.28125	1.91506	2.12281	-3.07900	-3.58326
1242.18750	7.55413	3.33089	-3.48230	-4.39103
1246.09375	9.16397	1.71856	0.14363	-1.97541
1250.00000	5.53571	-1.50556	-0.25967	3.26071
1253.90625	7.95148	-0.29754	-4.28937	1.24409
1257.81250	5.53204	-1.10413	-0.26047	4.06262
1261.71875	5.93320	-3.11953	4.97724	2.04605
1265.62500	11.57241	-3.12024	7.39440	-0.37347
1269.53125	1.90030	-1.10630	7.79694	-6.01637
1273.43750	-5.35425	-3.12163	0.54373	-7.22703
1277.34375	-3.74438	-2.71934	-2.27722	-3.19955
1281.25000	-1.73159	2.92098	2.55748	-5.21606
1285.15625	-3.74805	0.90568	1.75119	-8.44148
1289.06250	-1.33226	1.30793	-3.08444	-18.91959
1292.96875	-2.94586	3.32179	-4.29359	-19.72733
1296.87500	-13.42388	0.09763	-4.29399	-4.01495
1300.78125	-11.41107	-1.91769	-1.07105	0.81830
1304.68750	-2.54835	3.72266	1.34611	1.62227
1308.59375	-2.95306	2.91603	2.95749	11.69366
1312.50000	-5.37246	-2.32280	3.36001	11.69177
1316.40625	-5.77732	0.49706	0.13615	1.21368
1320.31250	-8.19677	1.30224	-1.07307	-2.01169
1324.21875	-6.58682	1.30158	0.13529	-6.44589
1328.12500	-1.35054	-2.72835	0.94072	-13.70061
1332.03125	-0.14357	-6.35543	1.34316	-12.09081
1335.93750	-0.95125	0.09083	0.93984	-10.48104
1339.84375	-3.77350	6.94001	-1.88115	-8.46832
1343.75000	-3.77526	5.32765	-1.47863	-2.02330
1347.65625	-1.35937	6.13279	-1.07617	1.60114
1351.56250	-2.56987	4.52037	-0.27071	5.62854
1355.46875	-3.78044	-1.52424	1.34055	6.43257
1359.37500	2.26168	-0.71904	-5.10677	-6.86605
1363.28125	5.48333	0.89201	-1.07791	-17.34421
1367.18750	3.46686	0.08556	5.36853	-16.13740
1371.09375	-0.96719	-1.92971	2.54756	-13.72165
1375.00000	-12.65391	-2.33337	3.35296	-15.33509
1378.90625	-16.68502	-1.52818	3.35252	-16.94853
1382.81250	-14.26912	-4.75236	3.35210	-14.53265
1386.71875	-11.04739	-7.97654	2.94879	-9.69923
1390.62500	-5.00519	-5.96259	2.94836	-8.08920
1394.53125	-7.82745	-5.15745	2.94796	-11.71741
1398.43750	-5.41157	-5.56104	0.93290	-9.30169
1402.34375	-1.78693	-4.75585	1.33539	-3.66256
1406.25000	-8.23563	-5.96533	1.33499	-0.44098
1410.15625	-7.02869	-1.53379	3.34923	-1.24872
1414.06250	-0.98660	2.89770	-0.27755	-8.10039
1417.96875	0.22030	1.28529	-4.30730	-3.67013
1421.87500	-5.42259	-2.34181	-3.09899	-0.85144
1425.78125	-13.08012	-1.13370	-3.50229	-8.10601
1429.68750	-13.48490	0.88024	0.12360	-7.30200
1433.59375	-8.65151	-0.32929	2.94371	-8.10969
1437.50000	-1.80349	-1.13584	2.13738	-3.27636
1441.40625	-2.20824	-1.53941	-0.68353	2.76570
1445.31250	-3.41882	1.28038	-1.08688	9.21068
1449.21875	-7.44992	3.29430	4.15084	13.23815
1453.12500	-10.67516	-2.75031	2.53876	14.04221
1457.03125	-3.82719	-1.94519	-2.69971	14.84639
1460.93750	1.00616	6.11267	-0.68544	3.56261
1464.84375	7.45128	6.51489	2.13463	-4.90063
1468.75000	12.68760	4.09653	-1.08926	-6.11128
1472.65625	4.22435	3.69291	-3.50724	-4.09847
1476.56250	-3.43302	2.48339	-1.89600	-2.89150
1480.46875	-3.83774	-1.94958	-1.09060	-1.28161
1484.37500	-4.64531	-4.77083	-1.49394	5.56640
1488.28125	-1.42360	-7.18919	0.92324	14.02620
1492.18750	5.02152	-5.98112	-0.68888	4.35417
1496.09375	-0.21820	-2.75838	-4.71856	-12.16776
1500.00000	-3.44333	-1.55024	-5.12192	-12.16956
1503.90625	-2.63916	-1.55089	-1.09306	-3.70992
1507.81250	-7.87902	-3.56623	0.51823	1.12339
1511.71875	-4.25447	-3.56696	1.72658	2.73327
1515.62500	6.62291	-1.15017	2.12901	7.96955
1519.53125	8.23288	-1.15091	-0.28901	9.17658
1523.43750	1.38142	-1.55456	1.32222	3.13095
1527.34375	4.20020	-5.98755	3.33644	-3.31768
1531.25000	7.01898	-5.18240	3.33600	2.32157
1535.15625	5.00251	-3.16843	4.14143	4.73725
1539.06250	3.79202	-1.96031	1.32052	-0.90562
1542.96875	0.56681	3.27711	2.12595	-3.72803
1546.87500	-1.44957	5.29109	4.94606	-0.50641
1550.78125	-6.68938	2.06696	0.51335	1.10355
1554.68750	-5.88528	-1.15718	-1.50170	-1.31579
1558.59375	-4.27531	0.85675	2.52724	3.11480
1562.50000	0.96115	4.48244	4.94446	-1.31917
1566.40625	3.37714	1.66129	2.12348	-8.17078
1570.31250	-9.92124	-1.56284	-1.50327	-4.14330
1574.21875	-12.74347	1.65990	-1.50369	-2.13045
1578.12500	-5.49251	-1.96718	-1.10122	-2.53519
1582.03125	-5.89733	-6.80303	1.31596	-10.59560
1585.93750	-10.73429	-1.16276	-2.31080	-29.93811
1589.84375	-12.34788	-0.35760	-10.77276	-30.74590
1593.75000	-11.14098	-4.38761	-10.37027	-11.40705
1597.65625	-8.72526	-8.01467	-3.92376	-0.93268
1601.56250	-3.08615	-6.40369	1.71689	-6.57558
1605.46875	-0.67046	-7.61320	3.32817	-4.96570
1609.37500	-2.68699	-9.22561	-0.70156	-4.96755
1613.28125	-1.48000	-6.80872	-1.91083	-10.20743
1617.18750	2.14465	-3.18306	-3.52295	-6.17991
1621.09375	2.94877	-1.57202	-4.32918	-4.57010
1625.00000	-4.30577	-1.97574	-2.31493	4.29247
1628.90625	-5.91927	-5.60283	0.50517	6.30519
1632.81250	-0.28005	-8.82700	-1.50986	1.06524
1636.71875	0.12105	-11.64825	-5.53958	1.06347
1640.62500	-0.68654	-13.66358	-3.52534	-0.95299
1644.53125	-1.09127	-2.78513	-5.13748	2.26865
1648.43750	-4.71934	1.24351	-8.36130	4.28156
1652.34375	-11.57092	-2.78640	-4.73525	-0.55533
1656.25000	-8.75213	-1.57826	-2.31799	-2.97455
1660.15625	-1.50112	2.85325	-4.73597	-3.78221
1664.06250	-3.11454	5.27015	-2.72172	-9.02210
1667.96875	-6.74256	3.65775	-1.91629	-1.77117
1671.87500	-5.53546	-0.77522	-3.93137	8.30038
1675.78125	-0.29907	-4.80525	-3.12595	5.88108
1679.68750	-1.10667	-8.02941	-1.91757	4.26768
1683.59375	5.33854	-6.01540	-1.51502	-7.82202
1687.50000	8.96320	0.02789	-3.12716	-9.03258
1691.40625	3.72340	2.84772	-5.94802	-1.78159
1695.31250	0.49824	2.44416	-6.75426	2.24602
1699.21875	-1.51811	-1.58581	-5.54585	0.63249
1703.12500	0.09189	0.02521	-2.72573	-0.98103
1707.03125	3.31367	0.42751	1.30316	0.22597
1710.93750	9.35593	-1.58775	1.70569	-0.58162
1714.84375	8.95134	-0.78259	-0.30936	0.62554
1718.75000	-3.13827	-4.00681	-2.72734	0.62382
1722.65625	-12.40731	-2.79874	-1.11606	-6.22777
1726.56250	-8.37973	-0.78477	1.30111	-11.06479
1730.46875	-3.54626	-3.60592	1.30069	-5.82841
1734.37500	-7.57724	-1.59197	1.70325	1.82562
1738.28125	-7.98190	2.43660	3.31460	3.43560
1742.18750	-4.76021	1.63008	2.91133	3.83680
1746.09375	-3.95611	2.43522	-0.31251	3.02921
1750.00000	1.28026	3.24032	0.89591	-1.80776
1753.90625	3.69611	-4.81892	3.71601	3.02572
1757.81250	-0.33490	-8.44595	4.11848	7.45624
1761.71875	1.67805	-4.82018	-0.31415	7.85734
1765.62500	-2.75589	-4.82080	0.08828	10.27312
1769.53125	-11.21914	-6.03022	2.10249	-3.42840
1773.43750	-11.22092	-5.62795	1.29621	-12.29475
1777.34375	-12.43148	-4.01698	4.92219	-19.14644
1781.25000	-21.70060	-6.43530	6.13053	-24.78919
1785.15625	-23.31398	-2.80962	8.14484	-20.35874
1789.06250	-18.48047	2.02486	8.54735	-10.28717
1792.96875	-13.24406	1.21833	3.71179	3.81363
1796.87500	-3.97837	4.03812	-0.72088	9.05002
1800.78125	8.10784	1.61992	0.08453	8.24251
1804.68750	8.50913	3.23095	2.09874	9.44960
1808.59375	1.25471	3.23032	-0.31924	1.79219
1812.50000	2.86472	-2.41133	-4.34899	-4.25351
1816.40625	12.53339	1.21444	-4.75236	-4.65825
1820.31250	11.72584	5.64599	-2.73813	-9.89806
1824.21875	-0.36379	5.64524	0.08193	-12.72018
1828.12500	-8.82706	-0.80242	-2.73899	-9.09545
1832.03125	-14.06687	0.40568	-1.12771	0.17034
1835.93750	-7.62168	9.26945	0.88660	3.39200
1839.84375	1.24110	9.67171	-0.72557	-1.44491
1843.75000	6.07466	5.64175	0.88575	-3.86428
1847.65625	3.25254	0.40299	0.48235	-7.08942
1851.56250	1.23625	4.02867	1.28775	-6.68827
1855.46875	-3.60053	4.83385	3.70494	-14.74856
1859.37500	-12.06381	-0.40494	1.68990	-17.16789
1863.28125	-12.87148	-7.25539	-0.72810	-17.97556
1867.18750	-12.47036	-7.25602	-2.74314	-25.63306
1871.09375	-12.06910	4.02538	-2.74356	-16.36744
1875.00000	-15.29424	2.81588	1.28530	-2.26663
1878.90625	-15.69886	-0.00532	4.10537	-0.65674
1882.81250	-10.46242	0.79987	1.28446	-9.12012
1886.71875	-10.46411	0.79920	0.47822	-11.94237
1890.62500	-10.46580	0.39565	0.07491	-11.94397
1894.53125	-10.06455	-1.21672	-3.14891	-14.76605
1898.43750	-5.63395	0.39438	-0.32873	-12.35013
1902.34375	0.40835	0.39368	1.28259	-3.08453
1906.25000	-6.44318	0.79591	-1.94125	-0.66887
1910.15625	-7.25073	2.40699	0.07302	3.76152
1914.06250	2.01501	0.79455	3.29606	13.02718
1917.96875	8.86320	0.79390	1.28103	0.93766
1921.87500	12.89081	4.01674	-3.95744	-9.94310
1925.78125	9.26279	2.80733	-9.59887	2.94914
1929.68750	6.03772	-2.02846	-6.77879	0.93292
1933.59375	4.82731	2.00016	-1.13821	-7.53028
1937.50000	2.40819	5.62587	0.87608	-4.71149
1941.40625	-3.23449	-1.62756	1.27857	-9.95126
1945.31250	-6.86247	-6.46347	-0.33349	-18.81736
1949.21875	-1.22308	-4.44953	0.06903	-13.17798
1953.12500	-5.65684	-5.65898	-1.94597	-5.12095
1957.03125	-8.47896	-3.64501	-3.96097	3.33887
1960.93750	-0.01904	0.78652	0.87384	6.15772
1964.84375	5.62040	1.18881	0.06752	-7.54373
1968.75000	-2.84274	-1.63231	-3.15632	-9.96312
1972.65625	-13.72346	-9.28862	-6.78306	-7.95019
1976.56250	-8.48692	-5.66287	-5.57463	-11.98125
1980.46875	-4.05626	-7.67824	-0.73987	-5.53610
1984.37500	-6.07250	-6.87297	0.87148	5.34134
1988.28125	-6.07416	1.18497	-2.35236	8.96617
1992.18750	-11.71690	-3.24797	-3.56154	4.93528
1996.09375	-7.68922	-2.84573	0.46737	-1.11038
2000.00000	-6.88508	2.39165	-0.33885	-5.54434
2003.90625	-11.72196	1.18214	-3.56269	-9.17247
2007.81250	-5.27672	-2.04203	-4.36897	-7.15953
2011.71875	-1.65205	-1.63978	-2.35473	-5.54952
2015.62500	-11.32413	-0.02876	0.06243	-5.14825
2019.53125	-16.56389	-1.23823	3.28552	-4.74709
2023.43750	-8.90987	-2.85061	4.49394	0.48934
2027.34375	-3.27055	-4.06008	-0.74456	-1.92997
2031.25000	-8.10732	-3.25492	-1.55084	-11.19910
2035.15625	-10.52650	-7.68785	0.86634	-16.03596
2039.06250	-1.26068	-8.49437	-0.74580	-22.08159
2042.96875	6.79628	-9.70391	-1.55199	-24.09797
2046.87500	6.39160	-12.92813	-1.14945	-14.02647
2050.78125	1.15190	-0.84089	-0.74688	0.47727
2054.68750	-1.67021	6.41117	-1.95607	3.29603
2058.59375	-1.26893	4.79875	-1.95642	0.47385
2062.50000	-5.70269	1.57473	-0.34504	0.47215
2066.40625	-4.89843	-0.84352	1.66924	11.34961
2070.31250	-4.09419	-4.87351	-1.95755	10.94505
2074.21875	-4.49871	-5.68002	-4.37549	8.12305
2078.12500	-4.50028	-2.05434	0.05634	11.74783
2082.03125	-8.53114	-3.26384	3.27939	-0.34169
2085.93750	-8.12972	-4.87618	2.87608	-15.65464
2089.84375	-8.53424	-0.04166	1.66687	-28.95301
2093.75000	-9.34166	-0.84814	0.86063	-18.88141
2097.65625	-10.95496	-2.86342	0.45732	-5.98948
2101.56250	-10.55368	4.38869	3.68042	-5.18524
2105.46875	-13.77871	2.77635	6.50056	-3.97805
2109.37500	-12.97441	-2.86524	5.29139	5.69071
2113.28125	1.12654	-5.28348	0.05293	0.04806
2117.18750	1.52797	-10.52224	-2.76793	-13.25034
2121.09375	-4.92048	-13.74636	0.05216	-7.61081
2125.00000	-6.53382	-14.55289	2.06640	-3.18001
2128.90625	-3.31192	-7.30087	3.67777	-4.79323
2132.81250	-6.93977	0.75696	2.46856	-11.24167
2136.71875	-9.76182	1.96513	-5.59048	-18.49606
2140.62500	-6.13691	5.18801	-7.20269	-16.88597
2144.53125	-6.13846	3.17276	0.85555	-11.24663
2148.43750	-10.97517	-2.87184	1.66100	-1.57794
2152.34375	-12.58841	0.35096	-1.56283	3.25556
2156.25000	-6.14300	2.76788	-0.75733	1.23925
2160.15625	0.70527	0.34971	1.65991	-2.79179
2164.06250	-2.92255	0.75198	4.48002	-5.61398
2167.96875	-4.13283	2.36308	3.67379	-7.63023
2171.87500	3.52138	4.77996	2.86755	-5.21426
2175.78125	3.92273	-2.47343	0.85254	3.24558
2179.68750	2.30944	-5.69751	0.04629	15.73484
2183.59375	-3.33309	3.56922	3.26937	25.00079
2187.50000	-2.93159	3.97143	2.46312	14.92615
2191.40625	5.52845	1.95610	1.25394	-1.59547
2195.31250	6.73574	-0.05917	4.07408	-9.25269
2199.21875	3.51078	-4.49202	5.68544	-4.82197
2203.12500	2.30044	-7.31314	2.46161	1.22038
2207.03125	1.49300	-4.09037	0.04362	-2.00474
2210.93750	-0.52324	-0.86760	0.04324	-3.21513
2214.84375	-1.73358	0.74346	-3.98640	-8.85775
2218.75000	-3.74973	3.56338	-8.01603	-14.09739
2222.65625	-4.96006	3.15977	-7.21048	-19.73996
2226.56250	-10.60265	2.35328	-1.97274	-21.35335
2230.46875	-10.60414	3.56143	2.05613	-15.31105
2234.37500	-3.35289	0.33733	5.27918	-4.03061
2238.28125	-2.95152	-7.72199	2.45830	2.01177
2242.18750	-4.16189	-6.91676	1.65202	-3.63097
2246.09375	-0.53698	-0.87347	0.03984	-6.05016
2250.00000	3.89367	3.96099	-4.39273	-2.82820
2253.90625	3.48928	6.37793	-0.76675	-0.41214
2257.81250	-4.57080	6.78025	-0.36421	-7.66642
2261.71875	-3.36342	0.73567	-4.39391	-7.26492
2265.62500	4.29081	1.13797	-3.99137	-4.84885
2269.53125	-0.54576	4.76369	0.84347	-10.08852
2273.43750	-10.21753	-2.89261	4.87240	-5.25490
2277.34375	-9.81617	-3.29623	3.66322	8.04022
2281.25000	1.86732	0.73242	4.06574	8.03871
2285.15625	7.90979	-0.47698	2.45369	-8.07994
2289.06250	12.74349	0.73121	0.03571	-11.70768
2292.96875	12.74197	3.14815	2.45294	-4.05353
2296.87500	6.69654	1.53582	3.25845	-9.69606
2300.78125	-0.96063	1.93811	1.64642	-13.72693
2304.68750	-9.02069	1.53460	-0.36860	-7.68455
2308.59375	-14.66318	1.53400	-0.77191	-5.26851
2312.50000	-17.08228	-0.48131	-2.38399	-2.04673
2316.40625	-14.26327	-6.52593	-3.99614	-6.48046
2320.31250	-16.68242	-0.88559	-0.77306	-6.88493
2324.21875	-14.66933	1.93420	0.43539	-10.51284
2328.12500	-11.44745	-5.31929	1.24089	-10.11150
2332.03125	-14.67248	-8.14052	2.04639	2.37775
2335.93750	-7.42132	-6.52954	3.65778	8.42007
2339.84375	0.23280	1.52841	6.47791	6.80679
2343.75000	-5.00692	7.97458	2.04531	2.37296
2347.65625	-4.20271	-0.48759	-2.38725	4.78901
2351.56250	3.45138	-7.33802	-1.17891	8.81672
2355.46875	1.43513	-0.48888	-5.61148	0.75662
2359.37500	-3.40165	-0.08659	-6.41768	-6.90054
2363.28125	-5.01490	0.31565	-1.58291	-7.30497
2367.18750	-5.01641	4.34424	-3.59791	-8.51532
2371.09375	-5.01788	5.55240	-6.01586	-8.11397
2375.00000	-5.42228	1.92539	-1.18110	-10.13015
2378.90625	-5.42372	-0.49286	2.04201	-8.51990
2382.81250	-7.84269	-0.89641	2.84759	5.98415
2386.71875	-5.02365	-3.71752	2.84721	13.23550
2390.62500	0.21290	-3.31528	2.84682	8.39890
2394.53125	3.03195	-0.49544	0.83179	-0.06398
2398.43750	7.86579	5.14499	-0.37739	-10.13876
2402.34375	2.62632	7.56202	0.42807	-10.94620
2406.25000	-5.83659	5.94967	0.83065	-5.30676
2410.15625	-6.64393	4.74026	0.02438	9.19717
2414.06250	-6.64538	-0.09548	-0.78181	16.04538
2417.96875	-7.45267	-8.15467	3.65011	2.74716
2421.87500	-2.61894	-0.90253	0.82929	-8.13345
2425.78125	1.81192	5.54373	-1.58864	-10.55244
2429.68750	2.61630	2.72256	2.84326	-0.88358
2433.59375	6.64414	2.72195	2.84291	7.97943
2437.50000	7.85137	3.52723	2.03665	3.54565
2441.40625	13.49090	3.52658	1.63335	-1.69400
2445.31250	10.66892	4.73472	2.43879	-2.09844
2449.21875	0.59415	2.71947	2.84138	2.73534
2453.12500	2.20442	3.12180	2.84110	5.55442
2457.03125	-0.21470	-1.71397	-0.78556	-4.52023
2460.93750	-6.26016	-10.17617	-1.99467	-10.96862
2464.84375	-12.70851	-5.34164	2.84018	-6.94083
2468.75000	-12.30694	3.92517	0.01925	-15.40384
2472.65625	-7.87607	7.55095	-1.18994	-20.24037
2476.56250	-3.44527	6.74440	2.03313	-14.19775
2480.46875	-3.84958	2.71447	3.24159	-11.37857
2484.37500	-11.50671	-0.91250	1.62955	-6.94771
2488.28125	-13.11983	-4.94242	2.03209	0.30351
2492.18750	-12.31541	-5.74888	6.06103	12.38985
2496.09375	-3.04944	-3.73483	6.86662	13.19429
2500.00000	3.39605	-6.55597	4.85161	-0.50685
2503.90625	2.18587	-13.40635	3.64240	-9.37286
2507.81250	1.78157	-15.82457	4.44789	-4.13622
2511.71875	-0.23445	-6.15485	0.01528	-1.31710
2515.62500	-3.05630	5.12660	-7.23782	-2.52729
2519.53125	-7.08702	4.72309	-9.25284	1.50063
2523.43750	-11.11772	0.69323	-4.41802	2.70803
2527.34375	-4.26928	-3.73957	-1.19504	11.16814
2531.25000	9.02600	0.28907	-3.61298	13.18137
2535.15625	2.98066	2.30306	-0.38988	-5.75774
2539.06250	-7.49692	-0.11522	2.02730	-10.59425
2542.96875	-6.28950	-3.33933	1.62405	-1.73120
2546.87500	-5.88786	-8.57809	0.81785	2.69957
2550.78125	-4.27755	-1.72890	1.22040	1.08629
2554.68750	2.16789	7.53786	4.44351	-0.92984
2558.59375	0.95765	7.94013	1.21968	-8.98983
2562.50000	-1.86425	5.11906	2.42808	-16.64694
2566.40625	-1.46274	1.89505	6.05406	-11.00733
2570.31250	-2.26997	-4.14949	-4.01950	-13.02343
2574.21875	-4.28598	-0.92663	-7.64614	-14.23369
2578.12500	-6.70498	-2.94189	0.41213	-6.17659
2582.03125	-8.72108	-11.80705	4.44110	-3.76048
2585.93750	-10.73718	-5.36083	7.26127	-1.74728
2589.84375	-8.32102	-0.52641	7.66388	6.71284
2593.75000	-7.11363	-2.94465	8.87234	25.64912
2597.65625	-3.48864	1.88982	7.26021	30.88574
2601.56250	-0.66949	5.51558	1.21590	8.72310
2605.46875	-7.11784	5.51492	-1.20206	-9.00725
2609.37500	-7.11922	-0.52971	-0.39653	-12.63499
2613.28125	-6.71766	3.49906	-4.02330	-14.65114
2617.18750	-7.52485	5.51307	-4.42658	-8.60857
2621.09375	-4.70569	-0.53160	0.00525	1.46323
2625.00000	-6.72171	-2.94983	-1.60674	5.08806
2628.90625	-4.70849	-2.95048	0.00468	8.71302
2632.81250	0.93119	-2.95110	1.61613	5.48820
2636.71875	-0.27894	-2.14590	-1.20476	1.05455
2640.62500	0.12264	1.47987	-0.80216	0.24734
2644.53125	2.53875	3.49387	-3.22010	-9.02138
2648.43750	-3.50661	5.50787	-4.42919	-4.18758
2652.34375	-9.95489	5.91013	0.00265	7.89898
2656.25000	-6.73280	2.68606	4.43455	5.48004
2660.15625	2.53327	3.49136	4.03126	-2.98282
2664.06250	4.14369	-4.97084	-1.20714	-9.83403
2667.96875	-0.29000	-6.18031	-4.02794	-10.64130
2671.87500	4.54367	5.90697	-4.43115	-5.40462
2675.78125	4.94523	8.72692	-3.22273	-2.98855
2679.68750	2.92924	7.92037	-0.40253	-1.78119
2683.59375	8.97180	4.69630	2.82056	-0.57377
2687.50000	6.14993	2.68108	4.02896	-0.17218
2691.40625	7.76022	2.27763	1.20814	10.30258
2695.31250	8.96759	4.29160	-0.00100	10.30121
2699.21875	-0.30124	1.87333	-0.00130	0.22658
2703.12500	-3.52613	-0.54486	1.61018	-2.99824
2707.03125	-2.72168	2.27508	4.83335	1.43268
2710.93750	-5.94640	1.46858	1.20661	3.84888
2714.84375	-1.51556	3.07964	-4.03181	-0.98774
2718.75000	4.12409	3.48200	-5.64383	0.62263
2722.65625	-2.32418	-1.35379	-3.62951	-1.39336
2726.56250	-3.53427	2.27206	-0.00349	-9.45328
2730.46875	-1.92377	6.30080	-1.21260	-4.61938
2734.37500	-2.32798	1.86794	-1.21290	-3.41199
2738.28125	-1.92636	-1.35618	1.20437	-5.83101
2742.18750	5.72792	-2.56561	-0.40768	2.22618
2746.09375	5.72654	-0.55156	-2.42265	-1.80454
2750.00000	-9.18321	-2.56687	-0.81130	-10.67041
2753.90625	-12.40802	-6.59683	-0.81163	-11.88059
2757.81250	-7.97713	-7.40334	-2.82661	-10.27023
2761.71875	-10.79905	-9.41864	-1.61816	-5.43633
2765.62500	-6.36810	-2.16653	-4.43898	4.63560
2769.53125	2.89805	7.90609	-3.63346	8.66356
2773.43750	2.49386	5.08496	-0.41036	1.00649
2777.34375	0.88100	0.24922	1.20100	-7.85929
2781.25000	2.08859	1.86028	4.02113	-13.09875
2785.15625	-2.34494	-3.37852	3.61785	-5.84739
2789.06250	-0.33157	-11.43776	-1.21772	-3.83407
2792.96875	4.90521	-2.17097	-2.42681	-4.64117
2796.87500	1.27752	7.09582	-0.81544	5.02784
2800.78125	1.27621	3.87183	0.39304	3.01190
2804.68750	6.91589	-2.57563	1.19859	-1.01875
2808.59375	9.73511	0.64719	-0.01052	-1.82592
2812.50000	8.92800	6.28765	-0.41375	2.20203
2816.40625	9.32960	6.28708	-0.81703	3.81232
2820.31250	8.11942	5.07766	0.39144	-3.44190
2824.21875	2.07417	2.25646	-1.62356	-5.86088
2828.12500	0.46118	3.06162	-2.83273	-1.02706
2832.03125	-3.16643	-1.77411	-1.22141	-6.26653
2835.93750	-1.55604	-8.22155	-0.81882	-13.52062
2839.84375	1.66609	0.23945	-2.43087	-12.71597
2843.75000	-0.75280	2.65640	-1.22245	-9.49382
2847.65625	2.06635	1.84995	-1.62563	-1.83934
2851.56250	2.06501	4.26697	-5.25234	0.97992
2855.46875	2.46655	4.26637	-6.05854	-1.43901
2859.37500	4.88280	3.45991	-4.44713	4.20053
2863.28125	-3.58005	-3.39055	-0.41818	11.04890
2867.18750	-10.02826	-8.22627	2.40198	7.82392
2871.09375	-10.43252	-6.21224	2.80461	0.16681
2875.00000	-8.41926	-0.16890	4.41599	-0.64032
2878.90625	-8.42061	3.05397	1.59517	2.98478
2882.81250	-10.03370	0.23287	-2.03157	3.78949
2886.71875	-9.63205	-5.00584	1.59450	-1.85277
2890.62500	-11.64797	-7.02110	2.80299	-1.04823
2894.53125	-10.84334	-3.79821	-0.42075	0.56213
2898.43750	-12.05330	-7.02219	0.38479	-4.27444
2902.34375	-16.48668	-7.42571	2.39911	-3.46986
2906.25000	-16.89090	-1.78522	0.38414	-12.33578
2910.15625	-10.44526	-1.38287	-0.01913	-11.53134
2914.06250	-6.82015	0.63122	0.38346	-3.07111
2917.96875	0.43135	1.83944	-0.42277	-10.32514
2921.87500	7.68287	3.85352	-1.63192	-6.29709
2925.78125	-4.00330	3.45006	-4.04985	0.14859
2929.68750	-9.64561	2.64357	-3.24433	-9.52310
2933.59375	-12.87031	1.43425	-0.42409	-9.12150
2937.50000	-9.64807	-1.38689	2.39613	3.77103
2941.40625	-4.41121	-1.38750	4.41048	10.21665
2945.31250	-6.83011	1.83535	3.60433	13.43892
2949.21875	-4.81677	1.43190	1.99229	3.36444
2953.12500	-6.83272	3.04302	-0.42556	-14.36579
2957.03125	-3.61054	0.22194	-0.02299	-12.35239
2960.93750	1.62632	-3.40504	0.78259	-1.47448
2964.84375	-0.79240	0.62365	0.37931	-0.66992
2968.75000	0.41520	-0.58572	4.40826	-3.49173
2972.65625	0.81697	-1.79498	4.81087	0.53632
2976.56250	6.05388	-2.60144	4.40756	1.34104
2980.46875	0.00878	-3.81072	5.61599	10.20439
2984.37500	-9.66270	-4.61722	4.40686	21.88828
2988.28125	-11.67846	-4.61786	1.18311	6.57585
2992.18750	-8.85904	-2.20084	-1.23480	-5.11023
2996.09375	-9.26305	-1.79846	-2.84681	-13.97581
