 	TP9	AF7	AF8	TP10	
-1000.00000	19.33584	6.79318	-4.83278	6.45828
-996.09375	13.29177	2.76782	-4.02760	10.08484
-992.18750	-2.01968	1.16000	-3.62532	5.24979
-988.28125	3.21830	-5.28299	0.80619	3.23537
-984.37500	7.65039	-6.48783	1.20849	1.22094
-980.46875	5.23269	1.57475	-1.61263	6.45920
-976.56250	1.60628	-0.03301	-0.40448	15.32383
-972.65625	-0.81139	-0.43195	-0.00226	12.90640
-968.75000	8.05300	1.98959	-1.61461	14.11543
-964.84375	9.66472	-2.84153	-2.82406	8.87755
-960.93750	4.02368	-2.83754	-2.82471	12.10123
-957.03125	7.24717	2.40456	-2.82539	13.71314
-953.12500	7.24717	2.40854	-0.81142	9.28116
-949.21875	2.00904	2.81548	-0.00624	8.07258
-945.31250	-2.02031	0.40188	-1.21573	5.65514
-941.40625	-4.03504	-0.80293	-2.42518	-0.79165
-937.50000	-5.24390	-0.79894	-1.21712	0.82025
-933.59375	-3.63221	-4.82425	2.40863	4.44672
-929.68750	-1.61768	0.82081	0.79620	3.23805
-925.78125	3.21732	9.28628	-0.81619	0.82071
-921.87500	5.63475	6.06687	-1.62272	-0.38792
-917.96875	9.66391	3.25035	-4.44390	5.65612
-914.06250	12.48425	3.65734	-1.22118	6.46209
-910.15625	2.00784	4.06420	0.38991	0.82128
-906.25000	-2.02160	4.06816	-3.23716	0.01553
-902.34375	-3.23051	0.44581	-4.04367	-5.22235
-898.43750	-5.24529	0.85273	-1.62673	-7.63982
-894.53125	-4.84246	3.27427	0.38727	-1.59574
-890.62500	-5.64841	1.26363	0.38660	-4.01316
-886.71875	-1.61922	0.46178	-0.41991	-4.41585
-882.81250	-4.43987	-6.78699	0.78819	-6.02742
-878.90625	-8.87212	-8.79767	2.39932	-1.59503
-875.00000	9.25963	1.27959	1.59284	3.24028
-871.09375	12.48291	4.10405	0.78629	-0.38592
-867.18750	-3.63444	6.12270	-0.42308	-0.38581
-863.28125	-0.41119	6.93253	1.59096	2.03193
-859.37500	2.40924	4.92187	-1.23022	-3.20602
-855.46875	-1.21727	8.55222	-3.64841	-1.99712
-851.56250	-3.63494	8.15335	-0.82856	6.46454
-847.65625	-4.44102	0.90460	1.58839	9.28519
-843.75000	-5.24700	-1.10608	5.61706	1.62961
-839.84375	-2.42665	-3.92264	5.61643	-5.22006
-835.93750	-2.02385	-0.69517	1.58648	-6.83163
-832.03125	0.79653	7.77041	0.77988	-6.42850
-828.12500	4.82569	7.37152	4.00266	-3.20490
-824.21875	-0.81544	4.95802	1.18152	-3.20475
-820.31250	-4.44193	3.75320	-2.04260	-3.60756
-816.40625	-2.83021	2.95130	-0.02861	-4.01036
-812.50000	1.60198	3.76111	0.37369	1.63086
-808.59375	4.01948	4.57095	4.80526	5.25738
-804.68750	-0.00981	-0.26020	6.81921	4.85467
-800.78125	6.43709	-2.67384	4.40092	7.67535
-796.87500	9.25757	4.58296	2.38560	5.25794
-792.96875	0.39310	7.00467	3.19074	0.82590
-789.06250	-0.41290	6.60579	2.38419	1.63182
-785.15625	2.00463	-1.04579	-0.83997	3.24364
-781.25000	0.39288	-3.45935	1.17396	-0.78550
-777.34375	-0.01015	4.60328	2.38205	-1.99415
-773.43750	4.42205	3.39853	2.38135	-2.39682
-769.53125	6.03373	0.58210	6.00700	-0.78489
-765.62500	4.01911	0.18319	5.20045	6.06520
-761.71875	-3.23358	1.39602	2.78218	2.43906
-757.81250	-4.03935	4.62350	1.97556	-0.38115
-753.90625	-0.00997	1.80704	-0.03981	-2.39549
-750.00000	-8.47141	1.40817	-2.86105	-9.24502
-746.09375	-8.06834	3.82988	-3.66764	-5.61828
-742.18750	-8.06829	1.41632	-1.65369	-1.99159
-738.28125	-9.68003	-3.01189	3.58371	-5.61758
-734.37500	-3.63606	3.03621	4.38889	-1.58799
-730.46875	0.79608	3.84615	5.99988	2.84450
-726.56250	4.82535	-0.17905	7.61090	6.47107
-722.65625	7.64586	0.63090	3.98374	6.06839
-718.75000	4.82527	3.05256	0.35662	1.23335
-714.84375	1.60185	1.04194	0.35586	0.83062
-710.93750	3.61640	-0.56574	-3.27130	3.24834
-707.03125	6.03383	1.45302	-5.68959	5.66612
-703.12500	3.21327	2.66592	-0.85515	2.44284
-699.21875	-0.81609	-0.55343	5.99392	0.42837
-695.31250	-3.63665	-5.38449	5.59030	-2.39194
-691.40625	-2.02501	-2.55989	3.17198	-5.21222
-687.50000	2.40722	4.29399	5.18591	3.65245
-683.59375	3.21299	6.31279	5.99105	7.27900
-679.68750	0.79523	-0.93583	4.78163	7.27919
-675.78125	-2.02536	-4.15517	3.57213	4.86183
-671.87500	0.39217	-1.73357	3.57144	4.45908
-667.96875	0.39211	-2.53534	4.37659	6.47393
-664.06250	-0.01096	-1.72539	5.98756	4.86239
-660.15625	2.40650	-0.10950	3.16633	4.45961
-656.25000	0.79462	-1.31416	0.74801	1.63937
-652.34375	3.21213	-2.11588	5.98542	3.65426
-648.43750	0.79447	-5.33521	7.99937	4.05741
-644.53125	-6.86125	-10.56918	6.78997	-4.00103
-640.62500	-3.23500	-5.72990	6.38639	6.07249
-636.71875	4.01770	-1.29355	3.16228	8.89320
-632.81250	1.60009	-0.48356	2.35575	2.44652
-628.90625	-0.41470	0.72942	1.54926	5.26724
-625.00000	4.82337	0.33063	1.95150	4.05873
-621.09375	10.86729	-0.87396	2.35378	2.04432
-617.18750	6.83782	-4.09328	-0.46736	5.67092
-613.28125	-0.01204	-4.08916	2.75543	9.29758
-609.37500	0.39086	-3.27918	4.76942	5.26844
-605.46875	4.42011	-6.90142	3.96289	1.23935
-601.56250	0.39071	-11.73241	3.15641	3.25415
-597.65625	-1.62409	-7.29599	2.75287	5.67196
-593.75000	4.82267	-0.44205	3.15512	12.92492
-589.84375	4.82264	-2.04962	3.96030	9.70163
-585.93750	10.86655	-0.83667	1.94502	0.03149
-582.03125	6.03124	3.59970	2.34734	-0.77415
-578.12500	-4.44505	4.00680	2.74965	0.83777
-574.21875	-5.25097	1.59334	-0.47446	-1.17674
-570.31250	-10.89200	-2.83474	-0.47511	-0.77366
-566.40625	-10.08620	-5.24812	0.73298	0.43535
-562.50000	-4.44531	-6.04981	2.34410	-2.78794
-558.59375	-1.62481	-2.41927	2.34347	0.83868
-554.68750	-2.02773	-3.62389	2.34284	4.06240
-550.78125	-3.63945	-5.63435	1.53637	-1.17549
-546.87500	-7.66884	4.04019	1.53575	-3.59294
-542.96875	-8.47469	5.25322	-0.07662	-3.18986
-539.06250	-3.23662	2.03398	0.72860	1.24246
-535.15625	1.59852	1.23231	1.13091	1.24261
-531.25000	1.59842	2.44522	-2.89903	0.83989
-527.34375	-0.81931	1.64350	-1.28797	8.09283
-523.43750	6.43330	-0.36701	0.72605	10.10768
-519.53125	3.20974	0.44297	0.32250	5.27265
-515.62500	-4.84894	3.26766	3.14235	1.24353
-511.71875	-2.43146	4.48055	3.54469	12.12285
-507.81250	1.19490	2.47008	0.72350	20.98747
-503.90625	1.59780	2.47429	-0.48589	14.94377
-500.00000	2.00063	0.46385	3.13982	9.70588
-496.09375	8.04455	0.06513	3.94503	7.28848
-492.18750	20.13246	4.90448	-0.48780	8.90045
-488.28125	15.29720	4.50571	-0.89142	13.73582
-484.37500	2.80633	1.28644	0.31671	5.67747
-480.46875	3.20925	0.08178	-2.50444	3.66305
-476.56250	1.19455	1.69764	-2.50511	-1.97782
-472.65625	-2.43191	-0.71575	0.71760	-3.99223
-468.75000	-0.01435	1.70590	0.71696	4.06671
-464.84375	2.00031	8.15692	-0.49240	5.27572
-460.93750	4.41786	6.14648	-0.49304	5.27595
-457.03125	5.62660	3.73311	-3.31428	-2.78247
-453.12500	2.40311	0.11099	-5.32962	-5.60279
-449.21875	2.00010	-4.31707	-4.52441	-3.18496
-445.31250	0.38836	-0.28356	-2.51048	0.03861
-441.40625	2.40301	2.94413	0.71220	-0.36411
-437.50000	3.61182	3.75419	0.71150	-7.61668
-433.59375	3.20880	3.35548	2.72550	-4.79606
-429.68750	6.43216	1.74790	3.93354	2.45679
-425.78125	0.38815	2.55789	1.51531	-1.16939
-421.87500	-0.41785	1.75618	-0.90296	-2.78094
-417.96875	-2.02966	0.95451	-0.50065	-5.19831
-414.06250	-0.41807	1.36165	-1.30721	-5.60115
-410.15625	-0.41822	1.76874	-0.09907	-6.40688
-406.25000	-7.67110	-1.45051	-0.50264	-8.01855
-402.34375	-6.46241	-1.04340	-3.32388	-9.63018
-398.43750	-3.64197	-3.45684	-1.30992	-12.85353
-394.53125	-3.23921	-2.24385	1.50998	-5.60068
-390.62500	-2.03052	2.99841	1.50936	-0.36246
-386.71875	-1.62769	-3.44429	-0.50589	-3.58577
-382.81250	2.40146	-9.08103	-0.90946	-5.60032
-378.90625	10.05699	-4.64462	-0.50714	3.26422
-375.00000	9.65400	1.80642	1.50684	5.68194
-371.09375	-1.62816	-0.20410	1.90907	5.68205
-367.18750	-8.07516	-1.00575	0.29669	4.07044
-363.28125	-3.24011	1.01312	-0.50980	-3.58515
-359.37500	-2.03140	1.42029	-0.51042	-7.21137
-355.46875	-5.25491	-3.41069	-4.13746	-4.79359
-351.56250	-1.62857	-9.85336	-4.94395	-3.18164
-347.65625	-2.03159	-5.81977	-1.72114	-1.56975
-343.75000	-4.04632	1.84010	-0.11011	-1.56956
-339.84375	-2.43474	2.65016	-1.72246	-1.56943
-335.93750	-4.85237	1.04263	1.09741	6.08639
-332.03125	-2.83783	-1.77368	2.70855	7.69823
-328.12500	1.19133	-0.56069	-0.51556	-0.76314
-324.21875	0.78828	0.24936	-0.11338	-1.16585
-320.31250	5.22052	-3.77569	-0.91991	2.86365
-316.40625	7.63809	-4.17441	-4.14401	2.86392
-312.50000	3.60872	-6.18483	-2.53290	5.68461
-308.59375	6.02622	-9.00111	1.49574	6.49066
-304.68750	9.24963	2.68803	2.30093	4.07336
-300.78125	7.23490	7.12453	1.09147	6.08821
-296.87500	4.01144	-0.92983	0.28498	6.89426
-292.96875	-0.42083	-4.14911	-0.52154	5.68565
-289.06250	-4.04723	0.69025	-2.53688	6.49165
-285.15625	-5.25612	-0.11141	-4.55220	6.49182
-281.25000	-0.01814	-2.12188	-2.13533	10.52125
-277.34375	2.80228	-2.52060	0.28161	8.90970
-273.43750	2.80221	-5.73974	-2.53951	4.88057
-269.53125	5.62265	-7.75018	-2.54014	4.07492
-265.62500	9.65185	-0.89620	-0.92913	-1.16299
-261.71875	10.05468	7.16663	-0.52685	-7.60971
-257.81250	0.38433	4.35035	1.48714	-5.19196
-253.90625	-2.83923	3.95160	1.48646	-7.60941
-250.00000	-0.42180	1.94121	-1.33478	-9.62388
-246.09375	-2.03359	-2.08387	0.67921	-5.19141
-242.18750	0.78680	-0.46797	1.48448	-4.38539
-238.28125	0.38384	0.74497	3.49847	0.85289
-234.37500	2.39842	-0.45954	1.88608	2.86776
-230.46875	4.81589	-1.26122	-0.12922	7.70313
-226.56250	5.62176	-3.67457	1.07891	11.73264
-222.65625	6.42753	3.17944	1.07825	6.89768
-218.75000	2.39812	4.39251	1.07759	2.46561
-214.84375	-2.43717	2.38208	-0.13187	1.65999
-210.93750	-4.04895	1.98331	0.27044	1.66020
-207.03125	-0.42272	-1.23592	1.07564	1.66042
-203.12500	-0.42282	-2.03752	-0.53670	0.85480
-199.21875	-3.64626	-0.82449	-2.14912	0.45206
-195.31250	-2.43762	-0.41732	-1.74686	-0.35361
-191.40625	-0.02013	1.19859	-0.53874	0.45243
-187.50000	-1.63190	2.00866	-1.74820	-1.56200
-183.59375	-2.43788	-2.41932	-5.37526	-1.56175
-179.68750	-1.22912	-2.01208	-5.37593	-5.18788
-175.78125	-0.02041	7.25956	1.07031	-7.20235
-171.87500	-2.43818	2.42868	3.89016	-3.57572
-167.96875	-6.06469	-5.22273	2.27780	-4.78434
-164.06250	-6.87071	-0.38329	1.47129	-8.00756
-160.15625	-4.85621	2.84432	-0.14113	-8.81316
-156.25000	-1.22996	2.44566	-0.94766	-7.20126
-152.34375	0.38169	-1.17649	-2.15713	-5.18634
-148.43750	-0.82720	-4.39568	-2.56068	0.05191
-144.53125	-2.84186	-2.37681	-1.75553	-3.17124
-140.62500	-6.46829	-2.77546	-0.54742	-2.36519
-136.71875	-4.85661	-7.60634	0.25774	-2.76793
-132.81250	-3.24498	-3.97568	1.46586	-8.81164
-128.90625	-0.02161	-4.37431	1.86807	-5.58797
-125.00000	1.59014	-3.16124	1.46448	-5.58775
-121.09375	-6.06550	-1.54520	1.86667	-10.42270
-117.18750	-6.46844	-1.54092	-0.14867	-10.42251
-113.28125	1.18724	-1.13375	1.46240	0.05385
-109.37500	11.26046	-0.72653	1.86462	8.51559
-105.46875	6.42525	-5.15458	2.26694	9.72460
-101.56250	1.59004	-7.16499	4.28092	9.72477
-97.65625	5.21630	-3.13141	3.47439	8.51617
-93.75000	0.78395	-6.35060	1.86198	3.68123
-89.84375	1.18683	-8.76385	1.45841	6.09904
-85.93750	0.38096	-2.31273	1.86065	6.90512
-82.03125	-2.03663	2.92960	4.27759	-5.58547
-78.12500	2.39565	0.91921	4.67989	-4.77934
-74.21875	8.84255	-0.68820	5.88797	2.87660
-70.31250	13.27466	-2.69859	4.27559	7.71198
-66.40625	10.05113	-1.48553	-0.15735	7.71221
-62.50000	8.84241	1.33918	-1.36683	2.07139
-58.59375	2.39556	1.34344	-2.17336	-1.95779
-54.68750	0.38089	0.13896	1.45237	-1.55461
-50.78125	9.24530	-1.06554	3.06338	1.66906
-46.87500	6.82769	-1.86708	3.06267	1.26632
-42.96875	4.81302	-8.30970	3.46494	1.66945
-39.06250	2.79838	-13.14059	4.27013	2.87841
-35.15625	4.41019	-2.25724	5.07529	4.89326
-31.25000	6.42489	1.77637	5.88046	7.31104
-27.34375	3.60435	0.57184	5.47687	1.26727
-23.43750	4.00721	-3.05027	5.47615	3.28208
-19.53125	3.60430	-7.07526	3.46081	11.34098
-15.62500	-3.64850	-3.84749	1.04253	10.53530
-11.71875	-3.64858	-5.45490	0.63888	8.92383
-7.81250	-0.02232	-6.25655	3.86164	7.71524
-3.90625	-1.23121	-4.64054	7.48738	5.29784
0.00000	-5.66348	-5.84509	7.08373	0.05992
3.90625	-5.66356	-7.04963	7.88887	0.86602
7.81250	-2.03731	-7.44825	6.27647	5.29845
11.71875	-2.44036	-5.83229	4.26112	-2.75991
15.62500	-2.44045	-11.06616	5.46923	-5.58023
19.53125	-1.23173	-11.06197	3.85677	-5.17708
23.43750	-0.02303	-3.40207	3.45316	-4.77397
27.34375	-0.02311	-2.18906	4.66127	-4.37080
31.25000	7.63256	1.84459	2.64593	-7.19112
35.15625	3.20025	-0.97167	4.25691	-7.99673
39.06250	-3.64960	-2.17621	9.49429	-8.80239
42.96875	-2.44094	-0.56023	8.28476	-8.80219
46.87500	-4.05277	-1.76478	6.67232	-9.20494
50.78125	-4.05289	-5.38691	3.44813	-7.99598
54.68750	0.37928	-8.60617	3.44741	-2.35477
58.59375	6.02022	-2.55796	3.84957	4.89818
62.50000	2.79673	-3.76250	0.62537	0.86910
66.40625	1.18498	-4.96707	-0.18123	-2.75713
70.31250	0.37905	-1.33638	0.22099	-2.35396
74.21875	1.18477	-2.13797	0.22027	-9.20359
78.12500	4.40813	1.08971	1.83125	-5.17405
82.03125	-3.24766	0.28807	5.05397	6.91403
85.93750	-7.68003	-0.51355	5.45616	-0.33849
89.84375	-0.83025	-1.31518	3.03781	-7.99396
93.75000	-0.83031	-4.53439	-0.18638	-0.33802
97.65625	4.00473	-6.54476	-1.39593	2.88570
101.56250	10.45150	-3.72000	-0.99371	4.49764
105.46875	6.01918	-5.32742	0.21436	2.88618
109.37500	9.24260	-8.14371	3.83995	4.49807
113.28125	8.43672	-3.70716	5.85386	9.33347
117.18750	3.60155	-1.68819	2.62977	3.28973
121.09375	4.40736	-4.90735	-0.19150	-1.14224
125.00000	3.19854	-6.11187	4.64297	1.27550
128.90625	3.19852	-5.70465	7.05980	2.48455
132.81250	3.19849	-6.50622	2.22398	3.29064
136.71875	4.81013	-2.06975	0.61155	-1.54429
140.62500	4.40718	1.15798	1.81967	-4.36456
144.53125	1.18376	-1.25526	3.43076	-2.75263
148.43750	-1.63673	-5.68320	6.65355	-2.34941
152.34375	-2.03978	-6.88769	5.44410	-7.18444
156.25000	2.79527	-9.30096	4.23467	-3.55788
160.15625	5.61580	-3.65561	5.44283	2.08344
164.06250	3.60116	1.18381	5.84509	-4.76614
167.96875	3.19829	-1.63238	3.82981	-6.78050
171.87500	2.79543	-1.22511	1.41163	-2.75089
175.78125	2.79541	0.79385	0.20220	-6.77992
179.68750	2.79541	-2.82823	1.00741	-10.40596
183.59375	-1.63679	-4.43562	2.61853	-10.00274
187.50000	-4.86021	0.00093	0.20027	-7.18195
191.40625	-6.47185	-0.80067	0.19960	-2.74940
195.31250	-8.08345	-10.86960	1.81064	-7.58421
199.21875	-6.06872	-16.10341	0.60120	-8.38973
203.12500	-6.06862	-9.24938	-1.01114	-2.34544
207.03125	-7.27733	-5.61873	-0.60886	-8.38906
210.93750	-4.85964	-2.79395	1.40510	-4.35940
214.84375	-3.24785	-0.37204	1.80730	-5.16487
218.75000	-0.83018	-1.17359	1.40374	-10.80561
222.65625	-2.44189	-3.98986	0.59720	-0.73203
226.56250	-4.45646	-6.00020	1.40249	-4.35806
230.46875	-4.45638	-8.81637	2.20768	-5.56661
234.37500	-4.85924	-11.63256	0.99822	-3.14880
238.28125	-4.05338	-8.40479	0.59462	-1.53692
242.18750	-2.03875	-9.60925	-2.62940	2.08971
246.09375	-0.02415	-16.05185	1.39924	4.10459
250.00000	5.21390	-7.58600	7.44252	4.91066
253.90625	5.21387	1.28276	5.02427	0.07568
257.81250	2.39336	0.88419	3.41194	2.09059
261.71875	-4.05356	-5.15542	4.62012	1.28492
265.62500	-4.45650	-10.38923	2.60485	-6.37047
269.53125	0.37875	-8.37031	1.79833	5.71768
273.43750	2.39342	-7.96310	3.81234	10.55310
277.34375	0.37875	-7.95875	0.18537	6.12116
281.25000	-4.45649	-13.19251	0.18476	10.15065
285.15625	-0.02426	-10.36765	6.22808	9.34499
289.06250	0.78156	-0.29009	6.63040	10.95690
292.96875	0.78152	-3.10624	5.42098	8.13666
296.87500	1.18443	-3.50486	1.79397	4.51052
300.78125	-1.63609	-3.50060	-2.23596	2.89902
304.68750	-4.05374	-7.12270	-1.43075	-0.72717
308.59375	-3.65077	-8.73018	0.58326	-1.93570
312.50000	3.60200	-7.11415	-3.44670	0.07921
316.40625	3.19900	-8.72164	-4.65609	4.51172
320.31250	-5.26257	-11.13496	0.58131	-1.12901
324.21875	-6.47140	-9.51888	0.58065	-5.96399
328.12500	-4.05385	-15.96146	-1.03170	-8.38133
332.03125	-0.02457	-13.13663	-0.62941	-5.96356
335.93750	2.79590	-6.68538	-1.03301	-3.94868
339.84375	3.60176	-9.09868	1.38396	-1.53080
343.75000	-3.24813	-6.67678	0.17452	4.91638
347.65625	-7.27745	-6.67243	-2.24372	0.88735
351.56250	-10.09796	-4.65346	-5.46782	-2.73877
355.46875	-8.88917	-7.06671	-6.27435	2.09671
359.37500	-0.42772	-10.28587	0.97773	-5.15580
363.28125	-0.83059	-11.49036	3.79756	-8.37898
367.18750	0.78115	-12.29188	-1.44124	-7.16997
371.09375	7.22805	-9.46703	-1.44195	-9.99022
375.00000	3.60165	-11.47730	0.16914	-11.19876
378.90625	-0.83060	-7.44365	-2.65201	-3.13983
382.81250	3.19871	-1.79832	0.57072	2.09853
386.71875	1.58697	-2.59987	3.39063	1.69582
390.62500	-1.63652	-7.02777	-0.23643	-0.31857
394.53125	-1.23364	-11.05282	-1.04296	0.89046
398.43750	2.79566	-7.42207	0.97103	4.11415
402.34375	6.01904	-2.58263	0.16451	-1.12371
406.25000	0.78086	-2.98126	-1.04497	0.08524
410.15625	-1.63674	-8.21506	-1.85145	2.90605
414.06250	3.19836	-11.83721	-1.85208	2.10047
417.96875	2.79536	-4.17729	-1.04686	2.90662
421.87500	-4.86035	-3.77016	-0.24162	-1.52530
425.78125	-3.24872	-7.39223	-2.65977	-4.74846
429.68750	1.58645	-6.98498	-2.66042	-1.52478
433.59375	-0.42826	-9.80125	3.38285	-1.92750
437.50000	0.37760	-13.02039	4.18802	0.49031
441.40625	-0.42838	-15.43363	2.17272	0.49045
445.31250	-5.66643	-15.83227	2.97793	-6.76211
449.21875	0.78043	-13.00747	2.17143	-1.12084
453.12500	-0.02539	-9.37679	0.15615	6.93798
457.03125	-2.03998	-14.61062	2.57313	2.90898
460.93750	4.40696	-16.62100	4.18422	4.52098
464.84375	1.18354	-3.72295	2.16897	1.70077
468.75000	-0.02521	-1.70401	1.76537	-5.55167
472.65625	6.42173	-4.52019	0.95886	0.08960
476.56250	2.39243	-6.12758	0.55530	2.10458
480.46875	-1.23398	-9.74969	0.95762	0.49311
484.37500	0.78063	-11.76003	1.76281	2.91103
488.28125	-0.42818	-18.60553	4.58273	2.91136
492.18750	1.58651	-19.40712	3.77619	-0.71474
496.09375	-0.42822	-12.55309	4.58149	-1.11730
500.00000	0.37768	-14.16060	7.80426	4.92689
503.90625	0.78062	-9.72411	9.41540	4.52420
507.81250	-4.05442	-8.51105	10.62356	-1.51938
511.71875	-6.87481	-14.14780	7.80235	-5.54835
515.62500	-7.27771	-14.94936	3.77241	-3.93641
519.53125	-2.84549	-14.54213	3.77176	0.89905
523.43750	0.78081	-18.16422	2.96524	4.92859
527.34375	3.19845	-15.74230	0.94993	8.95813
531.25000	7.22778	-8.08234	1.35223	9.76421
535.15625	15.28636	-6.86928	1.35153	6.54095
539.06250	6.01891	-8.87974	2.96251	5.33228
542.96875	-4.05433	-15.72527	5.37940	11.37647
546.87500	1.58667	-16.92982	6.18452	12.98839
550.78125	-1.23395	-11.28450	6.58677	12.98860
554.68750	-4.45743	-13.29490	5.78016	9.76539
558.59375	-1.23397	-17.31998	7.39124	3.31877
562.50000	-3.24860	-15.70407	11.82282	4.52790
566.40625	-2.44276	-17.71448	12.22505	1.70780
570.31250	-1.23393	-21.33669	9.80682	0.09644
574.21875	-2.84552	-14.07976	10.61194	0.49982
578.12500	-2.44240	-11.65795	9.40242	-6.34944
582.03125	-5.66551	-14.07131	3.35775	-12.39296
585.93750	-6.47127	-14.06713	1.34239	-10.78068
589.84375	-7.27696	-14.46587	0.93871	-12.39180
593.75000	-3.24722	-17.68514	-1.07665	-14.80862
597.65625	-0.42620	-12.84581	-2.28618	-8.76391
601.56250	3.60363	-5.99177	-2.28693	-7.15154
605.46875	10.05098	-3.57004	-1.88473	-9.16548
609.37500	9.64862	-3.16291	-0.27378	-12.79099
613.28125	7.23163	-4.77047	0.53132	-9.96962
617.18750	11.26160	-5.57222	-1.08111	-1.50721
621.09375	11.26227	-7.98557	0.93281	-0.70045
625.00000	9.65118	-12.41362	2.94671	-4.72887
628.90625	7.63712	-10.39480	1.73717	-1.50458
632.81250	2.80248	-12.40530	1.33353	-5.93603
636.71875	3.20599	-18.84800	0.52686	-6.33814
640.62500	6.02701	-14.81451	2.13785	-1.90518
644.53125	3.20697	-8.76638	2.94294	-3.91906
648.43750	-3.23950	-10.77684	0.92757	-5.12711
652.34375	-3.64200	-14.39902	-0.68486	-5.52938
656.25000	-4.85039	-11.17137	-0.68563	-5.93166
660.15625	-2.83536	-9.15248	0.92533	0.11298
664.06250	0.38840	-10.35705	2.13341	4.94887
667.96875	-1.62588	-11.15866	3.34148	2.93491
671.87500	6.43312	-9.54271	7.37005	6.56192
675.78125	10.05984	-17.59708	6.96636	13.41244
679.68750	6.83678	-23.23392	2.93634	10.99551
683.59375	7.64302	-11.14174	4.95029	8.98150
687.50000	11.67262	-4.69063	8.57600	13.01139
691.40625	14.89642	-7.10404	5.75476	14.62367
695.31250	11.67332	-10.32324	4.54533	13.81842
699.21875	7.64430	-9.91603	6.15633	12.61014
703.12500	11.27085	-11.52354	2.12632	10.59604
707.03125	13.68877	-16.75739	2.52855	8.98492
710.93750	12.07739	-14.73853	5.75121	5.35913
714.84375	11.67478	-9.49624	3.73587	-0.28125
718.75000	7.64569	-15.13300	2.52644	-1.48956
722.65625	6.83998	-17.94928	3.73447	0.52556
726.56250	6.43732	-12.70689	5.74841	-1.89151
730.46875	4.82580	-8.27035	5.34481	3.75004
734.37500	4.42317	-7.86310	1.71768	6.57104
738.28125	5.63226	-11.48517	0.91112	8.18335
742.18750	9.66182	-10.67500	6.55146	6.97504
746.09375	16.51186	-11.87943	8.56539	6.57264
750.00000	15.70617	-12.27810	4.53540	13.42303
753.90625	10.87119	-10.25925	4.13177	15.84099
757.81250	12.88603	-13.47849	8.16038	15.03557
761.71875	10.87152	-19.92115	10.17438	11.81253
765.62500	4.42473	-24.34912	9.77084	8.18660
769.53125	-0.41031	-17.89805	6.54670	3.35183
773.43750	-1.21594	-11.04392	4.12842	-1.07990
777.34375	-7.66261	-14.66604	4.53068	2.54691
781.25000	-9.27415	-20.30277	6.94753	-1.88491
785.15625	-3.23009	-18.68680	5.73806	-3.49619
789.06250	-9.67689	-16.66787	0.49932	-1.48115
792.96875	-14.91484	-16.26065	-1.51596	-2.68957
796.87500	-9.67658	-15.45054	1.30396	-2.68918
800.78125	-8.46759	-13.43164	5.73551	-4.70346
804.68750	-6.04980	-15.84499	3.31731	-3.49431
808.59375	-0.00572	-16.24364	2.91374	-1.07633
812.50000	3.62087	-7.77778	4.12194	1.34157
816.40625	3.62098	-6.56471	3.31544	0.93895
820.31250	2.00928	-10.18694	4.52361	0.13334
824.21875	3.21823	-13.00324	2.91125	0.93953
828.12500	2.00956	-14.61075	0.89601	-0.67195
832.03125	-6.04895	-17.82996	2.91007	-0.67165
835.93750	-7.25770	-19.03446	4.92412	-2.68603
839.84375	-1.21376	-17.82145	6.93818	0.13469
843.75000	-0.00502	-17.41425	5.72878	4.16424
847.65625	-6.04901	-17.00706	4.11642	0.13504
851.56250	-1.21398	-19.01747	5.32457	2.14988
855.46875	7.24741	-21.83385	5.32398	3.35876
859.37500	12.48538	-15.38274	2.90579	5.37351
863.28125	13.69396	-7.31991	4.51696	8.59703
867.18750	8.85841	-6.91277	5.72511	4.16494
871.09375	6.03761	-7.71440	7.33625	6.58253
875.00000	8.05215	-10.53070	9.75325	6.98548
878.90625	10.06655	-14.15278	6.52921	7.79137
882.81250	10.46917	-15.35737	6.12566	5.37384
886.71875	16.51274	-12.93556	8.54267	6.98565
890.62500	14.49780	-9.70787	4.91570	10.20910
894.53125	10.46823	-6.48020	0.48289	7.38856
898.43750	14.90026	-5.26724	0.48232	9.40330
902.34375	10.87067	-5.66591	-0.32408	6.98573
906.25000	9.66158	-8.48220	-0.32463	-1.47577
910.15625	10.06424	-10.89546	0.48064	-7.11681
914.06250	1.19951	-8.47371	1.28597	-9.13146
917.96875	-2.02410	-14.11044	0.88241	-14.36958
921.87500	-2.42726	-15.71790	-1.93870	-9.53444
925.78125	2.00467	-8.86380	-4.35689	-2.68471
929.68750	9.66004	-5.23318	-0.73107	-2.68480
933.59375	5.22748	-2.40829	0.88007	-1.87910
937.50000	2.00366	-4.82162	1.68535	1.74717
941.40625	4.01791	-8.44376	5.71405	6.98511
945.31250	7.24098	-8.84232	4.90762	5.77612
949.21875	11.67279	-8.03214	4.10121	-3.08852
953.12500	8.44884	-9.63954	3.69770	-1.47706
957.03125	3.21013	-10.44119	2.89132	0.13441
960.93750	1.19491	-12.85450	2.48794	-17.19176
964.84375	1.59744	-11.64147	0.87569	-13.16264
968.75000	1.59705	-3.98161	2.88985	-0.67196
972.65625	-2.43268	-5.18623	0.87474	-3.08965
976.56250	-6.86523	-9.21134	0.87428	-5.10440
980.46875	-9.68614	-11.62459	5.30607	-5.91038
984.37500	-7.26892	-12.02327	5.70849	-7.52216
988.28125	-4.04586	-12.42209	1.67873	-7.52217
992.18750	-3.24034	-12.82088	2.08123	0.13349
996.09375	-0.82302	-14.02559	0.06609	4.16281
1000.00000	4.41473	-15.63324	-1.54614	4.16277
1003.90625	5.22025	-11.59977	1.27398	3.35679
1007.81250	-3.24147	-13.20739	2.48233	-2.68722
1011.71875	-6.46509	-15.21789	3.28770	-1.47844
1015.62500	-10.49465	-8.36396	3.69010	-1.07553
1019.53125	-16.53888	-7.55390	0.06326	-13.16355
1023.43750	-14.92741	-9.16149	0.46567	-20.01337
1027.34375	-12.91297	-11.97785	2.88279	-18.40170
1031.25000	-16.53952	-13.18254	0.86767	-14.37243
1035.15625	-18.15142	-12.77547	1.27014	-13.96943
1039.06250	-19.36044	-14.38311	6.10478	-15.17818
1042.96875	-23.38999	-17.60242	4.89547	-17.19281
1046.87500	-25.80778	-16.38947	1.67152	-13.56637
1050.78125	-22.58444	-16.38534	0.86516	-16.38685
1054.68750	-14.52602	-15.17242	-1.95586	-17.19262
1058.59375	-14.12326	-17.18294	0.46120	-9.93984
1062.50000	-16.13802	-18.79049	3.68417	-13.56612
1066.40625	-11.70594	-12.74241	-0.74853	-3.89577
1070.31250	-6.87090	-10.72372	-1.95782	2.55119
1074.21875	-3.64762	-9.91385	2.87683	-0.26923
1078.12500	-2.43904	-11.52145	0.05583	-4.29844
1082.03125	-11.30363	-14.33787	-1.95929	-3.49253
1085.93750	-12.10964	-11.91615	0.05483	-2.68659
1089.84375	-7.27464	-16.34430	-1.15453	-0.67181
1093.75000	-8.08058	-15.53430	-3.57266	0.13414
1097.65625	-6.46899	-9.48615	-5.18486	-13.16246
1101.56250	-8.88665	-14.72013	-3.17070	-15.57985
1105.46875	-12.11017	-18.34240	2.46985	4.56684
1109.37500	-6.46922	-10.68254	3.27519	1.34359
1113.28125	-6.46928	-9.06676	2.06590	-8.32650
1117.18750	-8.48401	-11.48022	-0.75509	-4.69990
1121.09375	-10.90163	-14.29665	-0.35270	-3.89381
1125.00000	-8.88692	-16.30715	-1.15905	-3.49063
1128.90625	2.79809	-15.49712	-1.15956	-0.66989
1132.81250	-0.42533	-15.49294	-2.36888	1.34498
1136.71875	-9.69267	-20.32392	-1.96649	-5.10167
1140.62500	-6.87210	-20.31974	-1.16119	-3.89273
1144.53125	-6.06628	-17.09210	-0.75876	-0.66910
1148.43750	-10.09562	-15.87916	2.86707	-4.29528
1152.34375	-3.24590	-7.01062	0.85188	-5.10098
1156.25000	3.20093	-7.40939	0.85132	-9.93605
1160.15625	2.79793	-11.83750	2.46252	-11.95049
1164.06250	4.40958	-11.02752	-0.35857	-8.72684
1167.96875	-2.84322	-10.21753	-2.37374	-5.90616
1171.87500	-4.05204	-14.24269	-1.97132	-1.47368
1175.78125	-0.02279	-13.02974	-3.18070	4.16760
1179.68750	4.40940	-13.02557	-1.16662	4.57073
1183.59375	6.42400	-14.63311	-1.57012	4.57097
1187.50000	-2.44050	-11.40550	-3.98822	3.36242
1191.40625	-3.24638	-14.62477	-1.16830	3.76565
1195.31250	2.79752	-15.82945	-1.57186	8.19816
1199.21875	4.81224	-7.76674	-1.16948	11.42189
1203.12500	2.39477	-4.94211	2.45636	4.57230
1207.03125	6.42408	-6.95262	0.44109	2.15501
1210.93750	15.69150	-11.78364	-0.76820	2.96116
1214.84375	4.00660	-10.16783	2.45466	2.15559
1218.75000	-0.02261	-10.96953	1.64818	4.17044
1222.65625	5.61845	-19.42693	-3.99338	-2.27621
1226.56250	-6.46952	-14.58755	-3.59108	-2.27591
1230.46875	-6.06655	-9.74821	-0.36822	-6.30492
1234.37500	-0.82831	-13.37048	-1.98051	-4.69296
1238.28125	-0.82820	-6.11355	0.83939	2.56006
1242.18750	-2.03697	-2.08015	0.83881	1.75449
1246.09375	-1.63404	-5.70247	-1.57937	2.96354
1250.00000	-2.03704	-7.31008	-2.78868	-1.46847
1253.90625	-2.03708	-10.93238	-2.38636	0.94938
1257.81250	1.99219	-12.13710	-0.77519	-0.66216
1261.71875	0.38050	-15.35647	0.83591	0.94983
1265.62500	0.38044	-16.15822	5.67050	4.57640
1269.53125	-4.05188	-6.08077	4.46123	-3.48196
1273.43750	-5.26061	-3.25612	1.64016	-1.46707
1277.34375	-0.82826	-10.90773	-1.18084	6.18892
1281.25000	1.58946	-11.30652	-4.00186	4.17459
1285.15625	4.41014	-4.04968	-4.00241	0.54850
1289.06250	-0.02193	-4.85152	-3.60007	-8.31562
1292.96875	0.38119	-8.87674	-6.82411	-12.74756
1296.87500	2.39600	-10.88727	-4.80997	-6.70335
1300.78125	-1.63311	-11.28603	0.83044	-8.71774
1304.68750	-0.02123	-7.65558	0.42688	-9.92621
1308.59375	1.18773	-4.02510	-2.39420	-5.49371
1312.50000	-2.84145	-5.63274	-2.79766	-5.49352
1316.40625	-6.46779	-12.47836	-1.99238	-1.86695
1320.31250	-6.87055	-13.68300	-6.42522	0.55092
1324.21875	-4.45281	-10.05254	-4.00817	-7.50738
1328.12500	-1.22922	-18.10705	4.04986	-6.29831
1332.03125	2.39731	-18.90885	3.24343	-0.25409
1335.93750	2.80037	-10.44323	2.43701	-0.25378
1339.84375	1.18880	-8.82741	3.24228	-1.86523
1343.75000	5.62111	-8.42035	2.83878	-4.28248
1347.65625	3.60656	-9.62507	3.24118	-3.47633
1351.56250	1.99490	-10.82974	0.82301	-0.25259
1355.46875	4.41259	-11.63144	-0.78925	-3.47580
1359.37500	1.59215	-11.22436	1.62771	-1.46092
1363.28125	2.80091	-10.81734	2.83591	2.56864
1367.18750	4.00973	-13.63376	1.62651	-5.08677
1371.09375	-0.82539	-10.80921	1.22300	-8.71298
1375.00000	-6.46643	-6.77580	2.83409	-5.48926
1378.90625	0.38343	-10.39802	2.83348	-9.51827
1382.81250	5.62156	-9.18511	2.02703	-5.48870
1386.71875	-2.43704	-5.55469	0.41472	3.37604
1390.62500	-7.67506	-14.81803	0.41416	-6.69694
1394.53125	-6.86907	-14.41101	4.03999	-9.92012
1398.43750	-5.25734	-5.94538	4.84525	-3.47297
1402.34375	-0.42218	-6.34425	5.65053	-7.09912
1406.25000	-0.42216	-7.14604	8.87340	-3.06948
1410.15625	-0.01916	-12.78305	8.06695	3.78060
1414.06250	1.18966	-12.37606	5.64873	-2.26304
1417.96875	-3.24261	-8.34279	5.64815	-6.69500
1421.87500	-5.25725	-8.74175	3.23003	-4.68006
1425.78125	-4.04845	-7.93187	1.61768	-2.66517
1429.68750	-3.24266	-7.12193	6.04935	0.55852
1433.59375	-3.64561	-13.56479	9.67521	0.96165
1437.50000	0.78647	-15.17250	5.64528	-1.85877
1441.40625	7.23324	-7.10981	2.82419	5.39418
1445.31250	-2.84009	-7.91172	8.46466	5.39441
1449.21875	-8.48116	-17.57799	10.88163	-1.05219
1453.12500	-0.42261	-15.15635	7.25469	0.15674
1457.03125	-0.42265	-9.10828	5.23949	1.76871
1460.93750	-2.03435	-9.50720	8.05942	1.36601
1464.84375	-4.85483	-11.92073	9.26765	-5.48349
1468.75000	-1.63130	-12.72252	7.25246	-3.46852
1472.65625	-4.85465	-10.70384	5.23727	-6.28873
1476.56250	-11.30153	-10.69979	2.41624	-10.72070
1480.46875	-6.86929	-10.69574	2.41572	-4.27345
1484.37500	-4.04877	-9.07994	-0.40539	0.15907
1488.28125	-8.88389	-9.88184	-2.01768	-2.25818
1492.18750	-2.43702	-13.50419	1.20517	-10.71939
1496.09375	10.45682	-8.66500	1.60747	-4.27222
1500.00000	0.78652	-4.22869	1.60688	-0.64562
1503.90625	-5.25738	-7.85102	4.42685	-4.67464
1507.81250	1.99540	-9.05569	5.63502	-4.27142
1511.71875	4.01011	-7.84294	5.23153	2.98161
1515.62500	2.39850	-9.04771	3.61919	7.01121
1519.53125	-5.25711	-12.67011	4.42452	7.81740
1523.43750	-10.09220	-12.66610	7.64729	4.99725
1527.34375	-2.43646	-6.61815	8.04964	-1.04636
1531.25000	3.60773	-11.04635	6.43734	-0.64312
1535.15625	3.60790	-14.26579	5.22794	0.56606
1539.06250	3.20510	-8.21782	6.03320	3.78984
1542.96875	2.39939	-2.97572	2.80916	-3.86557
1546.87500	3.20536	-2.16587	-0.01194	-14.34142
1550.78125	11.26407	-9.41457	-0.01254	-0.64148
1554.68750	13.27878	-9.41058	-2.02778	9.02919
1558.59375	7.63784	-5.37731	0.79212	8.62656
1562.50000	9.65252	-5.37329	4.82081	10.64148
1566.40625	7.23494	-7.38392	4.82018	3.79192
1570.31250	8.84676	-6.97700	6.83420	-0.64012
1574.21875	11.66734	-10.19651	8.84826	11.44808
1578.12500	4.81751	-10.19254	8.44482	9.83658
1582.03125	-0.82347	-11.39738	6.02668	2.98701
1585.93750	1.19121	-10.18462	4.41446	5.80778
1589.84375	6.83224	-5.34550	3.20509	7.41975
1593.75000	5.62358	-5.74439	1.99570	-1.84740
1597.65625	1.59429	-5.33752	-0.42250	-9.09989
1601.56250	-2.43509	-4.12476	-2.84066	-3.05564
1605.46875	-3.24092	-6.13538	-3.24422	0.97387
1609.37500	0.38551	-9.35480	-4.85653	5.40626
1613.28125	7.23536	-9.75378	-4.85713	13.46514
1617.18750	13.68226	-8.13806	-7.67823	16.28586
1621.09375	14.08518	-10.55173	-7.27584	12.65971
1625.00000	13.27940	-7.72737	-3.24708	8.22778
1628.90625	14.48827	-5.70876	-2.84465	12.25730
1632.81250	15.29414	-7.31659	-2.44232	13.86920
1636.71875	20.93516	-6.10384	-0.83114	13.46652
1640.62500	24.15857	-8.11453	0.77999	16.69022
1644.53125	16.17019	-8.51350	2.39119	11.85524
1648.43750	9.02288	-7.30075	-0.83281	5.81155
1652.34375	11.31713	-4.47633	-2.44509	7.82648
1656.25000	10.84507	-4.06943	0.37486	10.24440
1660.15625	5.27928	-7.28897	4.80656	5.81251
1664.06250	6.89054	-6.47928	7.62654	4.20116
1667.96875	9.91632	-9.69890	5.20851	12.66301
1671.87500	10.58504	-13.32138	3.59624	10.24588
1675.78125	10.00352	-7.67648	1.58108	6.61985
1679.68750	10.41927	-8.47839	1.98352	7.82899
1683.59375	10.88762	-8.07153	2.78885	7.02348
1687.50000	10.39535	-0.81490	-0.83804	11.05316
1691.40625	10.67080	-1.21393	-2.85323	6.21842
1695.31250	6.76407	-0.80701	1.57842	-0.22814
1699.21875	-0.15345	-1.20607	5.60718	1.38385
1703.12500	-2.45990	-7.24617	4.39793	-1.03336
1707.03125	-3.64566	-13.28629	2.38277	-1.83894
1710.93750	-1.72592	-10.05897	2.78512	-2.64450
1714.84375	2.73933	-9.65220	3.59040	-2.64421
1718.75000	-3.46732	-12.06588	7.21623	-0.62929
1722.65625	-5.34742	-9.24147	5.20099	0.98273
1726.56250	-1.18371	-6.81992	1.17110	5.81818
1730.46875	1.59613	-10.44240	4.39396	10.65359
1734.37500	2.76443	-16.48241	5.19923	7.83336
1738.28125	3.30214	-16.47847	2.78103	5.81896
1742.18750	2.22772	-10.83354	3.18339	11.46027
1746.09375	2.06459	-11.63563	4.39161	10.65467
1750.00000	3.70903	-16.46695	1.16756	8.64035
1753.90625	3.21128	-12.43379	-4.47410	13.47590
1757.81250	4.84642	-1.95371	-3.66885	17.90839
1761.71875	9.38983	-3.96454	1.56867	17.50579
1765.62500	8.51582	-7.99004	2.77690	4.61228
1769.53125	4.60869	-6.37450	2.37343	-2.23722
1773.43750	8.51051	-6.77353	1.96989	4.61279
1777.34375	10.03334	-9.18729	-1.25415	4.61301
1781.25000	3.65208	-10.79511	-3.26935	2.19571
1785.15625	-0.36480	-11.59712	-0.85230	0.18120
1789.06250	-0.94685	-11.19032	-2.86753	-7.07132
1792.96875	1.73641	-9.57481	-4.47987	-8.27977
1796.87500	-0.47554	-12.79444	-2.86868	-9.89133
1800.78125	-4.50506	-10.37302	-3.67514	-7.47361
1804.68750	-0.40068	-0.29592	-4.88447	-7.47346
1808.59375	-4.90248	1.31975	-2.46755	-16.74071
1812.50000	-13.89038	-3.51151	-2.46816	-15.12885
1816.40625	-11.36697	-7.93989	-8.10972	-4.24952
1820.31250	-10.24172	-7.93602	-9.72206	-1.83177
1824.21875	-9.72191	-7.93219	-9.31970	-0.62276
1828.12500	-3.23208	-5.91369	-10.52906	4.61561
1832.03125	-1.70722	-2.68636	-6.90329	6.22765
1835.93750	1.53502	-3.89132	-4.48623	-0.21903
1839.84375	1.35441	-2.27582	-2.87500	1.39289
1843.75000	-4.15047	-5.49541	-2.06968	4.61661
1847.65625	-6.81743	-7.90918	-4.08483	2.19936
1851.56250	-5.63767	-3.47308	-5.29413	-2.23265
1855.46875	0.35473	-4.27513	-2.87702	-0.62072
1859.37500	9.33465	-7.89760	-2.07164	-3.03799
1863.28125	2.61685	-7.08791	-0.86334	-3.03770
1867.18750	-2.76675	-3.86062	0.34489	3.40948
1871.09375	-3.12230	-5.06556	-0.46144	-1.82823
1875.00000	-3.22451	-6.67339	-1.67070	-3.84255
1878.90625	-0.80335	-5.05782	-0.46237	2.60471
1882.81250	-2.31024	-9.08329	2.76063	-2.63297
1886.71875	-8.80974	-15.92926	0.34256	-2.63263
1890.62500	-3.43224	-6.65803	-4.89599	5.42629
1894.53125	-0.33972	-0.61032	-4.09068	2.20327
1898.43750	-5.28321	-4.23293	-0.46486	2.60648
1902.34375	-4.42190	-5.43784	0.34045	5.83024
1906.25000	-7.21742	-5.83696	0.33994	2.20418
1910.15625	-6.57166	-5.43021	-2.07810	3.01030
1914.06250	-6.30515	-7.03815	-2.88444	2.20471
1917.96875	-8.13249	-9.45192	-3.28789	-1.82446
1921.87500	-7.74326	-9.04515	-4.49722	-3.83895
1925.78125	-10.07686	-16.29406	-3.28898	-9.88273
1929.68750	-0.85937	-17.49906	0.33679	-3.03272
1933.59375	-0.57514	-7.01909	1.94798	0.19086
1937.50000	-6.93267	-7.01537	0.33570	-1.42055
1941.40625	-0.98852	-9.02628	0.73815	-2.22614
1945.31250	0.74509	-6.60492	2.34937	-1.82305
1949.21875	2.41938	-4.58650	1.54294	6.63874
1953.12500	7.17634	-1.76223	-2.08388	-1.82250
1957.03125	5.56974	-3.77309	-3.29315	-2.62799
1960.93750	0.93856	-11.02207	-0.87603	0.19287
1964.84375	0.26984	-10.61532	2.74983	-8.67120
1968.75000	2.85998	-17.46137	4.76399	-3.02974
1972.65625	2.03722	-15.44299	2.74886	-0.61177
1976.56250	-2.45703	-4.15724	0.73373	-6.25236
1980.46875	3.68281	-2.94473	2.34501	-5.44608
1984.37500	8.24392	-4.95570	2.34452	-1.41633
1988.28125	2.47475	-4.14613	-0.47653	0.59871
1992.18750	9.38722	-1.32182	-0.47704	9.46360
1996.09375	5.24909	-6.95914	0.32830	11.07562
2000.00000	-6.04924	-8.97001	2.74540	-2.22079
2003.90625	-1.11651	-7.35456	1.93906	1.40585
2007.81250	4.08387	-6.14204	0.32681	5.83842
2011.71875	3.43493	-5.73534	-0.88245	1.00361
2015.62500	3.30144	-14.59605	-3.70352	3.82437
2019.53125	5.59123	-8.95125	-2.09229	4.63052
2023.43750	1.60666	1.93162	1.13062	-0.60725
2027.34375	0.83770	-2.89979	1.53297	-3.83039
2031.25000	-9.77946	-6.92530	3.54708	-2.62126
2035.15625	-16.36126	-4.10104	3.14363	-6.65026
2039.06250	-5.71585	-5.30600	0.72550	-6.64997
2042.96875	-1.31134	-7.71985	-0.08085	1.00599
2046.87500	-2.42778	-6.10446	0.72450	1.00621
2050.78125	-2.86076	-5.29482	0.32103	6.24453
2054.68750	1.05535	-10.52916	2.33520	16.72088
2058.59375	5.96390	-13.34600	1.52877	19.94445
2062.50000	10.68262	-2.86615	1.52827	15.10955
2066.40625	13.62935	2.77861	5.96000	10.67756
2070.31250	8.87660	-2.05286	5.55652	11.48378
2074.21875	5.58438	-6.48135	2.73552	10.67817
2078.12500	1.94987	-3.25416	1.52625	9.46977
2082.03125	-3.10286	1.58470	0.71994	1.81437
2085.93750	-2.96552	-1.23210	-0.08638	-1.40877
2089.84375	0.04614	-4.85482	-2.90733	2.21795
2093.75000	10.11533	-0.41890	-5.32539	-3.01985
2097.65625	6.41721	-3.63867	-2.50538	-9.06355
2101.56250	-5.99731	-17.33463	-1.29706	-7.85445
2105.46875	-2.64890	-8.46643	-2.50637	-7.45122
2109.37500	-5.17770	-0.00125	-2.10395	-11.07737
2113.28125	-10.33750	-2.81810	-0.08980	-10.27125
2117.18750	-6.02012	-4.02327	2.32731	-7.85352
2121.09375	-0.01233	-6.43715	2.72972	-1.40638
2125.00000	0.48036	-7.64230	1.52045	0.20555
2128.90625	5.69503	-6.02696	-0.49468	0.20573
2132.81250	6.27270	-6.02333	1.92242	6.65286
2136.71875	4.12249	-14.48127	3.53362	11.89122
2140.62500	8.81066	-16.49228	0.30967	15.51786
2144.53125	6.82925	-10.84755	-4.12299	16.32395
2148.43750	4.05688	-8.02339	-2.91466	8.66852
2152.34375	4.74097	-9.22858	-1.70638	6.25122
2156.25000	0.98177	-8.82208	-4.52734	2.62502
2160.15625	-2.09017	-6.40089	-4.52777	-5.83628
2164.06250	1.09097	-8.81485	-1.30475	-3.01550
2167.96875	-2.83840	-8.40824	-0.09644	-7.44749
2171.87500	-5.26596	-4.77826	-3.32038	-11.07363
2175.78125	-4.16400	-5.98343	-2.11204	-6.64114
2179.68750	-10.15002	-15.65006	1.51384	-7.04382
2183.59375	-7.86584	-22.89917	0.70749	-12.28163
2187.50000	-0.88595	-14.03111	1.91579	-8.65490
2191.40625	-1.58972	-3.55129	1.91529	-5.83413
2195.31250	-6.88651	-3.54766	3.92946	-7.04266
2199.21875	-7.71301	-11.60264	4.73482	-3.41596
2203.12500	-5.12871	-5.95801	-0.90665	-4.62448
2207.03125	1.05220	-1.11918	-0.90715	3.43440
2210.93750	8.51468	-1.92149	-0.90765	15.11971
2214.84375	8.52402	-1.51491	-6.14624	15.92588
2218.75000	8.84602	-1.51125	-6.54968	5.04710
2222.65625	5.67919	-3.52227	-2.11795	-0.59365
2226.56250	-2.25887	-5.13037	1.91084	1.42130
2230.46875	1.27293	-2.30626	3.11917	0.21276
2234.37500	9.42601	-9.15249	3.11867	1.42182
2238.28125	8.50004	-15.19284	1.50642	5.04851
2242.18750	5.62360	-8.74237	2.31184	4.24290
2246.09375	2.88438	-5.11239	4.72888	1.42259
2250.00000	3.27776	-3.90008	3.92254	0.21407
2253.90625	5.88830	-4.70237	2.71324	-3.81493
2257.81250	4.94566	-3.89298	1.50396	-12.67909
2261.71875	2.76491	-5.09814	-0.51118	-14.69349
2265.62500	1.17430	-10.33263	-0.51170	-10.66389
2269.53125	-2.79630	-12.74666	-0.91511	-11.87232
2273.43750	-2.49570	-8.71378	0.69610	-13.08083
2277.34375	2.20951	-7.90437	1.50145	-11.46887
2281.25000	2.74647	-7.09496	1.90391	-13.08037
2285.15625	-3.35489	-14.34412	0.69462	-21.94453
2289.06250	-5.66564	-18.36981	-1.72347	-19.12377
2292.96875	1.59689	-5.87542	-0.11221	-11.87075
2296.87500	-0.11478	-4.66309	1.90197	-14.28810
2300.78125	-4.50422	-6.67419	0.69269	-17.51121
2304.68750	-0.62587	-0.62671	3.51271	-10.66110
2308.59375	1.11874	-3.04071	2.70639	0.62124
2312.50000	-1.17737	-7.06649	-1.32340	4.65086
2316.40625	-4.04610	-5.45116	2.70541	2.63651
2320.31250	-4.48183	-10.68575	4.31667	2.23390
2324.21875	-1.51374	-11.08518	2.30153	6.66636
2328.12500	-7.42201	-3.82891	4.71855	11.90474
2332.03125	-8.40291	-6.24292	4.31513	15.53144
2335.93750	0.48472	-3.82185	1.89703	13.51704
2339.84375	2.00697	-4.22123	3.91120	13.51725
2343.75000	1.64075	-9.05290	4.71659	12.71163
2347.65625	-2.67631	-7.43761	6.73076	12.30904
2351.56250	-10.00761	-7.83701	7.13322	22.38256
2355.46875	-9.89656	-9.04224	7.93858	20.36820
2359.37500	-5.58909	-14.67970	9.54985	18.35387
2363.28125	-1.63544	-18.30261	7.93758	21.17473
2367.18750	3.67486	-11.85220	5.51947	15.53409
2371.09375	4.08172	-7.01354	4.31025	15.53442
2375.00000	1.06974	-9.02466	4.71270	17.95226
2378.90625	6.17066	-10.63281	3.10054	16.74383
2382.81250	3.97120	-2.57070	3.10006	17.14702
2386.71875	-1.25836	-0.55257	4.30836	17.55022
2390.62500	0.42211	-4.57838	6.32251	9.89472
2394.53125	0.33938	-6.99246	7.12789	4.25395
2398.43750	5.45115	-6.58596	4.30691	5.46288
2402.34375	8.79144	-12.62637	5.11228	-0.58081
2406.25000	3.48041	-15.44335	7.93232	3.04591
2410.15625	4.39931	-7.38126	7.93187	5.06086
2414.06250	-0.00325	-5.36316	5.11096	1.83773
2417.96875	-8.15409	-6.97142	4.30467	11.10544
2421.87500	-8.93169	-6.56496	3.90126	11.50872
2425.78125	-8.29446	-5.75566	3.49784	9.49435
2429.68750	-8.15940	-9.37852	1.48270	7.47988
2433.59375	-5.60103	-9.37496	-0.12949	9.49487
2437.50000	-2.01148	-5.34213	1.07882	10.70388
2441.40625	-1.65269	-6.54744	1.48122	8.68955
2445.31250	-3.53892	-11.37910	4.30131	10.30166
2449.21875	3.44465	-10.56978	10.34480	8.69018
2453.12500	4.49618	-5.73121	12.76187	10.30220
2457.03125	-6.74823	-0.89260	11.55265	12.31713
2460.93750	-0.80155	-0.48622	12.76092	9.49693
2464.84375	7.67691	-2.49733	11.95458	6.67665
2468.75000	8.59197	-6.52317	9.13359	11.51212
2472.65625	8.52910	-6.92267	8.73016	11.51245
2476.56250	7.04533	-4.09864	7.92385	9.49815
2480.46875	2.48449	-7.31862	7.52042	9.49853
2484.37500	1.98638	-12.95617	6.71411	2.24610
2488.28125	-5.60681	-8.52045	4.29609	-8.22978
2492.18750	-13.64864	-7.71114	2.68387	-5.00598
2496.09375	-11.80668	-7.30472	1.07173	-1.78224
2500.00000	-14.36116	-3.67491	-1.34635	-5.00522
2503.90625	-13.75863	-6.08900	-1.74976	-3.79609
2507.81250	-7.31632	-8.10022	1.87620	-0.97515
2511.71875	-7.23816	-8.90273	3.48747	2.24879
2515.62500	-9.31573	-5.67587	4.29298	-0.16840
2519.53125	-4.19939	-5.26948	5.50132	1.84661
2523.43750	-2.48724	-10.50415	7.91850	1.04113
2527.34375	-6.20244	-10.90368	10.73854	-3.39077
2531.25000	-12.53070	-10.90027	9.12638	-7.01681
2535.15625	-15.30164	-18.14961	6.70835	-9.03109
2539.06250	-7.72993	-14.11690	5.49910	-9.03074
2542.96875	-4.49221	-3.63726	5.49863	-12.25385
2546.87500	-1.45553	-1.61920	5.49818	-7.01545
2550.78125	5.53087	-2.42161	2.27434	-4.19462
2554.68750	4.88491	-2.82112	1.06511	-6.20897
2558.59375	2.84516	-4.42951	-0.94999	-11.44678
2562.50000	3.99888	-4.42611	-1.35340	-17.89341
2566.40625	7.73423	-5.63150	-2.56269	-9.02868
2570.31250	3.43318	-8.44860	-4.57784	-8.62542
2574.21875	-3.55625	-5.22177	-1.75786	-20.31009
2578.12500	-3.90666	-7.63598	1.86801	-13.05702
2582.03125	-1.99640	-10.45309	0.65867	-6.60983
2585.93750	3.64158	-1.18234	-0.95356	-9.02711
2589.84375	6.16164	0.83566	1.06054	-1.37107
2593.75000	4.90530	-1.57853	2.67169	-1.77373
2597.65625	3.03588	-0.36634	0.25353	-2.17636
2601.56250	1.69530	-1.16888	-1.76167	-0.16142
2605.46875	-0.03119	-3.58317	-1.76220	-2.17573
2609.37500	2.03540	-3.98270	-1.35976	-4.19006
2613.28125	1.25853	-4.78522	-1.76322	-3.78682
2617.18750	-2.11866	-2.76725	-1.36077	-0.56306
2621.09375	-0.64297	-4.37568	-0.55540	-0.96566
2625.00000	-2.47628	-11.22214	-0.55587	0.64636
2628.90625	-6.52383	-7.59247	-3.77979	7.09353
2632.81250	-5.22808	-1.14226	-5.39199	8.70551
2636.71875	-3.25657	-5.57118	-0.55736	5.88531
2640.62500	-1.35874	-5.97073	1.45681	2.66218
2644.53125	-0.46879	-2.34106	0.65047	0.64784
2648.43750	1.84356	-1.53195	-1.36468	3.46863
2652.34375	2.77299	0.48594	-3.37982	2.26012
2656.25000	0.42468	1.29515	-2.97733	-0.96310
2660.15625	-0.05338	-1.92499	-0.96316	4.27526
2664.06250	-1.26146	-1.11582	-0.15781	15.96046
2667.96875	-0.25774	-2.32133	0.64754	15.96075
2671.87500	3.90894	-5.13851	1.45287	12.33471
2675.78125	2.87893	-1.91176	5.07875	9.91742
2679.68750	-2.37182	-2.31143	5.48116	10.32073
2683.59375	1.18937	-1.90517	-2.57790	16.76791
2687.50000	5.30811	-5.93117	-6.20471	13.54469
2691.40625	-5.44330	-9.55431	-0.56417	7.50095
2695.31250	-7.17759	-8.74520	2.65886	17.57448
2699.21875	0.54598	-4.71255	-0.56500	16.76890
2703.12500	-8.42936	-3.90341	-3.78886	0.65195
2707.03125	-16.10786	-9.54122	-2.58047	-1.36240
2710.93750	-9.56589	-2.68813	-4.59550	-2.16795
2714.84375	-5.97243	-0.67023	-8.22216	-7.00283
2718.75000	-7.42131	-1.47286	-10.23713	-8.21124
2722.65625	-11.18195	2.55978	-10.64046	-7.40513
2726.56250	-18.97184	0.54832	-8.62621	-13.04590
2730.46875	-20.13978	0.14869	-7.82076	-19.08960
2734.37500	-13.65231	1.36077	-6.61234	-10.22493
2738.28125	-12.17537	-2.66530	-5.00097	0.65429
2742.18750	-10.69806	-7.90015	-7.01609	-2.16603
2746.09375	-3.68501	-3.46468	-3.79305	-2.16586
2750.00000	1.52051	-2.65553	-1.77879	0.25183
2753.90625	1.61535	-11.11386	-4.59970	-1.35966
2757.81250	2.80077	-5.87253	-3.39134	1.46108
2761.71875	5.91306	-0.22830	-1.37710	-0.95626
2765.62500	7.99585	0.17791	-0.57165	-4.17954
2769.53125	7.06783	-3.44522	-2.18375	7.50558
2773.43750	5.98663	-7.47125	-2.18414	13.95271
2777.34375	3.65795	-3.43873	-2.18452	11.13247
2781.25000	1.17483	-4.64425	-2.18491	10.72971
2785.15625	2.77418	-9.87916	-0.97651	1.46251
2789.06250	-0.67306	-5.84664	-3.39451	-8.20750
2792.96875	-6.57965	-1.81409	-6.61837	-13.44534
2796.87500	-11.21750	-3.01968	-5.40997	-10.62460
2800.78125	-10.81423	-2.61354	-1.78398	-8.20673
2804.68750	-3.63644	-8.25142	-2.99308	-6.99772
2808.59375	-3.56669	-8.65121	-3.79936	-6.59449
2812.50000	-4.24893	-2.60404	0.63251	-1.35608
2816.40625	2.49526	-5.42139	1.84091	3.88231
2820.31250	5.80240	-6.62696	1.84052	5.89721
2824.21875	-2.77595	-2.19151	0.22837	1.06233
2828.12500	-10.47437	-6.62064	0.22798	-3.36968
2832.03125	-5.95513	-7.82621	3.04818	5.49496
2835.93750	-3.15326	-0.57029	-0.17563	5.09228
2839.84375	-3.37531	-2.17892	-0.57896	2.27203
2843.75000	-2.30256	-3.78747	3.44996	0.66055
2847.65625	-6.88821	-3.38142	3.44956	4.69015
2851.56250	-8.06776	-7.40756	3.04626	2.67575
2855.46875	-3.98687	-12.64251	2.23999	4.69060
2859.37500	-0.87871	-4.98368	1.03079	13.15234
2863.28125	-3.42818	-0.14540	0.62745	8.31742
2867.18750	-11.74404	-6.18622	1.83586	5.49715
2871.09375	-11.38832	-7.39186	2.23841	-0.94935
2875.00000	-6.85370	-3.76223	0.22331	-4.97837
2878.90625	-8.87173	-1.74436	-0.58292	-4.97807
2882.81250	-11.79683	-11.41156	-0.18035	-8.20113
2886.71875	-8.92350	-10.19967	-0.18075	-5.78327
2890.62500	-3.82462	1.48844	1.02769	-2.15654
2894.53125	-1.67898	0.28274	-1.39027	-3.76801
2898.43750	0.04118	3.10632	-2.59946	-2.15602
2902.34375	3.20935	3.10942	-0.58519	-0.14110
2906.25000	-0.44171	-3.33435	1.02619	-0.54375
2910.15625	-3.50474	-3.33125	-1.39181	-1.34930
2914.06250	0.66126	-3.32810	-2.60098	-1.34901
2917.96875	-1.13755	-4.13071	-4.21304	-1.34871
2921.87500	-3.54116	0.70762	-3.40752	-2.96009
2925.78125	-0.80444	1.51666	-0.18440	-0.94510
2929.68750	-0.35145	-6.53890	-0.99063	-2.15362
2933.59375	-4.26200	-8.14755	-0.58810	-0.94457
2937.50000	-5.96300	-1.29473	5.05263	-7.39121
2941.40625	-4.65432	3.54355	5.85814	-8.59974
2945.31250	-3.97033	5.15832	4.24609	-0.13794
2949.21875	0.80223	1.93792	3.43982	-2.95814
2953.12500	1.28342	1.13512	1.02194	-4.56958
2957.03125	2.08432	1.13820	-2.60480	-3.76345
2960.93750	5.50688	-0.47038	-7.03740	-1.34559
2964.84375	0.53477	-0.87018	-4.21718	1.47516
2968.75000	4.79475	-0.86708	-0.59116	4.69892
2972.65625	8.03525	-2.47577	-0.59147	3.89339
2976.56250	0.44175	-9.72549	1.42286	3.49072
2980.46875	-0.05695	-7.30489	4.64598	4.29692
2984.37500	-2.60327	-0.85495	3.03398	5.50600
2988.28125	-4.48960	-6.09003	-0.59270	7.11803
2992.18750	-5.35801	-7.69870	2.63048	1.88023
2996.09375	-2.83141	-4.06931	5.45069	4.29819
