 	TP9	AF7	AF8	TP10	
-1000.00000	-7.46799	-1.02208	5.30746	10.42672
-996.09375	-7.46675	4.21496	2.48598	8.41163
-992.18750	-5.04811	7.03441	3.29083	4.78484
-988.28125	-2.22646	2.60115	2.48399	-0.45373
-984.37500	4.22163	0.98831	-3.15807	1.56045
-980.46875	-13.10318	3.40489	-1.95025	2.76882
-976.56250	-43.32199	-2.64007	2.88397	-4.08148
-972.65625	-34.05348	-5.86458	-0.34048	-6.09660
-968.75000	-33.24665	1.78998	0.46434	-8.51462
-964.84375	-57.42168	-0.22576	5.29848	-6.90343
-960.93750	-44.52724	-1.83855	4.08870	-0.45698
-957.03125	-31.63274	-0.22792	1.26722	-1.66620
-953.12500	-32.03496	-1.43779	2.87801	3.16855
-949.21875	-22.76671	-2.64763	6.50340	8.80922
-945.31250	-23.16864	-2.24578	4.08482	6.39121
-941.40625	-24.77951	-5.06722	-0.34835	5.18202
-937.50000	-17.92883	-3.05354	-0.34934	6.79333
-933.59375	-8.25766	2.18352	-1.96209	3.16654
-929.68750	-7.85369	-0.23509	-4.78357	3.56914
-925.78125	-17.12002	-3.45952	-2.76989	7.19516
-921.87500	-22.75992	-3.46051	-1.96499	3.56851
-917.96875	-19.53532	0.97072	-5.59228	3.16523
-914.06250	-15.50491	5.80484	-5.19035	2.35908
-910.15625	-17.92132	0.96869	-1.16203	-1.26758
-906.25000	-18.32318	4.59410	-1.96886	-2.47669
-902.34375	-19.93392	11.03993	-4.79033	-0.05946
-898.43750	-23.96243	5.80079	-5.19426	1.14900
-894.53125	-11.47090	2.57635	-3.98642	1.55160
-890.62500	3.84136	2.97816	-1.56979	1.14830
-886.71875	-3.41052	-1.05221	2.86149	3.16261
-882.81250	-13.48292	-3.47085	2.86051	3.16229
-878.90625	-17.10829	-5.88947	0.03897	6.38542
-875.00000	-16.30151	-9.51698	0.03798	7.59387
-871.09375	1.42838	-3.07117	2.45458	2.75838
-867.18750	16.33780	0.95704	2.05063	5.57854
-863.28125	-0.58435	-0.25286	-2.78551	7.18988
-859.37500	-7.43327	-1.05982	-2.38357	10.41292
-855.46875	4.65550	-2.26972	0.43590	12.42714
-851.56250	2.23898	-3.07667	-1.57977	7.59166
-847.65625	-8.23610	-3.88361	-1.58078	3.96501
-843.75000	-5.41443	-3.88468	-1.58179	3.96471
-839.84375	-0.98106	-2.27411	-4.00039	6.38194
-835.93750	-9.44137	-1.46938	-4.80722	2.35234
-832.03125	-7.02267	-9.52907	-7.62871	1.54625
-828.12500	-1.38053	-5.90378	-7.22682	3.56058
-824.21875	-13.87030	2.95954	-5.21319	-0.87194
-820.31250	-16.68956	2.15257	-7.63173	-0.46916
-816.40625	-10.64425	-1.87784	-7.63274	1.54528
-812.50000	-1.77844	-2.68484	-9.64840	-2.48429
-808.59375	2.65514	-3.49190	-8.44066	-4.09633
-804.68750	10.31213	-4.70175	-3.60646	6.78255
-800.78125	4.67226	0.93812	-7.23385	10.81156
-796.87500	-8.62325	2.54875	-8.44365	5.17019
-792.96875	-4.59274	-0.27291	-8.04171	5.16989
-789.06250	-1.36809	-1.07986	-6.43107	9.60183
-785.15625	5.88590	-0.67801	-6.43212	7.18385
-781.25000	9.51344	-1.88797	-9.25364	8.39223
-777.34375	-0.55870	0.12551	-10.06050	14.83873
-773.43750	-5.79568	2.94484	-8.04685	10.00319
-769.53125	-5.39163	0.92904	-5.63023	8.39103
-765.62500	-27.55182	-0.28094	-5.22835	10.40522
-761.71875	-43.26514	-3.50555	-7.24402	6.37546
-757.81250	-39.23486	-0.28324	-8.45383	4.36041
-753.90625	-37.62216	3.34205	-5.63429	4.36001
-750.00000	-26.33913	1.72915	-4.42655	6.77723
-746.09375	-18.68253	1.32510	-8.85984	4.35933
-742.18750	-11.42889	-1.09365	-10.47262	3.15022
-738.28125	7.10690	-5.52706	-8.05601	6.77630
-734.37500	4.69021	-3.11062	-7.25117	7.58186
-730.46875	-1.35281	4.94679	-5.23754	5.96992
-726.56250	3.48335	5.34853	-6.44734	10.80483
-722.65625	2.27567	2.92973	-6.85125	9.19290
-718.75000	15.17057	-1.50369	-7.25522	8.38676
-714.84375	21.21557	-2.31070	-9.27088	12.81878
-710.93750	-2.15326	1.31452	-9.27190	9.19221
-707.03125	-2.15213	0.91040	-6.04946	2.74510
-703.12500	-3.76274	-1.10538	-7.66215	3.14775
-699.21875	-11.82016	-1.10655	-8.87198	8.78853
-695.31250	-13.43081	-0.70479	-7.26132	9.99703
-691.40625	-10.20620	-2.72060	-9.67987	0.32638
-687.50000	3.49472	-1.91590	-8.47212	-1.68858
-683.59375	0.67549	-4.73755	-8.87601	-0.48008
-679.68750	-7.78482	-9.97679	-10.48875	1.93722
-675.78125	-7.38051	-3.12813	-10.08678	2.33982
-671.87500	-0.93216	7.34688	-12.90827	1.53366
-667.96875	4.71038	3.71926	-11.70056	3.95094
-664.06250	5.11481	0.89757	-10.49277	-0.07873
-660.15625	7.53388	0.09052	-11.29964	0.32395
-656.25000	22.44382	0.89521	-10.89772	9.18821
-652.34375	45.81524	3.31170	-11.30170	5.15863
-648.43750	30.90842	-0.31584	-13.72032	2.33784
-644.53125	5.92831	-6.36091	-14.12422	10.79906
-640.62500	8.75035	-8.77963	-13.31937	8.38118
-636.71875	6.73724	-7.57195	-15.33502	8.38094
-632.81250	11.97691	-7.17013	-12.91842	5.15721
-628.90625	14.39608	-6.76831	-9.29305	2.73936
-625.00000	7.14476	-5.15775	-14.12920	6.76843
-621.09375	10.77247	-7.57646	-16.54779	5.96234
-617.18750	11.57974	-7.98049	-11.71365	5.96202
-613.28125	7.55196	-9.99634	-10.90877	10.79683
-609.37500	23.26761	-9.99754	-11.31276	15.22879
-605.46875	15.21021	-10.80457	-10.91084	13.21388
-601.56250	0.70605	-13.22321	-13.32947	11.19894
-597.65625	-4.93362	-13.62727	-10.91288	12.00447
-593.75000	-6.94695	-11.21082	-12.12268	11.19834
-589.84375	-0.90167	-15.24129	-16.55595	9.98926
-585.93750	-4.12367	-18.46590	-12.93055	7.97435
-582.03125	3.13039	-12.42312	-10.11103	6.36230
-578.12500	22.47223	-11.61839	-8.09737	6.36198
-574.21875	19.65304	-14.43999	-8.90423	5.55578
-570.31250	6.76054	-14.03824	-11.32284	5.15246
-566.40625	2.73240	-11.62184	-12.12967	4.34624
-562.50000	-6.13103	-8.80251	-12.93651	4.74879
-558.59375	2.33162	-6.38600	-15.35510	8.77768
-554.68750	18.85291	-4.77534	-18.98252	14.82127
-550.78125	28.92738	-6.79111	-18.58057	18.44736
-546.87500	22.88459	-8.80693	-18.17862	16.43234
-542.96875	15.23012	-5.18163	-16.16498	9.98506
-539.06250	22.48402	-4.37691	-16.56894	10.79057
-535.15625	16.03831	-5.98972	-15.76410	16.02836
-531.25000	20.47171	-8.81140	-13.75045	14.81925
-527.34375	19.26411	-12.03591	-16.57194	19.25116
-523.43750	-7.32806	-18.48390	-16.57293	19.25081
-519.53125	-8.93867	-18.08212	-13.75341	16.83282
-515.62500	-2.49069	-9.21881	-13.35145	19.24999
-511.71875	-1.68370	-8.81705	-15.36708	16.02618
-507.81250	7.98794	-10.42982	-16.97978	10.38480
-503.90625	17.65960	-8.01330	-18.18960	11.99621
-500.00000	11.21402	-5.19389	-19.39939	12.39881
-496.09375	12.02108	-4.79205	-17.38575	13.20445
-492.18750	20.48379	-8.01664	-14.96918	15.62166
-488.28125	25.32008	-5.19727	-14.16436	15.62134
-484.37500	33.78280	-6.81007	-16.98588	10.78589
-480.46875	27.33713	-13.66101	-17.79282	5.14451
-476.56250	12.42994	-7.61814	-14.57038	3.53252
-472.65625	10.01358	-6.81333	-14.57143	6.75570
-468.75000	10.01490	-13.26137	-14.57250	9.57590
-464.84375	11.22507	-17.29181	-14.17058	10.78443
-460.93750	17.27028	-14.06950	-15.78336	8.76948
-457.03125	12.03345	-10.04121	-14.57557	11.99259
-453.12500	0.75274	-8.02760	-14.17364	16.82744
-449.21875	8.40971	-7.62575	-16.99515	13.60362
-445.31250	14.05201	-8.02967	-13.77280	14.40907
-441.40625	-3.27293	-8.83663	-12.56503	12.39407
-437.50000	-10.52469	-8.43472	-13.37186	11.58788
-433.59375	8.01116	-13.67389	-10.95525	19.64614
-429.68750	19.29435	-12.86911	-9.74746	26.09270
-425.78125	22.92179	-2.39395	-12.56901	19.24263
-421.87500	30.57857	0.02255	-15.39048	18.03355
-417.96875	15.67127	-1.18736	-15.79442	26.09188
-414.06250	16.88126	-3.20305	-14.58659	31.32972
-410.15625	27.35867	-5.21871	-15.79635	35.35876
-406.25000	19.70415	-8.84610	-17.40900	33.74680
-402.34375	18.89939	-4.01192	-16.20116	33.34354
-398.43750	21.31818	0.82220	-14.59042	33.74614
-394.53125	31.39255	0.82120	-12.57673	38.17802
-390.62500	48.31667	-3.20910	-13.38355	40.59523
-386.71875	33.40916	-4.41889	-12.17571	33.34210
-382.81250	25.75447	-5.62868	-10.96787	38.17689
-378.90625	36.63460	-9.65895	-12.58061	43.81747
-375.00000	36.63567	-6.43651	-14.59625	37.77309
-371.09375	33.41329	-3.61706	-15.80604	36.56388
-367.18750	27.37041	-7.64737	-13.38939	33.74296
-363.28125	29.38608	-8.85715	-12.98739	31.72784
-359.37500	39.05747	-9.66393	-14.60012	32.53320
-355.46875	46.31138	-13.69417	-15.40695	33.33856
-351.56250	44.29794	-11.68048	-16.61672	34.54688
-347.65625	41.47845	-12.08429	-18.63232	30.92000
-343.75000	29.39145	-15.30864	-20.64794	26.48722
-339.84375	16.90165	-18.53299	-18.63427	27.69555
-335.93750	20.52903	-20.95152	-18.23226	33.73905
-332.03125	28.58865	-22.56419	-17.83029	31.32103
-328.12500	23.35165	-20.55052	-17.02529	29.30597
-324.21875	23.75570	-20.14858	-15.41450	33.73785
-320.31250	26.57725	-23.37300	-13.80371	31.72285
-316.40625	12.47570	-26.59739	-14.61045	34.14003
-312.50000	12.87953	-28.61302	-15.41720	28.90155
-308.59375	18.11857	-27.80802	-13.40344	22.45426
-304.68750	18.11964	-29.01775	-13.00138	27.28909
-300.78125	16.91195	-29.42163	-17.03160	22.85645
-296.87500	14.49544	-33.85474	-15.01788	17.61793
-292.96875	21.74927	-29.02051	-12.60127	16.40878
-289.06250	25.77963	-22.57453	-14.61683	14.79662
-285.15625	26.58639	-27.00768	-14.21477	18.82550
-281.25000	26.99042	-31.84375	-15.02151	20.43684
-277.34375	14.50086	-35.47114	-15.02241	18.01888
-273.43750	10.06968	-32.65158	-16.23206	19.63025
-269.53125	22.96440	-31.04074	-16.63588	23.25631
-265.62500	18.13033	-34.26513	-12.60744	24.46475
-261.71875	6.44644	-36.68365	-11.39949	23.25559
-257.81250	17.72949	-37.08747	-11.40037	23.25523
-253.90625	26.59489	-36.28259	-12.20708	23.25488
-250.00000	29.01363	-38.29818	-14.62555	24.86625
-246.09375	24.58246	-41.52254	-15.43227	26.07472
-242.18750	20.55421	-43.53811	-14.22431	27.68612
-238.28125	36.26975	-38.30095	-12.61348	26.07397
-234.37500	22.97407	-33.86962	-14.62899	21.64135
-230.46875	10.08107	-34.67643	-15.03275	22.44688
-226.56250	23.37860	-33.87143	-13.42191	26.47577
-222.65625	19.75323	-37.90171	-13.01983	22.04312
-218.75000	19.75412	-39.11136	-13.02070	14.79001
-214.84375	20.15791	-35.48590	-12.61867	17.61010
-210.93750	21.36772	-38.30723	-13.42536	26.47416
-207.03125	24.99509	-38.30809	-14.63499	22.84732
-203.12500	24.19010	-35.08552	-13.42703	13.98251
-199.21875	25.39979	-31.05709	-13.42787	15.59380
-195.31250	20.56566	-31.46092	-15.44336	18.81682
-191.40625	24.19307	-33.87938	-17.05592	14.78708
-187.50000	29.83508	-34.28321	-15.04215	17.20423
-183.59375	16.13637	-36.70163	-11.41667	22.44187
-179.68750	0.82588	-29.44971	-12.22339	18.00915
-175.78125	1.22964	-25.42125	-15.85066	12.36762
-171.87500	15.33316	-30.66020	-17.06023	14.38177
-167.96875	25.81021	-32.27277	-17.06110	11.15788
-164.06250	20.97586	-29.05015	-17.46493	8.73981
-160.15625	19.76804	-32.27439	-16.25697	7.93349
-156.25000	25.40994	-32.67819	-17.06365	9.14183
-152.34375	24.20207	-27.84382	-17.46747	15.58821
-148.43750	25.00902	-27.44177	-15.05072	11.96140
-144.53125	22.99523	-28.24848	-15.45449	8.73746
-140.62500	14.13161	-27.84633	-18.67877	9.54282
-136.71875	13.32664	-29.05589	-19.48549	11.95998
-132.81250	19.37155	-31.07129	-19.08352	13.97416
-128.90625	25.01355	-35.10138	-18.27852	18.00297
-125.00000	18.97050	-34.69926	-15.86188	17.19670
-121.09375	11.71869	-28.65608	-11.43054	11.95825
-117.18750	14.13714	-28.25391	-10.22264	20.41940
-113.28125	14.94393	-28.25471	-10.62643	30.08928
-109.37500	2.45392	-29.06134	-10.22432	24.44787
-105.46875	3.66352	-34.30022	-11.43398	10.34476
-101.56250	8.49961	-35.91276	-11.03188	7.92666
-97.65625	16.55909	-30.67544	-12.64449	9.94078
-93.75000	23.81263	-26.64684	-15.06289	13.16370
-89.84375	16.56074	-27.05054	-10.22861	16.78950
-85.93750	14.54700	-27.85715	-9.42362	16.78897
-82.03125	6.89217	-27.85790	-11.43915	20.81768
-78.12500	8.90771	-30.27624	-11.84300	20.81709
-74.21875	12.93791	-34.30629	-9.42628	17.99603
-70.31250	11.72993	-30.68069	-7.81540	16.38373
-66.40625	17.37180	-27.05502	-9.83096	15.98019
-62.50000	31.87810	-27.45871	-13.86121	14.77087
-58.59375	30.26720	-25.04184	-13.86209	13.56153
-54.68750	9.71847	-25.04256	-10.23656	14.36687
-50.78125	4.48115	-31.89310	-9.02860	9.53125
-46.87500	-1.56194	-31.08796	-10.23824	7.11314
-42.96875	-5.59040	-23.83591	-9.43322	11.94784
-39.06250	7.30428	-23.03078	-10.23992	19.20011
-35.15625	6.90225	-25.44908	-11.85253	14.76737
-31.25000	2.06794	-26.25558	-11.85340	8.72293
-27.34375	5.29218	-22.62984	-11.45127	7.91659
-23.43750	2.06952	-28.27160	-9.84031	11.54245
-19.53125	-3.97363	-28.27230	-8.22945	13.15375
-15.62500	-0.74939	-20.21442	-9.43911	12.34735
-11.71875	4.89250	-19.81217	-8.63413	15.16737
-7.81250	2.87868	-20.61864	-7.82910	13.95805
-3.90625	10.53529	-20.21639	-9.44171	17.98683
0.00000	19.80360	-23.84341	-7.83075	17.98635
3.90625	15.37220	-25.05285	-7.83155	13.15071
7.81250	21.41681	-21.83005	-8.63827	13.95607
11.71875	25.44672	-22.23368	-7.83318	13.95556
15.62500	12.55375	-23.04018	-5.81934	12.34332
19.53125	12.55461	-24.24964	-6.62605	17.17807
23.43750	30.28450	-21.02685	-7.43271	21.20691
27.34375	29.07677	-16.59525	-6.62767	18.38594
31.25000	17.79563	-16.59591	-6.62847	9.92392
35.15625	22.22855	-17.40243	-10.25561	9.52046
39.06250	28.67620	-18.20900	-9.45056	9.11702
42.96875	33.91500	-18.20968	-5.01912	11.53399
46.87500	29.88639	-18.61329	-2.60234	22.41258
50.78125	28.27537	-16.59931	-4.61783	15.56216
54.68750	25.05274	-14.98826	-5.42455	4.68249
58.59375	15.78604	-19.42105	-5.82825	12.74052
62.50000	12.96622	-19.42163	-5.02324	12.74002
66.40625	15.78750	-14.99005	-5.42703	8.71021
70.31250	20.62356	-21.43760	-4.21908	15.15662
74.21875	12.16284	-20.63239	-5.83163	13.94738
78.12500	15.78998	-13.78330	-7.84711	15.15575
82.03125	18.61132	-14.18696	-8.65384	14.75230
85.93750	24.65599	-14.18763	-8.65465	13.54301
89.84375	22.23906	-16.20291	-4.62610	16.76599
93.75000	8.54012	-18.21823	-4.22403	14.34790
97.65625	5.72042	-22.24823	-6.23948	14.75034
101.56250	12.57113	-21.44309	-3.41978	11.52639
105.46875	19.82474	-14.19107	-1.80881	12.73466
109.37500	17.40792	-12.98295	-5.03303	9.91358
113.28125	11.36476	-15.80411	-5.43679	12.73353
117.18750	9.35089	-19.83406	-3.82584	12.33002
121.09375	21.84245	-15.80545	-3.82661	2.65917
125.00000	23.05177	-9.35924	-4.23031	3.06156
128.90625	21.44069	-12.18043	-6.64870	5.47865
132.81250	38.36457	-12.98701	-5.44073	10.71623
136.71875	29.50073	-13.79349	-2.62098	9.10395
140.62500	13.38410	-14.19709	-5.03941	7.08866
144.53125	18.62282	-14.19773	-6.24903	10.31157
148.43750	18.62352	-13.79543	-3.83225	11.51982
152.34375	19.43007	-15.40781	-3.02723	7.89292
156.25000	27.48933	-18.22905	-6.65444	5.07182
160.15625	31.51937	-17.02092	-7.46106	6.28010
164.06250	16.61172	-18.23041	-5.04420	9.50303
167.96875	3.71857	-19.84279	-3.83615	7.89077
171.87500	13.79241	-19.44053	-3.03105	5.06964
175.78125	27.89563	-16.21781	-3.03178	5.06908
179.68750	26.68742	-10.98037	-2.22670	7.08316
183.59375	19.43521	-9.77222	-2.63038	3.05332
187.50000	17.01810	-13.80220	-4.64580	9.90268
191.40625	20.24218	-14.60873	-7.06419	12.72264
195.31250	23.46627	-13.80347	-8.27382	-0.57467
199.21875	18.22882	-21.86264	-7.87171	2.64820
203.12500	2.91811	-19.04275	-7.06671	6.27398
207.03125	4.53030	-12.99944	-6.66465	4.25876
210.93750	10.97776	-16.62642	-7.47132	3.45229
214.84375	10.57543	-17.03004	-6.66627	5.46629
218.75000	14.60527	-16.62780	-2.23482	9.49494
222.65625	13.79987	-21.86656	-1.83269	7.07661
226.56250	10.57684	-23.07598	-4.65403	7.47882
230.46875	13.80061	-17.03267	-4.25200	8.28396
234.37500	7.75716	-16.22744	-5.86453	3.04517
238.28125	6.95182	-15.01926	-7.07416	6.67096
242.18750	9.36984	-10.99060	-5.86617	10.69965
246.09375	14.20551	-12.19994	-3.85230	9.49026
250.00000	18.63845	-15.42400	-1.83844	6.26627
253.90625	7.75992	-13.81299	-3.85391	4.25106
257.81250	8.96923	-10.18723	2.59217	14.32375
261.71875	18.23708	-1.72633	16.29095	28.82874
265.62500	26.29616	5.12293	21.93119	32.45451
269.53125	32.34056	7.94284	23.94503	28.02165
273.43750	23.47635	9.15107	23.94420	33.66201
277.34375	22.67100	7.53877	19.10820	38.49646
281.25000	30.73010	10.76155	13.86925	35.27234
285.15625	34.75973	13.98438	15.88304	32.45120
289.06250	26.70149	13.98377	16.28509	28.01832
292.96875	19.04613	9.55094	18.29893	26.80889
296.87500	20.65808	8.74434	19.10400	25.19654
300.78125	25.49342	7.93785	15.87970	23.98711
304.68750	20.25572	1.89330	16.28179	23.18069
308.59375	19.04739	1.89269	16.68393	23.58307
312.50000	18.24196	1.08619	15.47433	21.16489
316.40625	16.22782	1.48841	15.47353	23.58198
320.31250	15.82540	-0.52690	15.47271	26.40197
324.21875	16.22883	-2.94509	16.27772	20.76048
328.12500	16.22934	-3.75165	13.05343	19.95419
332.03125	9.78301	-5.36395	9.42627	19.55071
335.93750	18.64798	-8.58804	9.82843	22.77364
339.84375	16.63377	-8.18577	10.63348	19.54966
343.75000	3.74043	-2.54538	9.42386	7.86421
347.65625	10.99360	-2.14303	8.61718	7.05773
351.56250	14.62043	-2.94953	9.82517	9.87766
355.46875	12.60614	-4.56188	7.40677	8.26530
359.37500	13.81524	-9.80054	4.98838	13.09995
363.28125	7.77170	-11.81579	5.79343	16.32282
367.18750	15.02489	-7.78718	6.19562	13.09881
371.09375	17.84581	-7.78788	5.79190	16.72464
375.00000	6.56397	-9.40020	5.79113	15.91825
378.90625	9.38494	-6.98322	6.59629	8.26202
382.81250	15.83222	-6.58100	4.58086	9.06738
386.71875	12.60928	-9.40212	4.58004	7.85802
390.62500	12.20691	-13.83496	6.99679	6.64868
394.53125	5.76052	-9.40330	4.57848	5.84231
398.43750	6.96976	-4.56872	0.54835	3.82715
402.34375	18.25229	-2.95751	2.15929	4.63245
406.25000	17.84990	-4.16691	2.56143	5.03477
410.15625	20.26798	-4.57045	0.54591	5.84008
414.06250	33.16244	-3.36223	0.94805	10.67460
417.96875	26.31320	-5.78038	2.15600	9.46517
421.87500	16.64350	-9.81024	4.16981	6.64410
425.78125	16.24114	-9.40791	3.76604	9.86697
429.68750	19.86819	-5.37924	3.76525	4.22534
433.59375	25.91274	-5.78280	5.37621	4.62777
437.50000	21.88401	-8.60389	3.36077	2.61260
441.40625	22.28754	-4.57519	2.95705	5.43257
445.31250	17.45306	-0.94940	3.76215	14.29643
449.21875	14.23029	-2.15883	2.95552	7.44601
453.12500	28.33355	-0.54774	0.53712	8.65419
457.03125	23.90209	0.25757	3.35685	5.43007
460.93750	8.59133	-2.16060	5.77356	-3.03214
464.84375	14.23298	-5.78756	4.16107	5.83176
468.75000	21.88932	-7.39990	6.57791	4.62238
472.65625	14.23430	-4.17708	6.57714	2.20421
476.56250	7.38520	-2.16307	1.74116	6.63591
480.46875	4.16236	-5.79014	2.94918	5.82953
484.37500	4.16293	-4.98486	5.76890	8.64945
488.28125	4.96931	-7.40306	3.75346	12.27521
492.18750	4.16395	-6.59781	0.93217	13.08052
496.09375	19.47580	-0.55445	1.33434	11.06524
500.00000	31.16132	-1.76385	-0.27821	7.43820
503.90625	14.64166	-3.37617	-1.48780	0.99064
507.81250	0.53954	-4.18265	-1.08560	-4.24810
511.71875	-3.48934	-2.97447	3.74880	-0.62232
515.62500	-1.47437	-0.55755	4.55391	2.19755
519.53125	2.95825	-1.76698	2.53845	-1.83241
523.43750	6.58505	-1.36464	3.34354	-1.43015
527.34375	18.27053	-0.15647	3.74565	3.40436
531.25000	11.82410	-0.56006	1.73020	3.80668
535.15625	2.15430	-2.17237	4.95286	5.01472
539.06250	6.99002	-0.96416	3.74328	7.02868
542.96875	18.27248	3.06454	1.32497	3.40163
546.87500	24.31679	2.66099	5.75640	5.81853
550.78125	7.79711	-2.98057	6.15855	-1.83782
554.68750	-4.69326	-5.39872	8.57533	-7.47948
558.59375	0.94822	1.45051	8.17159	-0.63027
562.50000	11.02190	4.67340	6.15615	5.81600
566.40625	4.17260	2.25526	5.75240	7.02411
570.31250	6.59053	-1.37177	4.13994	5.41176
574.21875	17.87308	0.23938	4.54215	7.42578
578.12500	21.49995	-1.37300	1.72085	6.21638
582.03125	15.05358	-5.80587	4.54066	6.21578
585.93750	10.21887	-2.58303	8.56922	7.42394
589.84375	19.08364	-0.16604	10.98603	5.40866
593.75000	24.72499	1.04217	10.58239	2.58753
597.65625	24.72530	1.44450	5.34351	0.97517
601.56250	5.38504	-0.97359	6.14857	6.61562
605.46875	-8.31428	-0.57124	7.35658	8.22672
609.37500	7.80323	-0.16881	7.35579	0.57041
613.28125	20.69738	-1.37815	7.35498	1.37560
617.18750	16.26546	-0.16990	7.35417	2.58378
621.09375	17.07173	2.65003	6.14454	0.16555
625.00000	14.65462	-2.18570	6.14371	2.98544
628.90625	7.40225	-7.02136	7.75460	0.97025
632.81250	12.23779	-3.79845	5.33626	0.56683
636.71875	11.43237	0.63332	2.51495	-3.06012
640.62500	10.22406	3.45332	4.12579	-3.86648
644.53125	6.59813	1.43816	6.94544	5.40039
648.43750	-6.29516	0.63180	7.34757	1.37053
652.34375	-9.11515	-1.78634	7.34679	-1.04766
656.25000	-3.87653	-7.83083	7.74890	-1.45112
660.15625	-5.48788	-5.01081	8.55401	-5.07812
664.06250	-12.74024	2.64429	6.53858	-2.66109
667.96875	-6.69584	1.43493	6.94071	-1.85573
671.87500	11.03358	-5.01249	7.74579	-1.45329
675.78125	-6.69492	-5.01302	4.92454	-3.87148
679.68750	-27.24404	-1.38718	5.72962	-0.64862
683.59375	-20.79684	-3.40238	7.74352	4.99178
687.50000	-14.75255	-6.22342	6.53404	3.37949
691.40625	-7.49948	-9.04450	5.72740	-2.66506
695.31250	-4.67867	-6.22450	1.29448	-3.87446
699.21875	-1.85782	-3.00163	2.50252	-4.68092
703.12500	-1.85738	-4.21100	1.29297	-9.11379
707.03125	-0.64813	-6.62914	1.69510	-5.08509
710.93750	9.42553	-8.24136	8.94708	2.97287
714.84375	5.79945	-3.40674	8.54340	-0.65412
718.75000	-11.12329	-3.40727	4.11034	-10.32515
722.65625	-13.13758	-1.79606	2.90072	-9.11702
726.56250	-9.10785	1.82989	6.92919	-6.29715
730.46875	-6.28696	1.02358	6.52550	-4.68604
734.37500	-4.27203	-0.99154	2.89834	-1.86620
738.28125	-3.86865	-2.60379	6.52399	-10.73126
742.18750	-3.86805	-1.79843	7.32907	-7.10554
746.09375	-6.68815	-1.79889	6.11950	0.14654
750.00000	-0.24083	-1.79937	6.52171	-2.67463
753.90625	-0.24038	-1.39688	4.10334	-3.07829
757.81250	-4.26925	-2.20318	3.69959	-2.67607
761.71875	-7.08939	-0.99490	4.90762	-5.90026
765.62500	-11.11851	-2.20423	0.87757	-5.90098
769.53125	-7.89476	-2.20471	-0.33199	-3.48407
773.43750	0.97027	1.42111	4.50246	-7.91704
777.34375	-4.26736	3.03232	4.50171	-15.57341
781.25000	-2.25232	5.04646	2.88920	-13.15637
785.15625	2.98624	5.04597	1.67966	-9.93347
789.06250	2.58370	5.44839	2.08185	-9.53118
792.96875	6.21048	3.43326	3.69277	-4.29374
796.87500	12.65776	5.04453	2.48328	-3.89147
800.78125	15.88136	2.22353	4.49719	-5.10095
804.68750	11.44936	-0.59752	4.49643	1.74821
808.59375	25.55223	1.81956	3.28687	0.94160
812.50000	30.79067	2.22200	5.70367	-1.87959
816.40625	4.19769	4.63904	6.10590	4.96951
820.31250	-2.24876	6.65320	5.29928	3.76010
824.21875	4.60135	8.26436	4.89553	2.95357
828.12500	8.22813	4.23447	6.10355	5.77348
832.03125	7.01978	1.81634	4.49109	1.34056
835.93750	12.25824	5.44213	2.07274	-1.48061
839.84375	21.12299	4.63573	5.29544	-2.28718
843.75000	21.12324	3.02350	2.87704	-2.69070
847.65625	14.27372	2.21709	-1.15306	-2.69137
851.56250	8.23016	3.42527	1.26373	-4.30382
855.46875	-7.88681	1.81303	6.90390	0.93359
859.37500	-16.34809	2.61834	6.50021	-1.08174
863.28125	-10.30379	5.43832	2.87304	0.12637
867.18750	-9.49762	3.02023	4.08107	0.93151
871.09375	-16.34712	5.03433	4.88614	-1.08383
875.00000	-19.57025	9.86894	4.48249	4.15361
878.90625	-12.72023	9.06254	4.48170	0.12368
882.81250	-17.95811	8.25616	2.86914	-2.29462
886.71875	-36.49257	6.24100	4.48008	0.52524
890.62500	-33.67170	4.62871	4.07633	4.15093
894.53125	-21.98645	5.83696	2.46386	3.34446
898.43750	-16.74824	-5.44561	4.47775	3.34384
902.34375	-20.77739	-6.65494	6.08870	9.38717
906.25000	-23.19472	10.26763	6.89379	6.96892
910.15625	-23.59737	12.28175	5.68420	0.52141
914.06250	-27.62655	7.44608	7.29517	2.13241
917.96875	-23.19393	7.84843	10.51785	2.93756
921.87500	-26.41691	7.84791	6.89066	5.35444
925.78125	-38.50455	5.83281	6.08405	1.72736
929.68750	-37.69855	3.41471	7.69497	1.72664
933.59375	-31.65440	0.99664	6.88836	2.12877
937.50000	-29.63950	0.59315	6.48470	-3.91591
941.40625	-26.01295	3.41314	2.85752	-3.11078
945.31250	-17.55134	1.39797	0.03625	-3.51438
949.21875	-14.73074	-2.63184	3.66180	-4.32100
953.12500	-30.44491	4.21753	6.48156	-0.69533
957.03125	-40.92092	7.84340	6.48075	2.52739
960.93750	-40.51784	3.00778	5.67405	3.73546
964.84375	-22.38586	3.00728	3.25574	0.10830
968.75000	-11.90946	2.60387	2.85201	-2.71294
972.65625	-28.83239	0.18584	6.47765	3.33026
976.56250	-27.22062	0.99117	7.28277	6.95588
980.46875	-19.56479	-1.82982	5.26737	-1.90924
984.37500	-16.74409	-2.63611	7.68417	-10.37144
988.28125	-19.96732	-1.83075	8.08639	-3.11934
992.18750	-21.57879	1.79515	8.08563	1.71523
996.09375	-17.14639	7.03273	9.69665	-6.74694
1000.00000	-14.72852	7.43517	6.87537	-8.35932
1003.90625	-15.53409	4.61411	6.06877	-4.33067
1007.81250	-21.57780	1.79314	8.08266	0.50389
1011.71875	-19.16000	4.21026	5.66429	1.30908
1015.62500	-5.46010	3.00095	5.26063	2.92013
1019.53125	-11.50380	1.38870	6.46868	-1.91565
1023.43750	-23.99449	5.01463	2.84153	-8.36328
1027.34375	-22.78553	2.59654	4.85544	-5.14056
1031.25000	-14.32373	1.38722	6.06351	-4.33544
1035.15625	-7.47374	-4.25423	7.27156	-7.15665
1039.06250	-17.94974	-1.43418	9.28546	-11.99247
1042.96875	-25.20226	9.84737	8.88177	-10.78436
1046.87500	-17.54642	9.44402	4.85177	-9.97921
1050.78125	-20.76972	7.42889	4.85102	-10.38285
1054.68750	-22.38124	6.62251	7.26785	-5.54832
1058.59375	-21.17230	5.01037	7.26709	-7.16077
1062.50000	-21.97802	1.78645	8.87803	-4.34098
1066.40625	-17.94856	3.39769	6.45972	0.49352
1070.31250	-15.93393	4.60602	2.83253	-7.96877
1074.21875	-9.48704	2.99386	6.86103	-9.17831
1078.12500	-1.02541	0.17294	8.06905	-2.73216
1082.03125	-9.08407	1.78415	0.00968	-4.34468
1085.93750	-12.71058	3.39533	0.81475	-3.94249
1089.84375	-7.06959	2.99196	5.24620	-2.33154
1093.75000	-5.86095	9.84130	4.84246	-14.42013
1097.65625	-5.05510	11.04961	4.84170	-14.82379
1101.56250	-10.69617	7.42275	3.63213	-8.78051
1105.46875	-14.72553	4.19879	4.03431	-11.60174
1109.37500	-11.90507	1.37773	5.24238	-5.96129
1113.28125	-6.66692	-0.23447	2.82407	-5.15606
1117.18750	-0.62280	-0.23498	2.42045	-7.57430
1121.09375	-15.93397	2.98798	8.46365	-9.18663
1125.00000	-28.82769	0.56991	6.85115	-8.38144
1128.90625	-30.03651	2.58410	6.85040	-5.96449
1132.81250	-24.79839	8.22466	8.86430	-5.15931
1136.71875	-11.90463	1.77727	4.83425	-2.74232
1140.62500	2.60086	-3.05836	5.23648	-5.56340
1144.53125	-4.65196	2.98512	4.83278	-8.38460
1148.43750	-5.45783	8.22275	4.83203	-7.17646
1152.34375	-11.09892	7.41645	6.04006	-17.25039
1156.25000	-19.96336	3.38665	2.41296	-20.07163
1160.15625	-23.18674	1.77448	3.62097	-15.64007
1164.06250	-32.45404	5.80332	6.44079	-14.43200
1167.96875	-26.00709	4.59409	6.84291	-13.62691
1171.87500	-17.14264	6.60829	4.82747	-16.85112
1175.78125	-11.50153	9.83126	2.40919	-13.22541
1179.68750	-8.27796	9.83077	1.60256	-7.18209
1183.59375	-1.83091	8.62148	6.03410	-5.57103
1187.50000	-5.05428	7.00930	8.85386	-10.00402
1191.40625	-16.33632	5.39705	6.43561	-13.63117
1195.31250	-17.14223	1.77019	4.01730	-12.42315
1199.21875	-9.48652	0.15800	2.80779	-12.82687
1203.12500	6.63062	2.97800	1.19542	-12.02168
1207.03125	4.61596	9.02144	4.01524	-5.97842
1210.93750	-12.30700	4.99168	6.02919	-5.17328
1214.84375	-16.33624	2.57361	4.01386	-8.39739
1218.75000	-15.12753	5.79660	2.40149	-8.80097
1222.65625	-15.53051	7.00496	4.01250	-5.57822
1226.56250	-5.05428	5.39276	7.63817	-6.78768
1230.46875	12.67483	3.37765	6.02579	-10.81765
1234.37500	1.79575	2.97428	4.01044	-6.78903
1238.28125	-16.73904	3.77963	4.00972	-4.77510
1242.18750	-15.93313	-0.65306	3.20317	-6.38758
1246.09375	-11.09788	-0.65346	4.81414	-1.55315
1250.00000	-9.08307	3.77842	6.02222	-4.37450
1253.90625	-8.27715	1.76344	5.21567	-9.61334
1257.81250	-5.45671	7.40408	3.60318	-6.79353
1261.71875	-1.83032	10.22412	2.79663	-8.40606
1265.62500	2.60201	7.80609	5.21351	-8.40685
1269.53125	3.40803	3.77637	4.80980	-6.39293
1273.43750	1.39336	2.16423	0.77978	-7.60247
1277.34375	-7.87404	2.56670	-1.63853	-8.81197
1281.25000	-12.70919	0.95460	-0.83335	-10.42446
1285.15625	-4.24773	4.17762	1.98643	-14.05157
1289.06250	2.60200	3.37128	1.17982	-10.82890
1292.96875	-5.45667	0.95340	-2.04440	-10.42678
1296.87500	-7.87444	2.16189	-0.83637	-5.99524
1300.78125	4.61636	-3.07656	2.38630	-4.78717
1304.68750	1.79582	-8.31502	0.37080	-11.63777
1308.59375	-4.24822	-3.88321	1.17593	-8.81798
1312.50000	-13.91854	-1.86892	1.17519	-14.45979
1316.40625	-20.36545	1.75713	1.17447	-21.31033
1320.31250	-6.66591	5.38311	1.57664	-18.08762
1324.21875	-9.08350	2.15938	0.77006	-16.87960
1328.12500	-5.45722	1.35315	-1.24533	-17.28318
1332.03125	10.25703	7.39684	-6.08121	-14.06042
1335.93750	-2.23372	7.79937	-0.03799	-13.25525
1339.84375	-13.91863	0.94924	8.82572	-18.09105
1343.75000	-8.68045	-1.87161	7.61622	-15.67421
1347.65625	-15.93315	-3.08062	8.01848	-13.25729
1351.56250	-14.32143	-6.70732	6.80896	-15.67553
1355.46875	-5.86002	-1.46957	5.59943	-16.88502
1359.37500	-2.63660	3.76816	4.79283	-12.85638
1363.28125	2.19855	2.55896	3.58327	-10.84229
1367.18750	1.39257	-1.06776	3.17967	-8.42537
1371.09375	3.00433	-2.67986	0.76138	-9.23181
1375.00000	6.63075	2.96086	5.99878	-12.05297
1378.90625	5.42206	3.76636	7.20686	-6.41268
1382.81250	-0.62197	-0.66623	4.38564	-8.02505
1386.71875	2.19842	1.75105	3.98194	-9.23454
1390.62500	2.19825	4.57121	2.77238	-3.59419
1394.53125	3.00399	3.36207	1.15995	-3.59487
1398.43750	0.18339	2.95883	1.15922	-2.38680
1402.34375	7.83901	-1.47378	1.96435	2.04480
1406.25000	15.89774	-4.29463	-0.45397	2.85000
1410.15625	9.85391	6.58413	1.96293	-1.58288
1414.06250	2.60108	9.80725	5.18568	-6.82168
1417.96875	-5.86057	8.19520	1.96152	-5.61353
1421.87500	2.19809	9.80654	4.78132	3.25030
1425.78125	10.65974	4.56809	8.40703	6.07018
1429.68750	6.63046	2.55306	4.37702	4.05492
1433.59375	0.18364	3.76152	3.16753	0.42797
1437.50000	-7.47195	3.35824	6.39031	2.84494
1441.40625	-8.27762	6.17846	6.38961	6.06780
1445.31250	-5.45701	1.74585	4.37423	1.63501
1449.21875	0.58702	-0.26915	2.35886	-0.78314
1453.12500	-1.02451	8.19209	2.76105	-2.39539
1457.03125	-10.69461	11.41522	1.14864	-3.20168
1460.93750	-2.23275	6.98261	1.14791	-2.79906
1464.84375	5.82610	5.77342	4.77354	-0.38179
1468.75000	-3.03803	11.01117	5.17578	0.82678
1472.65625	-6.26100	12.62251	8.39851	-0.38218
1476.56250	-7.46929	8.99583	9.20364	-1.18813
1480.46875	-7.87172	5.36911	5.57648	-3.60574
1484.37500	2.60501	4.96589	4.36703	-2.39705
1488.28125	-1.82672	4.15967	4.36634	-2.80000
1492.18750	-10.69076	2.14466	4.76851	-8.03814
1496.09375	-6.66101	4.15903	4.76779	-10.85869
1500.00000	-1.42252	0.53232	4.36420	-6.02363
1503.90625	6.63653	2.54662	2.34885	-5.62075
1507.81250	16.71031	11.41079	-0.47242	-6.82972
1511.71875	15.09907	12.61923	0.33269	-1.59185
1515.62500	20.33768	11.41017	3.15248	6.46655
1519.53125	1.80328	9.79810	5.16639	7.27219
1523.43750	-18.34292	8.18611	6.77735	-1.18960
1527.34375	-6.65757	3.35062	5.56781	-2.80157
1531.25000	3.41608	-2.29067	3.14955	-5.62237
1535.15625	5.83398	4.96183	2.74589	-5.62271
1539.06250	3.81964	13.42315	3.95398	2.43544
1542.96875	8.25212	11.40821	3.14741	1.62911
1546.87500	13.49044	8.99027	1.53489	0.01685
1550.78125	14.69943	12.61630	4.35474	1.62804
1554.68750	3.82048	9.79554	7.98040	-2.80480
1558.59375	-10.28179	4.96017	8.38267	2.02975
1562.50000	-1.41727	7.37756	8.38199	4.04374
1566.40625	2.61191	8.58609	9.99301	-2.00088
1570.31250	-3.43209	4.95949	8.78352	-0.38984
1574.21875	0.19428	6.97390	6.36531	0.01239
1578.12500	14.29674	9.39127	5.96170	-2.00303
1582.03125	21.54944	8.18222	3.54344	-1.19795
1585.93750	-1.41767	9.39076	7.57209	1.21889
1589.84375	-14.71445	5.76411	9.98905	0.00931
1593.75000	-9.87937	2.54042	6.76498	-6.03545
1597.65625	-5.85025	8.58417	4.74970	-12.88614
1601.56250	9.46090	12.21035	2.33150	-16.11030
1605.46875	-1.01538	12.61299	4.34547	-13.69353
1609.37500	-19.55025	10.19520	6.35945	-9.26209
1613.28125	-19.14765	5.35973	7.97051	-8.05409
1617.18750	-13.90989	6.16539	7.16405	-14.09886
1621.09375	-10.68662	8.58273	3.13415	-15.30847
1625.00000	-11.49258	6.97084	1.52176	-12.48874
1628.90625	-7.86633	5.76181	4.34169	-15.30995
1632.81250	0.59509	2.94107	7.16157	-13.29599
1636.71875	-0.61382	6.16433	6.75799	-13.29669
1640.62500	-11.49288	8.17879	6.35445	-9.67105
1644.53125	0.99795	6.96979	8.77134	-4.83649
1648.43750	5.02711	10.59591	7.56192	-5.64298
1652.34375	-11.49321	10.59566	5.94962	-6.04662
1656.25000	-13.50800	6.16324	4.33731	-1.61507
1660.15625	-6.25531	5.35714	1.91910	-0.80995
1664.06250	3.01209	8.98339	2.32146	-9.27221
1667.96875	3.81792	13.41545	4.33547	-16.12271
1671.87500	-0.21148	13.41525	4.73773	-12.90004
1675.78125	0.99717	11.40048	2.72244	-10.08017
1679.68750	4.22046	13.01205	4.33355	-9.27501
1683.59375	10.26436	10.59431	7.55632	-4.03760
1687.50000	15.09945	0.92388	5.94401	-4.03826
1691.40625	-2.22661	5.75887	5.54043	-5.24769
1695.31250	-6.65893	13.41441	5.53981	-0.41317
1699.21875	3.01130	10.99664	4.73337	-2.42851
1703.12500	-1.01809	13.41409	7.15036	-3.63798
1707.03125	-2.22698	14.21976	6.74678	-1.22116
1710.93750	2.20507	13.81665	5.53736	-4.04241
1714.84375	-0.21268	13.41357	3.52209	-8.87827
1718.75000	4.62235	8.98113	1.50682	-4.84966
1722.65625	10.26328	8.17515	3.92379	0.38771
1726.56250	5.02502	6.96622	1.90850	1.19280
1730.46875	3.41315	4.54847	0.29611	6.43015
1734.37500	7.44232	8.57760	3.11606	5.62358
1738.28125	17.51542	12.20383	2.71250	4.41406
1742.18750	15.50057	12.20367	0.69723	2.80155
1746.09375	7.03881	12.60648	5.12883	2.39791
1750.00000	6.63559	10.59173	6.73989	-0.02046
1753.90625	-6.25839	6.96524	6.73928	-4.85636
1757.81250	-12.70542	7.77093	7.14163	1.18687
1761.71875	-7.46745	4.14444	3.51462	3.60377
1765.62500	-10.28811	2.12963	3.91696	-2.03796
1769.53125	-4.24433	8.57628	3.11050	-0.42695
1773.43750	6.23162	10.99371	1.49815	6.82509
1777.34375	-4.64773	8.97891	2.30346	7.63032
1781.25000	-6.25953	6.15830	0.69110	1.58568
1785.15625	0.59016	8.97867	1.49633	-2.84723
1789.06250	8.64864	13.81365	1.89864	-1.63907
1792.96875	18.72178	12.20178	-0.11661	-4.86318
1796.87500	10.26010	10.18694	-0.11721	-6.47561
1800.78125	-2.23085	8.17218	1.49384	-5.26748
1804.68750	-1.42519	2.12816	1.49321	-4.46225
1808.59375	-15.12512	5.35139	0.28378	-8.08921
1812.50000	-27.21321	6.96294	2.29786	-13.32793
1816.40625	-22.78102	3.73931	2.29724	-12.52270
1820.31250	-21.97529	2.93329	0.28192	-6.07643
1824.21875	-16.33438	4.14196	-0.52452	-2.85360
1828.12500	1.39440	2.93303	1.08666	-5.67475
1832.03125	-3.44099	-0.29055	-0.52569	-5.27255
1835.93750	-13.91750	0.91809	1.48837	-1.24394
1839.84375	-0.62090	4.94722	6.72584	2.38183
1843.75000	0.58776	9.78220	2.29302	-2.45394
1847.65625	-13.11215	8.97618	-0.52814	-6.08082
1851.56250	-19.55911	6.15554	1.48590	-4.46969
1855.46875	-19.55923	4.14078	2.29119	-4.47026
1859.37500	-12.70953	0.11131	2.29058	-4.06785
1863.28125	-4.65107	0.51400	4.70749	-6.08308
1867.18750	3.40744	3.73730	6.72150	-5.27784
1871.09375	5.82495	5.34885	7.12388	-0.44330
1875.00000	-5.86016	4.54286	4.30278	-2.86146
1878.90625	-3.03962	-2.30705	-0.93592	-8.50311
1882.81250	-3.03953	-3.91894	-2.54827	-10.92123
1886.71875	-16.33623	4.54242	-2.95174	-11.72770
1890.62500	-5.45716	5.75106	-2.54944	-9.71360
1894.53125	5.42189	4.13918	1.07635	-5.68484
1898.43750	-4.65149	0.10971	5.50794	-1.25324
1902.34375	-1.42800	0.10959	5.91031	3.98425
1906.25000	15.49520	6.95925	3.08925	4.78947
1910.15625	6.63080	9.37668	3.89455	1.96839
1914.06250	-5.45713	7.36184	7.92326	6.80298
1917.96875	-1.02487	4.13818	8.72854	10.02584
1921.87500	-7.47166	3.73510	8.32508	8.81650
1925.78125	-2.63649	-1.90607	7.51858	5.59243
1929.68750	7.83971	0.51136	5.50333	3.98008
1933.59375	-7.47158	8.16693	3.48805	8.00882
1937.50000	-13.51536	6.95806	1.47279	5.99359
1941.40625	5.82543	7.36093	0.66634	0.75489
1945.31250	10.66067	8.97250	1.47157	6.39538
1949.21875	-0.21857	7.36064	3.08272	8.40944
1953.12500	-9.08311	4.53993	3.48502	3.97658
1957.03125	-9.48608	2.12228	5.49907	5.18480
1960.93750	-8.27724	1.71920	5.49848	8.40768
1964.84375	-3.03911	2.12199	4.28916	8.81008
1968.75000	7.03417	5.74819	2.67684	4.78014
1972.65625	6.63116	4.13638	3.07925	1.15321
1976.56250	-7.47167	2.92750	-0.14476	0.34679
1980.46875	-13.11304	11.38894	-1.75709	-2.07137
1984.37500	-12.30732	10.98586	0.25696	-0.05728
1988.28125	-3.44292	7.35942	1.46520	-0.46075
1992.18750	-0.21953	5.34462	2.27053	-0.05837
1996.09375	-7.06952	4.13577	2.26993	6.38790
2000.00000	-5.05502	4.53856	1.46343	8.80492
2003.90625	5.01809	2.92680	3.47749	8.40141
2007.81250	3.80915	4.53840	7.50621	7.59498
2011.71875	2.19728	4.13539	5.49098	-2.07597
2015.62500	11.46445	-1.90874	2.66991	-6.50888
2019.53125	-5.45887	0.50875	3.47519	-4.49486
2023.43750	-13.92062	2.92627	-0.15172	-2.48077
2027.34375	-8.68283	5.74668	-3.77869	-0.06373
2031.25000	-9.08604	9.77586	-1.76460	-4.89945
2035.15625	-1.83349	10.98456	0.24951	-6.91463
2039.06250	-4.25127	8.56685	2.66654	-5.30351
2042.96875	-10.29544	6.95504	3.47181	-7.72177
2046.87500	-6.26645	6.95494	1.45661	-8.12528
2050.78125	5.01516	4.94020	0.65022	-7.32008
2054.68750	13.87909	4.94010	1.45550	-7.72369
2058.59375	-3.04427	6.95459	0.64910	-2.48624
2062.50000	-19.56466	6.95448	-3.38074	-2.08390
2066.40625	-13.92395	7.76023	-4.99296	-6.51677
2070.31250	-15.93885	3.73086	-2.57596	-1.68217
2074.21875	-15.53615	6.14843	-3.38238	4.76409
2078.12500	-16.74512	12.19234	-2.97999	3.15185
2082.03125	-26.81843	9.77471	-1.36883	-0.47513
2085.93750	-37.29483	10.17760	-1.77231	-1.28156
2089.84375	-48.57712	9.37169	-4.19036	-8.53484
2093.75000	-42.53349	9.77454	-7.81727	-14.17640
2097.65625	-63.48625	11.78912	-5.40018	-6.92422
2101.56250	-85.24483	7.75973	-3.38606	-8.93944
2105.46875	-77.99239	3.32748	-4.59541	-16.19278
2109.37500	-68.32237	6.95387	-1.37252	-12.56708
2113.28125	-65.50220	7.75963	-0.56723	-9.74723
2117.18750	-57.84685	4.93907	-2.17948	-7.73327
2121.09375	-30.85079	0.10389	-0.56835	-2.49589
2125.00000	-36.08911	0.10387	3.05750	2.74157
2128.90625	-48.98320	9.37124	-0.16649	2.74093
2132.81250	-38.50740	8.56529	-4.59928	-1.28897
2136.71875	-36.09023	7.35649	-0.57049	-0.48375
2140.62500	-32.46429	4.93882	3.05539	-2.90193
2144.53125	-38.91158	-0.29932	-1.78039	-10.15528
2148.43750	-20.37717	2.52114	-2.98965	-13.78227
2152.34375	-13.52769	4.53575	-1.37849	-9.35063
2156.25000	-51.00058	3.32694	-1.78201	-1.29267
2160.15625	-55.43324	-1.91111	3.05263	-5.32264
2164.06250	-41.33099	-3.92571	2.64912	-7.74090
2167.96875	-36.09315	-0.70227	1.43976	-3.71216
2171.87500	-27.63196	-4.32863	1.43919	-8.95090
2175.78125	-18.36507	-3.92575	2.24456	-9.35453
2179.68750	-11.11287	-1.10516	3.45279	-8.14637
2183.59375	-6.68113	-0.29931	-0.57702	-10.96751
2187.50000	-13.53147	1.31236	-0.98043	-4.92423
2191.40625	-9.09970	0.90950	1.03368	3.53667
2195.31250	5.00235	4.13297	-0.17565	2.73011
2199.21875	-0.63917	4.93880	-0.98201	3.53538
2203.12500	-5.07174	1.71540	-1.38548	2.32595
2207.03125	1.77761	2.92424	-0.17720	0.31069
2210.93750	3.38892	0.50662	-2.19236	1.51892
2214.84375	13.05883	-8.76078	-5.81928	2.32417
2218.75000	13.46136	-4.73145	-4.20802	1.51769
2222.65625	8.62575	5.74480	-0.98507	1.91998
2226.56250	11.04305	4.93899	1.43196	1.51646
2230.46875	4.59581	1.71555	1.83439	2.32165
2234.37500	-2.25433	-1.10491	0.62504	5.14150
2238.28125	7.41563	-5.13414	1.83327	-1.30602
2242.18750	4.19179	-7.55170	0.62393	-0.90372
2246.09375	-4.27010	-4.32823	-1.39127	1.51323
2250.00000	-7.09099	-4.32815	1.83160	-1.30800
2253.90625	1.37007	-8.35738	2.63688	3.52649
2257.81250	18.29286	-6.34267	3.03929	5.13752
2261.71875	13.45751	-2.31333	3.84461	-4.53342
2265.62500	11.03966	-3.52212	1.02361	-12.59256
2269.53125	10.63647	-3.92504	-2.20033	-8.96675
2273.43750	2.17469	-4.32788	-1.79792	-15.81724
2277.34375	-9.51059	-9.16305	1.02213	-21.05597
2281.25000	-2.66120	-3.11896	3.43915	-11.78917
2285.15625	4.99409	3.32797	2.63280	-12.19268
2289.06250	-1.45321	4.53679	0.21470	-15.01385
2292.96875	-11.52677	4.53683	2.22893	-17.02907
2296.87500	-14.75053	0.10474	3.84016	-20.65596
2300.78125	-4.27474	-2.71574	1.42207	-21.46237
2304.68750	-8.70748	-1.90983	0.61575	-23.07470
2308.59375	-15.96063	0.10496	3.43580	-13.80789
2312.50000	-7.90237	-0.70087	5.85293	-7.76455
2316.40625	-7.49984	-1.50665	4.24073	-13.00326
2320.31250	-9.11192	-0.29778	4.24023	-9.78042
2324.21875	-15.55907	-1.50649	4.64260	-6.96045
2328.12500	-13.94765	-1.10344	1.82159	-13.00503
2332.03125	-13.54505	-2.71508	0.61231	-23.48176
2335.93750	-11.12786	-3.11792	1.41773	-25.49695
2339.84375	-0.24905	1.31430	1.41729	-25.09462
2343.75000	-4.27872	2.52320	-0.19489	-27.91570
2347.65625	-3.87615	2.92625	-1.40420	-25.90160
2351.56250	-11.53222	2.52338	0.60993	-14.62013
2355.46875	-12.74140	-1.10285	3.83287	-12.20313
2359.37500	-3.47425	-2.71449	5.04119	-15.83012
2363.28125	-1.05684	4.13547	4.63778	-2.53397
2367.18750	4.98673	1.71796	5.04026	-1.32571
2371.09375	3.37447	1.71805	3.02514	-6.16143
2375.00000	2.97100	7.35920	-0.19876	-2.13268
2378.90625	2.56768	7.35926	1.00958	-1.73026
2382.81250	-0.65617	6.15051	4.23253	-3.74548
2386.71875	8.20790	3.33005	4.23204	-4.14903
2390.62500	13.84855	0.10673	3.82864	-0.12033
2394.53125	0.55149	0.91263	6.24581	-0.52390
2398.43750	-10.32797	5.34490	3.42478	-2.53915
2402.34375	-11.53707	3.73331	3.02139	-1.33090
2406.25000	3.37101	3.73339	4.63261	-3.34611
2410.15625	13.84672	5.34516	3.42337	-4.55546
2414.06250	-4.28558	4.13649	2.61707	-2.94427
2417.96875	-2.27138	3.33068	5.84003	1.48743
2421.87500	6.99568	3.33081	8.25715	2.29274
2425.78125	5.78660	2.52510	6.64493	-1.73711
2429.68750	10.21847	5.34577	6.24157	1.08283
2433.59375	11.42690	4.94305	6.24109	7.52912
2437.50000	7.80012	4.94314	4.62885	6.72259
2441.40625	7.79960	1.31682	5.83718	5.91615
2445.31250	7.39620	-3.51819	4.62792	12.76539
2449.21875	7.39573	4.13764	1.00110	11.95887
2453.12500	10.61882	9.37586	1.80645	1.07917
2457.03125	8.20094	5.34664	4.22355	0.67561
2460.93750	4.57419	2.52627	6.64060	3.09263
2464.84375	9.00609	4.94399	5.83429	-2.54901
2468.75000	13.84086	8.16758	3.41621	-1.34084
2472.65625	14.24342	8.16772	1.40106	1.47908
2476.56250	16.66052	6.95909	3.01234	-0.53621
2480.46875	10.61593	4.54166	7.04115	-4.56609
2484.37500	3.76554	0.51248	7.44357	-6.98419
2488.28125	-1.87585	-1.09910	5.42847	-2.95542
2492.18750	-3.89091	2.52735	6.63683	-1.74716
2496.09375	-4.29426	2.12457	7.84520	0.66984
2500.00000	-2.68300	2.93057	6.63595	1.87808
2503.90625	9.00154	6.96003	3.00915	2.28050
2507.81250	15.04500	6.55724	3.00870	2.68284
2511.71875	-1.87861	4.13987	5.02289	3.89105
2515.62500	-16.38464	2.93126	2.60483	2.68164
2519.53125	-10.74403	0.91680	1.79851	0.66643
2523.43750	-7.92391	-0.29185	0.99221	3.88935
2527.34375	-7.92435	3.73762	0.99177	5.90347
2531.25000	-7.92484	3.33486	4.61768	4.29130
2535.15625	-3.09011	-0.29131	3.81144	-0.14147
2539.06250	13.02662	0.11181	3.40808	1.06680
2542.96875	11.01141	1.72366	5.42232	5.09554
2546.87500	-5.50929	1.72384	5.42190	2.27447
2550.78125	-6.31575	4.54448	5.01861	-1.75538
2554.68750	-6.31644	4.54459	5.01821	-4.97938
2558.59375	-9.13752	2.53009	6.62948	-6.99459
2562.50000	-8.33220	2.93324	4.21149	-0.54833
2566.40625	-4.70638	2.93346	1.79343	1.06281
2570.31250	-3.90110	3.33657	1.79302	-0.95250
2574.21875	1.73922	4.54559	0.58384	-4.57953
2578.12500	16.64715	1.72530	-1.43122	-6.99766
2582.03125	5.36457	-1.09504	-1.02873	-8.60999
2585.93750	-17.60308	0.51685	1.79131	-9.41638
2589.84375	-13.57437	4.54635	2.19384	-5.79054
2593.75000	-9.94864	-0.69156	2.99924	-9.01452
2597.65625	-9.94921	1.72627	4.20759	-7.40332
2601.56250	7.37640	10.59093	0.58076	-2.97163
2605.46875	7.77876	10.99412	-0.22553	-5.79269
2609.37500	-1.08633	8.17387	-0.22599	-8.21085
2613.28125	6.16599	4.14484	-4.65865	-10.22603
2617.18750	-1.08714	6.15978	-9.09131	-13.45000
2621.09375	-5.51991	5.35414	-4.65950	-15.86808
2625.00000	-6.32627	1.72808	0.57817	-10.63048
2628.90625	-8.34144	1.32542	-1.83986	-14.66035
2632.81250	-5.11840	2.13155	-1.43734	-19.09320
2636.71875	-5.11883	-0.68882	-1.03481	-17.07914
2640.62500	-8.74577	1.72901	-6.27334	-12.64745
2644.53125	-2.29932	8.17613	-7.48254	-10.63334
2648.43750	0.52072	7.77341	-1.03606	-6.20160
2652.34375	-6.73254	4.55021	2.18695	-3.78454
2656.25000	2.53427	4.14760	-0.63402	-6.20269
2660.15625	0.92201	7.37131	-3.05198	-0.96510
2664.06250	-3.10780	6.16275	-1.44071	-1.77145
2667.96875	14.62065	6.96885	1.78233	-1.77197
2671.87500	10.18796	8.17789	0.97611	0.24214
2675.78125	-1.90045	8.17815	-3.45653	-0.56429
2679.68750	-2.70682	9.38727	-3.05398	-0.56480
2683.59375	1.72497	2.94064	-3.45733	1.85229
2687.50000	-2.70779	4.55258	-6.27824	-4.99803
2691.40625	-3.91697	12.20853	-4.66695	-3.78974
2695.31250	13.00557	11.40292	-2.24974	1.04489
2699.21875	8.16994	6.97088	-1.44429	-7.01420
2703.12500	5.75188	3.34472	1.37582	-6.61181
2707.03125	17.83933	8.58310	2.18135	-9.83579
2710.93750	3.33338	10.59799	0.16624	-8.22453
2714.84375	-0.29340	6.16606	-0.64001	-1.37520
2718.75000	11.79410	5.76332	0.56839	0.23602
2722.65625	11.39075	6.97231	0.56797	0.63840
2726.56250	0.51109	3.34610	0.97052	-0.97385
2730.46875	4.94284	0.52583	-0.23867	3.05485
2734.37500	22.67133	2.94369	-1.44787	0.23374
2738.28125	15.01509	7.77909	2.17813	1.03902
2742.18750	2.12080	8.98817	4.99824	11.91754
2746.09375	12.99946	11.40601	0.16266	2.64956
2750.00000	9.77557	10.19745	2.98282	-0.57445
2753.90625	2.52234	7.37721	7.01171	1.84259
2757.81250	15.41565	6.97452	1.77325	1.84206
2761.71875	7.75937	7.37774	0.96704	0.63270
2765.62500	-9.97019	8.18383	3.78716	-4.20309
2769.53125	-1.10631	6.16945	2.17508	-3.80074
2773.43750	12.99567	1.73746	-3.06340	-2.59257
2777.34375	22.26252	0.52889	-5.07843	4.65962
2781.25000	9.77114	8.18483	-0.64662	-0.57904
2785.15625	3.72658	11.00560	3.78524	-8.23526
2789.06250	4.53173	8.18539	1.36724	-1.78893
2792.96875	0.09890	7.37982	-1.45364	-0.98359
2796.87500	-2.72223	4.96245	-1.85696	-4.20755
2800.78125	-4.33453	4.55974	-1.45437	-8.23738
2804.68750	-6.34976	4.56004	-2.26059	-8.23789
2808.59375	-2.32103	1.33688	0.15659	-3.80615
2812.50000	4.93106	0.93425	0.55920	-3.00080
2816.40625	11.78019	4.96382	-3.87337	-5.01593
2820.31250	0.90046	7.78458	-1.45610	-6.62816
2824.21875	-16.42611	4.15848	1.36405	-7.03156
2828.12500	-14.81495	-0.67648	-2.26266	-5.42041
2832.03125	-6.75697	4.96486	-0.24837	1.42894
2835.93750	0.09225	6.97982	4.58639	1.83132
2839.84375	2.91217	2.95082	0.15373	-6.22782
2843.75000	0.09114	0.93648	-2.26421	-7.84016
2847.65625	-5.14750	-1.07784	1.76467	-1.39384
2851.56250	-0.71582	0.93711	3.37597	-1.79732
2855.46875	-5.14850	1.34029	3.77854	-1.79790
2859.37500	-12.40172	2.14652	3.37524	2.23087
2863.28125	6.53547	2.14687	1.76317	4.64789
2867.18750	18.62281	-0.27039	1.35982	9.88547
2871.09375	3.31083	4.56506	2.16536	12.30255
2875.00000	6.13085	8.99758	2.56791	6.66097
2878.90625	14.59187	6.58028	0.14996	11.89859
2882.81250	14.99413	6.17769	-3.87966	16.73330
2886.71875	19.42578	7.78969	-2.67119	8.67421
2890.62500	17.00773	4.56655	-1.86567	9.47954
2894.53125	6.12816	5.77567	-1.86600	11.49360
2898.43750	5.72458	9.80531	-5.49270	4.64317
2902.34375	8.54453	9.80567	-5.89600	7.46320
2906.25000	7.33537	9.00020	-0.25531	5.85093
2910.15625	10.55838	8.59761	0.14720	3.43287
2914.06250	19.82521	5.37450	0.14679	10.28213
2917.96875	10.15425	0.94268	2.16110	2.62593
2921.87500	0.08034	6.18112	2.96657	-2.20973
2925.78125	-2.33791	7.39023	0.54862	4.63949
2929.68750	-5.56194	5.77879	2.96588	1.81848
2933.59375	-3.14494	9.00256	3.77137	-3.01724
2937.50000	3.30131	6.98824	0.14462	5.04073
2941.40625	8.13581	6.58559	1.75604	3.83137
2945.31250	2.49418	7.79474	3.77035	0.20448
2949.21875	2.09059	6.58630	0.14361	1.41279
2953.12500	4.91042	1.75152	-0.66255	-2.61704
2957.03125	1.28342	-4.69501	2.15770	-1.81166
2960.93750	-0.73187	-0.66533	0.14268	1.81414
2964.84375	-1.53842	7.39371	-5.09571	-3.42454
2968.75000	4.50480	4.17062	-5.90195	-7.85740
2972.65625	6.92179	4.97682	-6.30516	-2.61986
2976.56250	12.56231	9.81227	-7.11135	8.25873
2980.46875	23.03788	7.39507	-5.90282	10.67575
2984.37500	30.29005	7.39546	-6.30601	14.70445
2988.28125	25.05129	8.60457	-6.70927	11.88333
2992.18750	6.91874	7.39617	-5.50078	4.22714
2996.09375	6.51512	2.15844	-5.09814	3.01774
