 	TP9	AF7	AF8	TP10	
-1000.00000	50.16803	-4.75053	-1.49487	49.10969
-996.09375	49.76501	-3.31893	0.31607	46.02805
-992.18750	48.95901	1.02249	1.67281	48.54741
-988.28125	50.97362	1.79859	-0.57300	50.08581
-984.37500	48.95882	6.29295	1.40926	48.84844
-980.46875	42.91476	5.16438	2.55564	48.08791
-976.56250	45.73520	2.08148	-0.14324	53.12212
-972.65625	52.18198	4.51355	-1.61083	59.13182
-968.75000	51.77900	2.21942	-1.76703	55.95768
-964.84375	48.15248	1.60510	2.28419	48.08919
-960.93750	44.52597	5.37712	5.40688	46.67904
-957.03125	44.12287	2.20884	7.06000	49.71656
-953.12500	43.71981	-0.85158	10.41190	48.73233
-949.21875	42.51083	1.47198	6.29614	48.13213
-945.31250	41.30182	6.20366	1.14255	43.73648
-941.40625	38.88403	5.56201	1.41731	42.87233
-937.50000	36.06337	-0.52202	4.19813	40.24728
-933.59375	32.83975	2.65015	4.70233	34.67315
-929.68750	35.66008	6.80783	3.87273	35.46852
-925.78125	34.45117	5.99114	2.41506	34.57991
-921.87500	28.81009	5.32098	1.86798	30.62801
-917.96875	23.97482	5.16902	1.74807	29.15100
-914.06250	18.33366	4.13361	1.40834	31.05601
-910.15625	17.93063	-0.30999	3.85681	28.43828
-906.25000	19.54229	-2.65427	2.47398	23.43766
-902.34375	14.30409	-0.98188	-0.49487	20.42559
-898.43750	10.27467	-2.47735	-0.28954	15.22364
-894.53125	11.88624	-4.06290	-0.27458	12.49607
-890.62500	13.49785	-0.94667	-3.01902	15.35151
-886.71875	16.72117	0.41796	-1.50275	15.94771
-882.81250	14.70628	3.17908	1.17720	15.08845
-878.90625	14.30323	7.16118	0.10037	16.60220
-875.00000	14.70601	5.85701	-1.15072	17.67541
-871.09375	13.90006	3.28226	0.57186	17.15617
-867.18750	12.28824	3.92890	0.96012	15.73305
-863.28125	11.48226	4.91599	0.43622	14.61887
-859.37500	11.48211	4.26849	0.90359	14.75690
-855.46875	11.48198	5.68276	-0.00958	15.97261
-851.56250	14.30234	7.53733	2.54254	15.71629
-847.65625	11.07875	2.64301	6.23526	13.11906
-843.75000	3.82591	4.63780	-1.10760	7.73601
-839.84375	3.42285	1.33717	-0.29749	4.85740
-835.93750	1.81103	-1.76976	-4.50559	2.55412
-832.03125	2.21387	4.56126	-5.16486	0.95456
-828.12500	5.84007	4.62086	-0.18384	2.86305
-824.21875	7.45162	3.55952	-3.05287	4.11084
-820.31250	7.85446	4.81647	-5.51778	3.42881
-816.40625	8.25730	5.65597	-2.54940	3.61312
-812.50000	7.45128	1.19807	5.25306	3.08769
-808.59375	5.83943	0.99847	5.47539	-0.13119
-804.68750	4.22761	6.92488	1.04604	-0.68868
-800.78125	7.45087	5.44210	4.18039	2.41747
-796.87500	8.25659	5.39213	4.24876	2.63294
-792.96875	0.19780	7.91855	1.56326	2.36972
-789.06250	0.60060	3.86379	1.85719	2.51977
-785.15625	1.80926	3.05474	1.51710	2.60406
-781.25000	1.80914	-0.40841	-0.21492	2.63362
-777.34375	8.65882	-0.95253	-1.43636	6.46713
-773.43750	6.64404	3.76424	2.70458	5.24543
-769.53125	-1.01172	2.73959	2.66076	-3.69482
-765.62500	0.59994	3.23629	0.37336	-4.54742
-761.71875	3.01752	2.98383	-1.37854	-3.97733
-757.81250	-1.01176	2.73704	-3.08360	-9.45893
-753.90625	-3.02632	3.23471	-7.43878	-8.43253
-750.00000	-3.83215	1.25054	-8.63389	-8.30314
-746.09375	-6.24965	0.22179	-5.20698	-12.87708
-742.18750	-6.65252	2.32726	-3.34062	-11.36711
-738.28125	-5.84656	0.74532	-1.49806	-10.48776
-734.37500	-6.24942	1.89191	-3.48048	-10.86199
-730.46875	-5.04062	4.22922	-6.23888	-8.48975
-726.56250	-2.22001	2.87984	-3.13731	-8.28571
-722.65625	1.00361	2.86536	0.74752	-6.63958
-718.75000	2.61551	2.33892	-1.51420	-3.46518
-714.84375	1.80987	2.55026	-0.32759	-0.02865
-710.93750	2.61597	3.61343	2.19057	1.38177
-707.03125	5.83970	4.76704	4.16353	1.16510
-703.12500	7.45172	7.02163	3.63189	0.53791
-699.21875	5.84031	3.08632	1.30060	0.73554
-695.31250	3.82599	1.98114	0.81286	0.69929
-691.40625	4.22925	1.81688	-0.26791	1.96665
-687.50000	1.81195	0.64819	-2.64602	0.96562
-683.59375	-2.62006	0.29652	-0.32995	-2.72752
-679.68750	-1.81404	-1.04067	1.30532	-1.10521
-675.78125	-1.41092	-0.62685	1.55397	-1.02241
-671.87500	-0.20199	-1.97149	3.71251	1.31792
-667.96875	1.00689	-5.44598	3.02634	2.79505
-664.06250	-0.60485	-3.60475	0.94827	1.29299
-660.15625	-2.21655	-5.20526	2.12600	-0.52147
-656.25000	-3.02240	-6.48742	2.70272	-0.75892
-652.34375	-2.61956	-4.93643	4.46252	1.44726
-648.43750	-2.21670	-6.26153	1.83934	3.42563
-644.53125	-2.21676	-7.09368	-0.19056	3.73557
-640.62500	0.60370	-6.58362	2.15073	4.90937
-636.71875	2.61830	-3.11313	4.26050	5.52189
-632.81250	1.00654	0.97545	1.98319	1.54588
-628.90625	2.21530	1.42551	0.23919	2.04670
-625.00000	7.05039	2.32662	0.68414	8.22608
-621.09375	7.85622	2.88662	-1.03873	8.74528
-617.18750	7.45321	0.62817	-1.02432	2.91573
-613.28125	7.45314	2.46147	-1.70953	2.41813
-609.37500	5.84139	2.30296	-2.98302	3.08590
-605.46875	3.42373	0.48558	-2.47312	1.06427
-601.56250	3.42363	1.04849	-1.80205	2.93225
-597.65625	3.82646	5.13680	-1.46570	3.51475
-593.75000	4.63218	4.75367	1.04169	2.85374
-589.84375	6.24382	-1.61612	4.66353	4.52347
-585.93750	5.03491	-3.74738	2.82736	6.42374
-582.03125	4.22891	-3.63162	0.26289	5.60563
-578.12500	1.40821	-2.07973	0.92252	3.69709
-574.21875	0.60220	-0.61554	2.58243	3.25499
-570.31250	5.84014	-1.87267	2.62941	5.95164
-566.40625	5.03414	-0.69762	0.86954	6.17015
-562.50000	1.00471	1.34251	-0.88925	1.86034
-558.59375	0.60160	-3.29318	-1.11187	-4.59123
-554.68750	0.19849	-3.17581	-1.11506	-5.64546
-550.78125	-1.41334	5.15664	-1.42916	-2.70769
-546.87500	-1.81640	6.41529	-1.09490	-4.93790
-542.96875	2.21286	4.69459	3.20202	0.96630
-539.06250	2.61569	3.10818	0.08732	4.44263
-535.15625	1.80975	0.69369	-6.82565	1.94065
-531.25000	5.83893	-2.29022	-1.87052	1.91105
-527.34375	5.03297	-2.14916	3.37994	-0.31083
-523.43750	2.21239	1.99848	0.44760	-2.31262
-519.53125	3.01814	1.41126	-1.52355	-1.43110
-515.62500	0.19749	-0.69725	-2.86274	-2.99611
-511.71875	-3.02600	1.16685	-3.93163	-2.35744
-507.81250	-5.04076	0.60764	-4.24141	-0.90514
-503.90625	-5.84677	-0.29306	-2.70702	0.48614
-500.00000	-5.84690	-4.75591	0.90544	0.35689
-496.09375	-6.65288	-3.32435	1.50764	-3.12761
-492.18750	-8.66770	1.41998	2.86440	-5.04039
-488.28125	-7.86195	0.98722	2.23037	-5.51663
-484.37500	-6.25031	-0.15949	-0.62258	-5.54518
-480.46875	-6.25043	-0.48219	-3.50550	-7.51450
-476.56250	-5.04177	0.86707	-3.78677	-9.73304
-472.65625	-5.44485	0.47863	-0.01631	-7.75262
-468.75000	-3.02741	-0.20377	1.43924	-2.86822
-464.84375	-1.01295	2.40535	-0.55348	-0.66348
-460.93750	-1.01313	0.53629	0.55452	1.95566
-457.03125	-1.41626	-0.21436	3.01352	3.38149
-453.12500	-1.81938	3.17199	3.54491	2.39735
-449.21875	-2.62536	0.66038	5.47300	-1.42631
-445.31250	-3.43133	0.95977	4.75167	-4.61304
-441.40625	-3.83434	-0.48774	4.22051	-1.85072
-437.50000	-1.81984	-1.33377	3.77787	-0.44654
-433.59375	0.59753	-1.78803	2.67037	2.44085
-429.68750	1.00017	-2.06267	1.84075	3.63907
-425.78125	-1.41778	1.55272	1.99475	0.73564
-421.87500	-0.20935	0.88248	3.05928	2.82744
-417.96875	0.99906	0.32745	2.13348	0.94722
-414.06250	0.19272	4.53005	3.40544	-0.77438
-410.15625	0.19225	2.10100	1.01870	0.63695
-406.25000	-1.01699	0.15946	-1.97591	-0.73759
-402.34375	-3.03212	2.63759	1.50218	-0.52651
-398.43750	-3.43556	3.15660	1.70745	1.12110
-394.53125	1.39914	2.37688	-1.09812	5.64600
-390.62500	3.41337	-2.96851	-2.23088	6.08354
-386.71875	0.99548	-1.60395	-1.52047	1.44141
-382.81250	2.20395	1.15714	0.75655	0.98487
-378.90625	3.81527	-3.72532	0.48558	-1.53086
-375.00000	-0.61731	-3.41780	0.84627	-5.29298
-371.09375	-3.43809	-1.15740	0.15126	-4.60363
-367.18750	-1.02074	-0.10788	-1.47518	-3.20651
-363.28125	-2.63273	-0.73254	-3.20790	-4.32085
-359.37500	-2.63299	-0.17112	-4.35229	-2.16834
-355.46875	3.81366	2.85486	-0.83325	5.09110
-351.56250	3.00758	0.27720	2.12182	7.25226
-347.65625	-5.05121	-2.60246	0.57635	2.64026
-343.75000	-9.08075	-2.21939	1.69508	-0.32527
-339.84375	-5.45454	-5.11712	6.13150	4.85462
-335.93750	-3.84303	-4.59773	6.75857	3.76002
-332.03125	-6.66370	0.12160	1.66706	-3.07769
-328.12500	-7.87267	-1.43048	1.81293	-7.61618
-324.21875	-7.46990	1.53750	0.95855	-7.17436
-320.31250	-7.06715	4.00322	-2.71518	-4.63309
-316.40625	-7.06729	2.82802	-2.16439	-6.06069
-312.50000	-6.26150	1.19069	-0.00306	-3.36307
-308.59375	-4.64992	-1.02354	-0.98955	1.07337
-304.68750	-3.84423	0.06772	-3.40432	2.53006
-300.78125	2.60257	3.01717	0.13285	5.63578
-296.87500	6.22892	4.17602	1.81288	9.88037
-292.96875	3.40828	3.07603	0.73910	12.84062
-289.06250	3.00532	1.43890	-0.17579	11.37918
-285.15625	3.40822	3.04752	1.49875	7.83733
-281.25000	4.21416	2.40491	-1.03915	8.27011
-277.34375	4.21420	-3.78016	-2.66357	5.25402
-273.43750	1.39368	0.53368	-1.34313	1.61486
-269.53125	0.58785	3.53842	-0.17808	4.35971
-265.62500	6.22889	3.22926	1.16090	9.14813
-261.71875	11.06399	2.57387	1.02074	8.50931
-257.81250	11.06393	2.32711	2.13616	7.05697
-253.90625	9.04917	1.61603	3.82494	7.68019
-250.00000	7.84026	-1.57687	3.83858	9.42098
-246.09375	4.61666	-0.99394	3.63908	8.47305
-242.18750	-1.83039	1.11149	-2.95608	3.93872
-238.28125	-3.03927	-4.09689	-6.35157	1.19128
-234.37500	-3.03942	-3.35321	-3.09602	-1.19797
-230.46875	-4.24837	3.41634	-2.22807	-2.45237
-226.56250	-0.62221	0.85811	0.87345	1.37757
-222.65625	1.39225	0.84358	1.93776	4.63497
-218.75000	3.00382	3.94353	-0.32394	4.58546
-214.84375	2.60070	4.96068	-0.34618	3.58915
-210.93750	3.80927	5.21791	1.76890	2.98434
-207.03125	9.45008	6.37150	1.32419	4.78161
-203.12500	8.24106	3.79082	1.19539	2.94508
-199.21875	4.61443	0.66131	0.87864	0.32151
-195.31250	6.62882	3.18237	1.19671	0.68758
-191.40625	5.82268	6.24151	3.74221	1.55134
-187.50000	2.59899	5.47571	4.99037	1.35565
-183.59375	3.00167	3.51222	4.48582	0.88546
-179.68750	0.18090	1.36913	4.10627	-0.31317
-175.78125	-5.46029	1.37995	3.54900	-0.23076
-171.87500	-2.64001	-0.77055	6.91634	2.10920
-167.96875	-1.02847	0.18717	9.45359	0.76546
-164.06250	-0.22282	3.64006	4.95784	1.68072
-160.15625	3.80626	5.26299	3.71792	2.68649
-156.25000	6.62654	4.38375	5.90633	5.26921
-152.34375	3.40292	4.32302	2.83091	5.46051
-148.43750	3.40275	6.22138	0.61060	2.60359
-144.53125	5.82017	8.20973	5.43050	5.33096
-140.62500	9.04345	7.51096	8.17470	7.71352
-136.71875	13.07253	6.54920	4.64340	9.13174
-132.81250	9.44599	9.42896	1.15727	8.37912
-128.90625	2.99894	3.83501	2.63675	2.83591
-125.00000	2.99878	7.95956	3.48460	2.16546
-121.09375	8.23672	8.92242	3.77637	7.51982
-117.18750	6.22189	6.66395	2.98495	6.52532
-113.28125	6.62460	8.90014	0.28510	5.62477
-109.37500	7.02738	4.30933	0.22037	5.88957
-105.46875	4.20672	5.71537	-1.28432	5.07671
-101.56250	4.20657	4.26356	1.40138	4.92989
-97.65625	1.38587	-0.91551	5.36408	1.88599
-93.75000	2.59452	3.13358	5.05087	2.43371
-89.84375	7.02664	4.01648	7.46390	4.10341
-85.93750	7.42944	2.28817	8.85118	3.98906
-82.03125	8.63812	3.20982	5.07788	3.97680
-78.12500	12.26439	3.95595	2.51409	6.50045
-74.21875	11.05545	2.59961	3.36819	7.26710
-70.31250	8.23484	0.93952	2.60934	5.12856
-66.40625	5.01126	0.90577	-1.56812	4.54105
-62.50000	0.17587	1.73707	-0.90929	7.08104
-58.59375	-1.43602	-0.48103	1.68861	1.83826
-54.68750	-1.83916	-1.16947	2.08840	-2.43951
-50.78125	-3.85405	1.92481	3.38599	1.30397
-46.87500	-3.04842	1.16880	4.52610	0.28243
-42.96875	-2.64575	-1.76063	3.18200	0.54554
-39.06250	-3.85479	-2.94417	0.87311	0.39529
-35.15625	-0.63161	0.28234	-0.80174	1.92258
-31.25000	-4.66115	-2.70157	-0.27876	2.69872
-27.34375	-6.67608	-5.38108	0.94240	0.87967
-23.43750	-0.22949	0.37819	0.42758	3.71288
-19.53125	1.38190	1.40267	2.08281	6.60899
-15.62500	0.97870	-2.31766	5.57874	7.46151
-11.71875	0.17250	-4.48293	5.31565	5.27958
-7.81250	-0.63366	-5.04216	2.58824	-0.11813
-3.90625	-2.24564	-1.10778	3.71969	-1.54746
0.00000	-1.84302	-0.33247	4.10866	0.74081
3.90625	-1.03742	-1.72143	2.69610	-1.93787
7.81250	-0.23186	1.00817	-0.37935	-4.25366
11.71875	0.57368	0.97832	-3.02808	-1.90946
15.62500	0.17055	0.23453	-2.65761	-2.34090
19.53125	2.18508	1.12053	0.10054	-5.51905
23.43750	2.99072	1.26100	0.62504	-5.72294
27.34375	1.37886	1.67836	-0.03672	-3.33957
31.25000	1.37871	-0.21290	1.82181	-2.48445
35.15625	-2.24789	-0.82722	1.44082	-2.69729
39.06250	-0.63644	0.12422	2.14593	-0.88404
42.96875	3.39259	-0.22355	2.59025	2.15347
46.87500	3.39226	6.38625	1.10703	5.19845
50.78125	4.60073	7.09808	0.21466	3.38936
54.68750	7.01803	2.96516	3.92560	5.03765
58.59375	7.01781	1.11468	4.60323	9.00864
62.50000	2.98827	0.26861	2.95191	6.38346
66.40625	3.39086	-1.79737	5.06785	6.04742
70.31250	5.00237	-5.29550	7.46173	7.64859
74.21875	1.77865	-4.90356	4.39234	6.75991
78.12500	0.97256	-4.76790	1.42770	6.83723
82.03125	2.58400	-4.91994	5.33708	6.56898
85.93750	4.59835	0.49149	2.57977	6.45933
89.84375	5.00106	0.48015	1.40183	5.85629
93.75000	0.97158	-2.67007	0.82489	2.06456
97.65625	0.97141	-0.99771	0.67654	0.26131
101.56250	1.77705	-2.89613	4.10535	-2.12005
105.46875	-1.44660	-2.46690	3.31447	-1.62413
109.37500	-2.25269	-2.97705	2.58465	-1.58927
113.28125	-2.25292	-2.82126	2.08639	-3.81352
117.18750	-2.65612	-2.07476	-0.47176	-3.06112
121.09375	-6.28272	1.10145	-3.16029	-7.59135
125.00000	-5.88003	1.40902	-1.18787	-8.12985
128.90625	-3.86558	-3.18033	1.34060	-5.42574
132.81250	-8.29796	-4.14548	-3.50925	-8.05778
136.71875	-7.49237	-3.56138	-5.24192	-8.36621
140.62500	-6.28376	-6.62639	-1.55104	-5.00482
144.53125	-5.88106	-6.82387	-2.06119	-3.38629
148.43750	-1.85197	-3.76054	-2.73249	0.78962
152.34375	2.17717	0.20961	0.15435	5.84805
156.25000	1.37100	3.01012	1.67609	5.70310
160.15625	2.57955	-1.90228	3.69494	6.45080
164.06250	10.23500	0.63171	-0.51313	9.78854
167.96875	9.83181	4.14215	0.43933	8.59184
171.87500	1.77301	-2.64814	7.43505	1.63578
175.78125	2.57864	1.12560	5.37195	5.30113
179.68750	7.81648	3.18838	3.71292	10.26005
183.59375	9.83088	-3.22497	2.65199	5.60923
187.50000	11.03946	1.18164	1.99291	7.50125
191.40625	10.63630	0.17621	1.40927	9.11743
195.31250	11.44202	-0.74721	1.00917	9.36571
199.21875	9.42715	-1.02124	3.33765	10.45715
203.12500	6.20354	-1.07122	-0.62337	9.46386
207.03125	2.17410	0.24635	-5.32352	7.58882
210.93750	-2.66127	-2.19671	-5.02959	3.70952
214.84375	-5.07897	-0.18528	-6.17554	1.77915
218.75000	-5.07910	1.58963	-1.86355	1.40573
222.65625	-3.06453	-3.78965	3.36195	-1.20767
226.56250	-0.24417	-1.08758	2.66769	-2.42943
230.46875	1.77032	3.12587	1.81802	1.92699
234.37500	0.56135	3.21960	0.73942	1.88018
238.28125	-0.24463	1.75833	0.19628	3.25594
242.18750	2.57576	-0.10016	-1.50887	7.04158
246.09375	3.78446	0.80038	-1.83472	4.44135
250.00000	2.17265	-1.18384	-3.43280	1.74995
253.90625	5.79884	-1.40678	-2.82644	4.42843
257.81250	8.61921	-2.92782	0.65166	5.13234
261.71875	6.20156	-3.70398	1.28550	6.01138
265.62500	6.20147	-2.55740	1.31759	8.86036
269.53125	5.79839	-2.63774	-1.03791	8.00894
273.43750	4.58947	-0.76373	-1.96576	0.55693
277.34375	2.97764	1.23635	-3.31896	-3.84122
281.25000	1.76872	-0.49899	-7.19237	-2.27889
285.15625	-0.24600	0.51811	-7.61753	-4.88671
289.06250	1.76851	-2.44817	-2.68184	-1.46203
292.96875	3.38005	-4.51814	-1.91767	2.35011
296.87500	3.37987	-1.86073	-4.06103	1.72239
300.78125	4.58848	-0.96107	-1.15425	4.74004
304.68750	2.57368	-1.66353	-0.03028	5.10614
308.59375	0.96185	-3.84257	0.09760	2.74661
312.50000	3.37924	-5.41431	0.94286	2.14806
316.40625	2.17038	-4.15437	-1.97929	0.87216
320.31250	-0.24737	-5.08870	-1.55297	-3.54976
324.21875	-1.05348	-4.27203	-1.30435	-8.30241
328.12500	-3.47130	-1.58738	-2.77217	-7.17123
332.03125	-3.47147	-3.45014	-7.08482	-4.48566
335.93750	-2.26285	-2.01188	-5.93948	-1.55574
339.84375	-1.05422	-0.79187	0.07333	-0.95286
343.75000	1.36320	0.34357	-0.15586	0.82415
347.65625	-0.65161	-2.13477	2.40978	3.43316
351.56250	-7.09866	-6.28038	2.20418	1.38216
355.46875	-11.53098	-2.27742	0.17421	0.08029
359.37500	-9.11357	-2.97622	-0.70798	-1.56639
363.28125	-8.30779	-1.52045	-3.03041	-6.99795
367.18750	-8.71095	0.15045	-2.89018	-7.75055
371.09375	-5.08472	-3.83172	-3.82831	-6.04094
375.00000	-2.26437	-0.91598	-3.78634	-5.90561
378.90625	1.76479	0.44979	-1.88280	-3.77480
382.81250	3.77930	1.01185	0.54917	-3.15764
386.71875	2.57034	-0.37823	-0.53894	-2.44653
390.62500	4.18191	-4.16317	-1.00661	-0.57001
394.53125	4.58466	1.27218	0.30916	-0.17413
398.43750	1.76402	3.44674	-0.22863	0.48493
402.34375	-0.65372	3.90870	-1.10109	1.87326
406.25000	0.95791	3.92842	-1.41423	2.42099
410.15625	-0.65397	-0.82969	-1.82175	-1.14742
414.06250	-3.07164	0.26246	-3.25494	-3.67939
417.96875	-1.86306	0.78117	0.22454	-3.28869
421.87500	-3.07194	-4.91967	1.69008	-2.77971
425.78125	-0.25161	-2.64963	-0.67929	-2.41592
429.68750	-2.26639	2.13719	0.17354	-4.55447
433.59375	-11.13099	-1.52293	-1.18339	-9.97703
437.50000	-10.32524	-2.70623	-1.73337	-12.27219
441.40625	-5.08729	-2.50680	-1.55310	-9.45633
445.31250	-3.07276	-3.59819	0.86134	-4.46664
449.21875	-2.67003	-4.53309	4.97952	-2.73775
453.12500	1.76205	-4.88620	2.09038	-1.74450
457.03125	4.58240	-2.17465	0.74625	0.13037
460.93750	4.58225	-3.35810	4.88432	-0.01971
464.84375	3.77627	-0.93743	4.41830	-0.10408
468.75000	2.97027	0.51086	3.32947	2.68679
472.65625	1.35836	-2.57155	3.74476	3.68843
476.56250	2.16411	-1.64739	1.61820	6.92467
480.46875	3.37270	-1.02585	0.85575	7.00036
484.37500	3.77555	0.89492	-0.88645	6.64418
488.28125	2.56667	0.34139	-1.55243	7.68593
492.18750	1.76071	-1.42662	-1.45934	5.51196
496.09375	-1.05990	-1.11857	-1.53666	1.66525
500.00000	-3.07462	-1.55206	-1.14767	-2.89616
503.90625	1.76041	-0.92637	-1.75435	-0.73955
507.81250	4.58082	1.80327	-2.81516	4.19752
511.71875	4.58071	1.77345	-3.44919	1.70672
515.62500	5.78938	1.83550	-3.07864	1.67825
519.53125	10.22150	3.52742	0.48539	5.35005
523.43750	8.60957	2.45912	3.42757	1.92272
527.34375	3.77426	1.66769	0.75119	-0.93203
531.25000	2.96817	-3.04404	-3.43433	-0.88281
535.15625	0.55019	-4.46423	-4.21837	-3.51350
539.06250	-1.86783	-3.10982	-0.69289	-4.92407
542.96875	-4.68872	-1.84592	0.15427	-5.51330
546.87500	-3.07734	0.33167	-0.12040	-4.48312
550.78125	-2.27191	-2.17996	0.19588	-5.88955
554.68750	-5.09282	-0.26887	-3.74900	-9.07680
558.59375	-6.30204	-0.91051	-3.07146	-9.13541
562.50000	-8.72002	-4.98003	-1.09660	-12.56671
566.40625	-8.72043	2.22143	-5.02477	-12.90305
570.31250	-8.72087	1.94680	-2.22806	-10.09333
574.21875	-10.33298	-2.09346	2.35814	-10.17637
578.12500	-11.54219	-2.36068	2.21391	-9.29335
582.03125	-4.28982	-2.51271	2.89979	-6.33842
585.93750	1.35080	-4.35407	2.15706	-2.82192
589.84375	-3.08174	-7.18595	2.59076	1.00695
593.75000	0.14126	-5.50105	2.41665	4.87055
597.65625	6.18488	-3.82869	0.65654	7.90211
601.56250	9.40803	-4.92131	0.05596	7.93803
605.46875	9.40776	-3.28341	0.87668	4.80730
609.37500	6.18400	1.04163	1.75852	3.63303
613.28125	6.18370	2.00328	2.46890	3.82605
617.18750	8.60100	0.73510	5.14882	6.59295
621.09375	7.39193	-1.32674	4.47486	6.89772
625.00000	4.57109	-1.42213	3.62678	5.95612
628.90625	6.98835	-3.19098	4.54345	11.07761
632.81250	8.59973	-4.55908	5.33459	13.28056
636.71875	6.98773	-2.36321	4.40779	11.76325
640.62500	16.65780	0.61571	4.47216	21.57144
644.53125	14.23991	1.62705	4.76774	18.75760
648.43750	9.00153	0.66111	2.48471	14.47178
652.34375	23.10380	1.00487	3.75981	28.79741
656.25000	29.55038	4.61128	4.47560	35.50214
660.15625	28.34126	2.92226	0.85345	34.23501
664.06250	37.60836	-2.19941	0.67468	42.00486
667.96875	43.65210	0.50514	1.62713	48.06086
671.87500	39.21961	0.96771	4.59350	41.91064
675.78125	46.47214	2.72680	4.14206	48.39650
679.68750	50.50121	4.78965	1.27425	54.16122
683.59375	46.87457	4.01744	3.83963	51.52495
687.50000	48.48608	1.17130	5.59813	56.23749
691.40625	43.65074	0.56878	4.61162	53.01847
695.31250	40.02415	6.49527	0.58516	46.81978
699.21875	40.82979	5.81830	-1.11573	44.68767
703.12500	36.80029	1.73908	1.37021	39.26202
707.03125	33.97959	7.89185	1.10223	38.99861
710.93750	34.78526	11.08982	1.79909	40.76023
714.84375	32.77045	9.07200	2.66782	38.02382
718.75000	32.36734	7.22060	1.74165	36.03855
722.65625	33.17306	11.10870	3.34075	35.84257
726.56250	30.75526	10.58728	4.25820	34.62078
730.46875	29.54627	6.74211	4.21445	31.72444
734.37500	24.71091	7.23878	4.34464	26.03646
738.28125	23.09892	6.58333	2.18988	24.18874
742.18750	20.68113	6.33649	-1.93276	19.91574
746.09375	15.44281	8.04291	-1.85570	16.10671
750.00000	15.84550	6.86452	2.18729	18.25044
753.90625	14.63649	3.41812	4.40534	16.89959
757.81250	11.41290	1.49415	3.45125	14.38002
761.71875	12.62144	0.31498	1.66743	13.64731
765.62500	10.60660	1.05857	2.10248	12.06400
769.53125	6.57711	1.38116	1.76167	8.39205
773.43750	5.77106	0.43464	-1.98662	6.98405
777.34375	8.18846	0.42004	-3.33980	7.01814
781.25000	11.41172	0.69935	-1.16926	11.80385
785.15625	7.38219	2.11933	1.62907	10.80766
789.06250	5.36735	-0.84689	2.13249	7.38248
792.96875	6.57595	-3.72260	2.49366	8.77693
796.87500	4.15822	0.14359	3.17078	7.74632
800.78125	1.74043	-1.77714	4.86871	6.33167
804.68750	0.93441	-1.27069	4.78386	4.68309
808.59375	3.75475	-0.62917	4.91183	7.15872
812.50000	6.17216	-3.40967	6.16003	6.56014
816.40625	4.15732	0.26784	3.23793	1.25485
820.31250	4.56009	0.94519	-0.36501	-1.55540
824.21875	2.14242	0.55304	-2.53396	-4.69625
828.12500	-0.27536	-1.19450	-1.58417	-7.19149
832.03125	-3.49899	-4.66902	-1.46455	-7.72933
835.93750	-6.31968	-2.42485	-1.52803	-7.61990
839.84375	-2.29057	-4.02536	3.67889	-5.80833
843.75000	-3.09660	-4.90456	3.44975	-5.24024
847.65625	-7.93202	-2.54771	1.18016	-8.27235
851.56250	-6.32045	-1.05235	2.18335	-5.89123
855.46875	0.93216	2.14477	1.36217	-2.76093
859.37500	5.36419	4.26653	1.28591	-4.40771
863.28125	4.96111	4.11059	-0.23073	-4.19825
867.18750	4.15510	0.94636	-1.70220	-4.14504
871.09375	2.94618	0.18766	-1.02858	-7.67362
875.00000	0.52847	0.28284	-0.58368	-5.52352
878.90625	0.12547	-0.76889	-0.29189	-1.78086
882.81250	0.52829	-1.41568	-0.68037	-0.35779
886.71875	-1.08361	4.44683	-1.36546	0.35334
890.62500	-0.68089	7.51171	0.98744	1.42405
894.53125	-0.27809	4.48550	0.69154	1.01414
898.43750	2.13936	2.22782	-3.47260	2.88209
902.34375	3.75090	4.70444	-1.52453	6.28507
906.25000	2.13908	4.32128	-0.62885	4.41525
910.15625	-0.68167	0.77193	-3.05093	2.05565
914.06250	0.12398	-0.15057	-4.88715	1.13535
917.96875	2.54137	-0.43774	-4.22813	0.72011
921.87500	-0.27936	-2.91518	-6.79185	-1.99440
925.78125	5.36139	-1.45099	-7.14653	3.20448
929.68750	15.83733	2.52994	-4.27895	15.57131
933.59375	7.37545	0.48153	0.00511	8.53689
937.50000	-9.54789	-1.91061	3.88741	-9.06978
941.40625	-26.47122	-8.15803	2.45605	-27.20644
945.31250	-42.58870	-11.26402	0.84124	-41.55763
949.21875	-49.03590	-10.58721	-1.48746	-46.27567
953.12500	-56.69188	-12.55205	-2.36193	-52.93828
957.03125	-60.31852	-10.24339	-2.09423	-57.51038
960.93750	-64.34805	-9.00928	-5.20885	-62.49579
964.84375	-69.58635	-10.61791	-4.06319	-64.59492
968.75000	-68.37782	-15.61643	0.48906	-62.60998
972.65625	-67.16922	-16.68418	-1.51320	-66.04066
976.56250	-61.93128	-10.11905	-2.43098	-58.77515
980.46875	-50.64942	-9.90042	-1.58159	-49.02917
984.37500	-44.20269	-10.39727	-5.33843	-46.56494
988.28125	-40.97938	-5.71268	-7.61616	-39.47939
992.18750	-40.17373	-8.28655	-2.28501	-37.62416
996.09375	-41.38266	-8.78431	-2.36240	-34.62121
1000.00000	-36.14469	-3.57680	-4.79391	-26.69192
1003.90625	-30.10084	-2.95106	-6.60935	-26.14713
1007.81250	-27.68339	-2.63896	-6.46132	-28.46273
1011.71875	-25.26597	-1.86296	-3.87194	-27.73024
1015.62500	-22.84860	0.61663	-3.50137	-23.32647
1019.53125	-20.43131	-0.10907	-2.35496	-20.05773
1023.43750	-17.20799	-0.77447	-1.42744	-17.44098
1027.34375	-16.40228	3.67215	-0.88031	-12.63992
1031.25000	-14.79061	0.16917	-0.23049	-10.57584
1035.15625	-10.76144	-0.84812	-0.61143	-8.77384
1039.06250	-7.94104	0.50620	0.89957	-6.15457
1042.96875	-7.53815	0.15839	0.13523	-7.54908
1046.87500	-8.74698	1.12718	-1.75091	-9.74185
1050.78125	-8.34407	-1.38444	-1.43444	-8.32732
1054.68750	-4.71788	0.12370	1.06770	-5.06713
1058.59375	-4.31499	0.28791	2.14833	-2.70766
1062.50000	-2.70340	-2.57274	0.09405	-1.30327
1066.40625	-0.68887	-0.20646	0.59830	0.37548
1070.31250	0.92276	-0.88397	0.57457	1.17101
1074.21875	3.74314	-2.50666	1.53448	1.89422
1078.12500	3.34006	-1.96808	5.01669	2.77755
1082.03125	3.74289	-3.73182	6.50849	-1.51982
1085.93750	2.93689	0.47080	1.73660	-2.83816
1089.84375	0.92212	2.07111	-0.24720	-0.62064
1093.75000	-0.28680	1.33843	1.19051	-0.78600
1097.65625	-1.09275	0.19023	-0.97240	-0.57454
1101.56250	-0.28699	-0.49946	-2.78172	-3.76173
1105.46875	0.11580	1.94427	-2.36379	-5.68332
1109.37500	-0.28721	-2.19229	-4.30232	-4.43958
1113.28125	-1.49610	-4.45412	-4.80068	-3.03736
1117.18750	-1.89914	0.32170	-1.31482	-2.68774
1121.09375	-0.28746	-1.74021	0.02600	-4.39734
1125.00000	-1.49634	-1.43264	-0.41920	-4.53280
1128.90625	-2.70522	-0.78393	-1.11415	-3.03736
1132.81250	-4.31695	-4.56950	1.28872	-2.44581
1136.71875	-3.10822	-3.17946	3.18243	-2.75403
1140.62500	0.51798	-1.40934	2.84396	1.01045
1144.53125	-0.28800	0.00497	1.12494	-0.99728
1148.43750	-4.31740	-1.36387	-0.75519	-6.89454
1152.34375	-6.73512	-6.25818	-0.28593	-6.67119
1156.25000	-8.74993	-8.69566	2.44455	-9.63665
1160.15625	-8.34709	-8.36999	1.24008	-12.11235
1164.06250	-9.15317	-4.62720	-2.56510	-13.20681
1167.96875	-9.55619	-0.71379	-2.01558	-12.38879
1171.87500	3.33739	1.76342	0.14497	0.80171
1175.78125	4.94902	3.52256	-0.30647	4.06415
1179.68750	-11.57127	-0.45852	-1.56259	-8.70581
1183.59375	-13.98901	-1.23080	1.80873	-12.95379
1187.50000	-11.57155	-0.85346	3.56722	-9.04701
1191.40625	-15.60099	-4.27650	2.17787	-11.86306
1195.31250	-15.60112	-4.79700	2.18070	-14.43528
1199.21875	-14.39250	-3.45930	2.49455	-14.14971
1203.12500	-12.37803	-2.70340	2.16006	-13.12845
1207.03125	-9.15471	-0.57996	-1.33128	-6.54190
1210.93750	-6.73723	-1.41131	-1.03732	-3.16843
1214.84375	-5.93150	2.21185	-2.18328	-2.27831
1218.75000	-2.70818	3.18100	0.51695	-2.24884
1222.65625	-4.32000	-2.19836	1.71317	-6.47399
1226.56250	-4.32012	0.90667	2.22778	-4.47225
1230.46875	0.11194	1.89666	3.79577	-0.11590
1234.37500	0.11181	-0.83010	1.10546	-2.17733
1238.28125	-1.09709	-1.08256	0.56236	0.00433
1242.18750	-1.50014	0.68526	3.28949	1.37241
1246.09375	-5.93250	1.98878	3.36653	-4.45117
1250.00000	-9.55890	-2.41303	2.57432	-7.94846
1253.90625	-8.35016	-5.45648	1.56897	-6.88169
1257.81250	-6.73866	-2.94816	0.21191	-4.96912
1261.71875	-7.54471	2.31960	-2.37781	-4.09014
1265.62500	-3.51559	2.25737	-4.76328	-5.27062
1269.53125	0.91648	0.96827	-1.88076	-2.89865
1273.43750	0.11039	2.43937	2.02668	-0.27738
1277.34375	-1.90444	5.24534	1.47933	-2.66094
1281.25000	-2.71046	-0.51927	-0.78244	-4.32211
1285.15625	-7.94878	-3.93442	0.00121	-7.33303
1289.06250	-13.58996	-0.05085	-2.71882	-5.92310
1292.96875	-12.78435	-2.12073	-1.95467	-2.91688
1296.87500	-11.97864	-2.68678	0.73711	-1.93294
1300.78125	-9.56123	-2.59284	-0.38547	-5.36227
1304.68750	-5.12927	-0.87765	-2.48499	-5.80213
1308.59375	-1.10019	3.39016	-1.95411	-1.31190
1312.50000	2.12310	4.63895	-1.51174	1.31303
1316.40625	5.74927	6.30180	-2.01619	3.66349
1320.31250	8.56967	5.77036	-1.99266	1.25618
1324.21875	5.74905	5.37819	-1.34110	-1.48172
1328.12500	4.13715	5.64524	-2.40595	1.26117
1332.03125	5.74860	3.37956	-2.28630	2.73793
1335.93750	4.53952	3.20606	-1.94684	1.23550
1339.84375	2.92754	3.62022	-1.97798	0.22653
1343.75000	4.13605	2.74093	-3.01303	0.79453
1347.65625	0.50933	-0.14037	-5.68548	1.38865
1351.56250	2.12080	-0.25671	-2.26472	1.75503
1355.46875	6.55270	2.53744	-1.47408	3.67642
1359.37500	5.34363	1.43575	-1.95333	4.85003
1363.28125	7.76098	-3.55537	0.15646	2.23892
1367.18750	4.94023	0.53317	-2.12090	-0.93140
1371.09375	2.11953	2.19195	-3.05892	-2.44537
1375.00000	0.91048	-0.13042	-3.01697	-3.51878
1378.90625	-0.29856	1.23538	-1.51637	-0.17927
1382.81250	2.52167	0.18565	-1.09897	3.66125
1386.71875	5.34191	-1.20450	-2.18711	6.78987
1390.62500	4.93880	-2.16894	-1.84891	7.05453
1394.53125	1.31218	1.65469	-3.35355	-0.60826
1398.43750	-0.29973	2.21752	-3.48838	-3.57563
1402.34375	2.11765	2.67952	-0.33152	0.63317
1406.25000	0.90862	6.32570	-1.04759	0.77794
1410.15625	0.50544	5.19392	-2.66379	-2.79056
1414.06250	2.51987	5.07728	-0.47061	-1.29336
1417.96875	4.13142	3.58135	-0.61747	3.12656
1421.87500	6.14589	3.11860	-3.18115	6.05302
1425.78125	4.93687	3.37397	-1.52116	8.43141
1429.68750	4.53369	2.11680	0.94348	6.69574
1433.59375	4.13056	0.87426	-0.41345	3.28782
1437.50000	4.13034	1.30272	-2.57511	3.81309
1441.40625	4.93600	-0.10952	-1.58883	0.18202
1445.31250	3.72701	1.61958	0.01983	-4.90168
1449.21875	0.10041	3.90807	2.52629	-3.97866
1453.12500	-5.54079	0.33151	1.24885	-4.19424
1457.03125	-8.36150	-1.38919	-2.91570	-5.94578
1460.93750	-8.36175	-1.36388	-4.41867	-5.69303
1464.84375	-7.15328	-0.15207	-4.07884	-4.16568
1468.75000	-3.52712	-0.31550	-5.57052	-3.79246
1472.65625	-4.73615	-1.38330	-3.14059	-3.59673
1476.56250	-5.94514	-1.26500	0.37388	0.84823
1480.46875	5.73964	-0.64345	-0.38849	13.01182
1484.37500	2.91893	3.29196	0.68983	5.40284
1488.28125	-9.57208	4.75306	-0.37908	-10.07563
1492.18750	-2.72248	5.40267	-1.89775	-4.19118
1496.09375	1.70959	10.14290	-2.78088	0.02061
1500.00000	0.90358	2.85956	-1.58605	0.29428
1503.90625	0.50044	-3.76741	-1.78974	2.85366
1507.81250	-2.72317	2.58855	-5.26811	0.13505
1511.71875	-2.72335	5.78218	-3.08163	-3.96756
1515.62500	-0.30591	7.45601	-1.90527	-2.78727
1519.53125	0.90275	9.14792	-5.19105	0.88449
1523.43750	2.51431	8.48262	-3.45773	3.09826
1527.34375	4.93174	4.46773	3.93919	5.48162
1531.25000	4.52859	2.17354	2.97717	5.93383
1535.15625	6.54303	2.36502	-0.22434	3.30347
1539.06250	7.34869	1.70474	1.28672	1.89341
1542.96875	6.94563	1.75986	0.11937	-3.93340
1546.87500	2.51318	3.93744	-1.76681	-3.70866
1550.78125	-0.71049	2.63454	-3.46503	0.92929
1554.68750	-0.30776	1.72510	-4.58925	-1.04877
1558.59375	0.49788	1.88930	-1.49404	-1.50998
1562.50000	2.51243	1.84912	-0.72781	0.70016
1566.40625	2.51230	-0.21686	0.58236	1.17007
1570.31250	4.52675	-4.52078	3.78209	3.57728
1574.21875	3.72071	-6.54634	-0.49607	4.70336
1578.12500	0.90002	-5.20190	-2.65490	5.18370
1582.03125	-0.30895	-6.15977	-1.16302	0.88617
1585.93750	-1.11496	-4.37473	-2.71151	-6.47610
1589.84375	0.49660	0.04612	-1.47182	-2.24396
1593.75000	-3.93577	-1.08950	-0.43702	2.82872
1597.65625	-4.33881	-1.83476	-1.39118	0.62253
1601.56250	-1.51849	1.50482	-3.60335	-1.35595
1605.46875	-6.75676	-0.08081	-1.17077	-2.47178
1609.37500	-5.14520	-5.42618	1.32285	-0.01929
1613.28125	-4.74253	-5.27044	1.22746	0.17396
1617.18750	-2.32513	-2.10642	0.28111	0.92634
1621.09375	-1.11654	2.68147	-1.60158	2.84300
1625.00000	-1.11676	3.39187	-0.43498	2.70739
1628.90625	3.31526	1.62295	0.48179	1.78514
1632.81250	5.32972	3.07541	-1.95048	-0.04102
1636.71875	4.52367	2.85369	-2.07140	2.87410
1640.62500	1.30006	0.99741	-1.20106	2.60910
1644.53125	1.70285	-1.61757	-5.74058	-1.41327
1648.43750	2.50857	1.84873	-4.39726	-1.66954
1652.34375	2.91137	2.99834	-1.91342	-3.46092
1656.25000	3.31411	2.17253	-1.60048	-6.42642
1660.15625	2.50808	3.30410	0.41842	-4.06694
1664.06250	1.29909	3.01759	-0.56620	-1.93796
1667.96875	2.50770	-0.32180	-2.83716	2.50647
1671.87500	2.50749	-3.08270	-1.07954	1.19149
1675.78125	1.70143	0.28813	-1.93389	-2.39582
1679.68750	2.10425	-1.67835	-1.17528	-1.86913
1683.59375	1.70109	-4.46531	0.98727	-1.28189
1687.50000	2.50673	1.55305	-0.07476	-1.00153
1691.40625	2.90952	-0.25834	3.37101	-1.80287
1695.31250	-1.11992	-1.58469	3.77685	-2.76329
1699.21875	0.89460	1.36479	3.28483	-0.46304
1703.12500	4.92376	1.71777	1.74148	5.39361
1707.03125	5.32651	1.82664	-0.13816	5.53324
1710.93750	5.72936	-0.61641	-1.85887	6.48916
1714.84375	4.11756	-3.03710	-1.79593	8.18510
1718.75000	7.34084	-5.29146	2.11312	11.03517
1722.65625	11.77294	-3.41800	1.69758	11.64518
1726.56250	6.53465	3.31335	-5.84644	3.97653
1730.46875	7.34025	4.30342	-6.69610	1.48311
1734.37500	7.74299	6.41183	-1.32780	1.83916
1738.28125	6.93691	7.36810	-2.67678	3.21495
1742.18750	7.33961	5.10664	-2.77012	3.37418
1746.09375	5.32477	2.38090	-1.48424	1.57983
1750.00000	2.50411	-2.02092	-2.27647	0.09718
1753.90625	3.30983	2.18835	-2.87889	-1.25360
1757.81250	2.10099	3.48787	-2.62424	-0.14679
1761.71875	-1.12266	1.90582	-3.19924	3.14979
1765.62500	4.11524	1.03770	-3.16712	8.81921
1769.53125	4.11508	-2.26605	-1.89625	8.37066
1773.43750	0.89149	0.01093	-3.22692	2.53043
1777.34375	1.69718	4.83149	-2.16259	2.16159
1781.25000	4.51750	4.70791	1.21675	4.93268
1785.15625	7.33779	2.09861	-0.82016	1.51896
1789.06250	9.75518	1.95286	-2.73437	0.51139
1792.96875	9.75496	4.31522	-0.35850	2.30885
1796.87500	9.35186	4.95796	-1.69605	3.69575
1800.78125	8.94875	2.63426	-5.23618	4.69875
1804.68750	7.73978	2.73767	-0.48585	9.90006
1808.59375	2.90438	3.37912	4.07438	13.58441
1812.50000	-0.72223	-0.20727	5.32251	10.97115
1816.40625	0.48638	1.45562	4.41509	10.90398
1820.31250	0.48613	0.52127	2.02094	6.48187
1824.21875	-1.12583	-2.28849	-0.14802	2.13213
1828.12500	-0.72316	3.61960	-3.63048	5.68089
1832.03125	-0.32048	4.17443	-1.89914	5.94877
1835.93750	-2.33548	1.58337	-3.17140	5.25215
1839.84375	-2.33583	0.78869	-8.03774	4.24311
1843.75000	-1.53026	0.31240	-3.83461	5.21406
1847.65625	-1.93348	-0.15135	-0.46315	5.00238
1851.56250	0.48383	2.95575	-0.66880	3.75707
1855.46875	2.49819	6.15283	-1.08697	3.26087
1859.37500	2.49791	3.43941	-1.96911	2.41987
1863.28125	1.69178	-1.14878	-2.27691	0.61455
1867.18750	-2.74075	1.32803	-2.13667	-1.34693
1871.09375	-5.96448	3.38978	-1.46301	-3.66681
1875.00000	-5.56176	2.67911	-4.24156	-3.53146
1878.90625	-6.77084	0.41848	-4.35266	-1.80369
1882.81250	-7.17405	-0.63121	-2.72652	-4.41007
1886.71875	-3.95085	-0.00670	-3.41163	-2.49026
1890.62500	-0.32474	-2.17992	-0.65588	0.99781
1894.53125	1.28670	2.44960	-0.54883	0.18478
1898.43750	2.89821	5.43004	-1.08659	0.84381
1902.34375	2.89794	3.47442	0.45851	2.63496
1906.25000	2.89765	-0.93806	1.75712	1.97373
1910.15625	2.89739	-4.48743	-0.26211	-0.78892
1914.06250	-1.93806	-4.60402	-1.69535	-2.51518
1917.96875	-6.37050	-2.87658	-3.45394	0.29292
1921.87500	-1.53558	-5.35391	-2.39129	0.39891
1925.78125	0.07588	-1.87512	0.47749	-5.68424
1929.68750	0.88154	4.52344	2.53918	-2.18183
1933.59375	0.88130	2.07207	2.79398	-1.15756
1937.50000	-4.76000	-2.73761	-0.17354	-5.87041
1941.40625	-4.76023	-0.92647	-0.39608	-8.29272
1945.31250	-2.34283	1.60852	0.40673	-8.94418
1949.21875	-5.56645	-4.96750	1.70438	-8.82697
1953.12500	-7.17843	-7.33528	-0.37886	-11.05730
1957.03125	-4.76103	-3.81788	-1.32000	-7.97361
1960.93750	-3.55243	-4.19552	2.41515	-2.48275
1964.84375	-3.55264	-1.37194	1.54629	-5.38767
1968.75000	-3.95579	0.07635	0.05457	-4.20857
1972.65625	-5.16475	-3.00604	-1.54476	-4.01291
1976.56250	-0.32980	3.96204	-2.46252	-2.79144
1980.46875	9.34035	7.80703	-3.62775	3.32812
1984.37500	12.56356	4.08672	-3.75818	8.61285
1988.28125	-4.76263	-1.30193	-1.20076	-2.83646
1992.18750	-12.41852	-4.68168	0.90702	-13.87507
1996.09375	-4.36004	-6.38831	1.63561	-8.45458
2000.00000	-10.00131	-9.23940	-2.00468	-11.40439
2003.90625	-10.00149	-5.79314	-0.99955	-10.45668
2007.81250	-4.36058	-1.85474	3.17773	-4.71373
2011.71875	-4.76372	-0.67582	0.93202	-6.80180
2015.62500	-3.95804	1.80384	0.89958	-4.41278
2019.53125	-2.34646	-0.13066	1.24019	2.88528
2023.43750	-0.33196	-0.79603	1.36184	4.69606
2027.34375	-0.33212	1.23302	2.71477	0.22961
2031.25000	-3.55573	-0.65828	1.75279	-4.95927
2035.15625	-4.76470	-1.27262	-0.23993	-4.36619
2039.06250	-3.15308	-3.14169	0.46519	-4.16467
2042.96875	-4.36202	-3.08661	1.31255	-5.55944
2046.87500	-6.37683	-1.71485	2.64980	-3.32023
2050.78125	-3.95944	-1.00301	2.96621	-1.90575
2054.68750	-3.15371	1.71394	2.24485	-1.46624
2058.59375	-1.54219	-2.55405	2.11663	-1.52454
2062.50000	-0.73653	-5.01177	1.67403	-2.13494
2066.40625	-2.34845	0.98086	1.77537	-1.26216
2070.31250	0.87479	1.91502	-0.66598	1.54789
2074.21875	0.87458	1.90403	-3.73537	-0.14656
2078.12500	-1.54324	3.24851	0.14979	-1.68090
2082.03125	-2.34933	0.67891	4.05916	-1.94912
2085.93750	-3.96132	-1.16246	2.51065	-1.65581
2089.84375	-4.36442	-3.59142	1.33275	-2.66184
2093.75000	-2.35000	-6.33882	2.36757	-2.02139
2097.65625	0.47029	-2.24892	1.41348	2.21923
2101.56250	0.87307	-2.53567	0.41003	2.25541
2105.46875	4.09630	-0.89783	2.84265	0.33366
2109.37500	4.09604	1.81538	2.51584	3.59190
2113.28125	-0.33646	-1.65520	-0.80296	2.17344
2117.18750	-2.75431	-0.90877	-2.15217	-1.50641
2121.09375	-1.54578	-0.15015	-0.00546	-0.79855
2125.00000	-4.76949	-2.66319	-1.25648	-2.14302
2128.90625	-4.76970	-2.41743	-2.35434	-5.07984
2132.81250	0.06524	-3.78547	-0.35434	-1.66796
2136.71875	2.07973	0.42499	0.73352	2.85886
2140.62500	2.88539	2.19510	-0.00777	3.39975
2144.53125	1.27348	-0.82279	1.89965	2.19785
2148.43750	0.06450	1.83766	1.22841	0.32983
2152.34375	0.87021	2.98733	-1.12277	0.15010
2156.25000	0.06412	5.38496	-1.61573	0.40808
2160.15625	0.46686	3.29312	-2.01435	-0.85888
2164.06250	1.27249	3.40961	-5.41652	-1.95339
2167.96875	0.06352	2.48778	-3.25515	-0.73240
2171.87500	1.27218	-1.07894	0.92007	-2.04735
2175.78125	0.06327	0.27723	-0.33722	-3.61991
2179.68750	-1.54855	0.72829	-0.38446	-1.48138
2183.59375	2.07768	0.76189	2.98691	0.71760
2187.50000	8.52440	-0.47251	3.13368	1.40105
2191.40625	5.30093	-1.07503	0.53553	0.19691
2195.31250	3.28623	3.64257	0.53847	2.05715
2199.21875	4.49498	0.95098	1.65819	1.94000
2203.12500	1.27155	-3.53122	-1.49684	-2.67947
2207.03125	-0.34010	3.02447	-2.57057	-1.73378
2210.93750	0.46578	2.19323	-0.66493	-1.18064
2214.84375	-1.14584	0.17535	-1.00499	-3.51370
2218.75000	-3.16039	1.54739	0.08356	-4.69280
2222.65625	-4.77207	3.01792	0.47387	-5.29122
2226.56250	-5.17484	2.49662	0.98844	-2.88634
2230.46875	-4.77180	-0.54265	-1.06996	-2.15607
2234.37500	-3.96578	0.35702	-0.13391	-1.39675
2238.28125	0.06367	2.92510	-1.88577	1.59105
2242.18750	4.89898	4.69296	-6.41137	-1.47282
2246.09375	2.07859	6.39945	-4.31968	-4.47566
2250.00000	1.27278	5.22114	-5.51476	-0.31701
2253.90625	5.30219	5.80413	-5.71422	3.16763
2257.81250	7.31692	7.10362	-1.83314	3.87168
2261.71875	4.09356	3.90993	-1.60228	1.52751
2265.62500	-1.95041	4.65357	-1.97304	-1.66732
2269.53125	-1.54745	2.96153	-0.70213	-1.30974
2273.43750	-0.74168	0.80627	-2.03276	-3.12056
2277.34375	-2.35342	-0.01409	-2.58007	-2.28049
2281.25000	-0.33868	-2.95816	-4.43879	-1.92674
2285.15625	1.67610	-1.13504	-7.68445	-2.92259
2289.06250	-1.14421	-0.07191	-6.77805	-4.33273
2292.96875	-1.94988	-1.33584	-3.59625	-6.56414
2296.87500	-0.33790	4.14219	0.30439	-7.19142
2300.78125	-1.94943	1.01270	1.59943	-8.60557
2304.68750	-4.36670	1.11630	0.30590	-9.85065
2308.59375	-3.96355	5.38424	0.03096	-6.56868
2312.50000	-2.75451	5.02141	0.47341	-2.33154
2316.40625	-4.76896	4.26681	-2.04562	-3.20403
2320.31250	-5.97758	1.72089	-0.41035	-4.40212
2324.21875	-5.97744	2.53760	-0.56456	-2.70747
2328.12500	-5.97731	-2.03035	-2.43521	-3.18767
2332.03125	-10.40944	-4.29600	0.10205	-7.75453
2335.93750	-7.99184	2.38043	-3.18480	-10.06249
2339.84375	-1.54490	0.77998	-6.03639	-5.43017
2343.75000	3.29026	0.70669	-2.63919	-0.02664
2347.65625	4.90202	7.09291	1.53822	4.19419
2351.56250	5.70785	4.15618	3.34725	4.96383
2355.46875	4.09609	0.10058	2.12324	2.85619
2359.37500	3.69305	2.62519	0.03232	2.41827
2363.28125	2.48418	3.27513	-3.49890	-0.99853
2367.18750	1.67826	1.31969	-6.17914	-0.94518
2371.09375	4.09578	-0.24496	-2.28204	1.97326
2375.00000	4.09570	0.25318	0.17755	-0.71180
2378.90625	4.49849	-0.79851	-2.75407	0.61318
2382.81250	3.69256	-1.04237	-1.53078	2.84217
2386.71875	2.88658	4.01439	1.41048	-0.07309
2390.62500	2.48349	1.84119	0.53991	-0.21125
2394.53125	2.08046	0.42675	-1.77064	-1.42707
2398.43750	0.06559	0.98963	-1.09958	-3.99141
2402.34375	1.67714	0.64571	-1.16617	-1.79727
2406.25000	1.27402	1.06844	-6.31452	-2.05545
2410.15625	0.46799	-0.86914	-3.09554	-3.20627
2414.06250	-0.33803	-0.98576	2.72396	0.70865
2417.96875	-1.94999	-1.27286	2.17414	2.30802
2421.87500	-1.54720	-1.73561	0.81915	-0.00355
2425.78125	-2.75614	1.74324	1.27031	-1.65446
2429.68750	-3.15914	0.88912	2.12326	1.44506
2433.59375	-5.97982	-0.75631	1.16922	-1.55989
2437.50000	-7.99458	-0.32789	1.02222	-4.66088
2441.40625	-7.59174	-2.54596	0.39670	-4.66556
2445.31250	-4.77136	-0.81686	-0.81517	-4.91401
2449.21875	-3.15974	-0.54295	-0.32338	-2.37918
2453.12500	-1.54816	-2.10482	-0.79497	-2.19186
2457.03125	1.67516	-1.40787	1.89030	-0.71985
2460.93750	0.46624	1.84095	4.41659	1.54760
2464.84375	1.67492	1.44108	5.15935	4.28379
2468.75000	2.48062	-5.16920	5.68231	3.44829
2472.65625	-3.96646	-5.02809	3.68005	-0.78819
2476.56250	-5.17538	-0.47758	1.55358	0.03046
2480.46875	0.06250	-2.27363	-1.62638	-2.71435
2484.37500	-3.16107	-5.59099	-2.56271	-9.92032
2488.28125	-2.75832	-0.10052	-3.63158	-4.44652
2492.18750	0.06205	1.75784	-5.15015	-2.59129
2496.09375	-1.95274	0.05124	-6.03334	-5.22941
2500.00000	-4.37038	-0.78516	-2.42092	-2.53815
2503.90625	-3.56469	-0.56230	0.19588	0.42419
2507.81250	-2.35604	-3.07080	0.34384	2.13772
2511.71875	-0.34153	-4.30943	-0.29017	0.85559
2515.62500	0.86708	-3.84439	0.48333	1.63289
2519.53125	2.47859	-2.15254	3.64443	1.67819
2523.43750	1.26957	2.01724	4.97491	1.47427
2527.34375	1.26934	0.82283	3.50738	1.84298
2531.25000	2.07501	-2.27718	0.93369	-0.12239
2535.15625	2.88061	-2.89150	0.14975	-0.33523
2539.06250	4.49208	-4.76064	0.85486	2.28389
2542.96875	0.46252	-4.30261	1.70213	1.29207
2546.87500	4.49156	-3.73670	1.42768	3.12841
2550.78125	8.11775	-3.42781	1.34117	3.73698
2554.68750	2.47650	-0.30790	-0.18601	-1.86742
2558.59375	2.07340	1.87097	-3.13470	-3.53742
2562.50000	2.07315	-2.19854	-1.56265	-4.14788
2566.40625	6.50508	-3.86160	-2.26720	-4.08095
2570.31250	16.17520	4.32538	-6.32016	4.77311
2574.21875	14.56325	6.32907	-2.53973	11.54013
2578.12500	13.35434	3.24130	0.13665	12.02048
2582.03125	13.75707	3.89516	0.41964	13.36399
2585.93750	11.33937	4.47139	4.91505	15.26913
2589.84375	7.30986	0.02775	5.34886	16.27783
2593.75000	5.69799	-0.70491	5.17487	13.69482
2597.65625	5.69779	1.77322	7.44420	9.87696
2601.56250	4.08588	-0.12522	5.63490	8.70441
2605.46875	5.69737	-0.90497	4.44114	9.60323
2609.37500	5.29422	-2.22106	3.30835	7.22056
2613.28125	3.68234	-1.25943	0.39248	0.56401
2617.18750	6.09975	2.71048	-2.16556	0.51067
2621.09375	8.11418	0.64855	-5.25694	2.42734
2625.00000	5.29344	-0.65565	-3.28452	-1.33456
2628.90625	3.68159	0.39597	1.25860	-2.25675
2632.81250	6.90486	-0.97207	0.84102	-1.26245
2636.71875	10.53103	2.83547	-1.29461	-3.98843
2640.62500	10.53085	4.20264	-2.43888	-7.87977
2644.53125	9.72481	2.39344	-3.35199	-7.47003
2648.43750	10.12755	3.84509	-1.60568	-4.50298
2652.34375	5.69507	5.39762	-0.73351	-3.87686
2656.25000	-0.34907	4.16884	-1.22647	1.21625
2660.15625	-1.96103	-0.74353	-4.04260	2.36690
2664.06250	-5.18464	-1.03004	-1.40081	0.06357
2667.96875	-7.60245	2.88332	1.96930	-0.73012
2671.87500	-6.39383	-0.28055	3.72687	-3.25390
2675.78125	-8.00575	-0.53610	2.87251	-3.21494
2679.68750	-8.00593	2.73544	0.40765	-1.47940
2683.59375	-4.78267	4.38076	-1.45909	-1.69803
2687.50000	-1.96238	1.13163	-4.53570	-1.41768
2691.40625	-1.96257	-0.27681	-5.11925	-0.20446
2695.31250	-0.35100	4.03784	-6.32522	-0.35910
2699.21875	2.46931	2.15206	-5.20550	1.53813
2703.12500	3.67792	-2.33023	-1.51078	0.94772
2707.03125	2.87188	-0.20678	-0.16696	2.29606
2710.93750	-0.35174	-0.63523	1.73869	2.44597
2714.84375	-3.17241	-0.63843	-1.42190	-1.49915
2718.75000	1.25964	1.94243	-4.76565	0.94795
2722.65625	3.27415	2.60712	-0.34604	3.16966
2726.56250	0.45350	2.89162	0.57144	-0.46955
2730.46875	-0.35249	-2.56531	1.73641	-2.56001
2734.37500	-1.56142	-2.87447	-0.14804	-2.60687
2738.28125	-2.36743	-1.51527	1.32363	-1.23105
2742.18750	-3.57640	-2.56792	5.66247	-1.07178
2746.09375	-6.80004	-2.87613	4.93370	-2.86612
2750.00000	-9.62075	-6.87504	5.35033	-2.33410
2753.90625	-9.62098	-6.29219	3.53915	-3.28204
2757.81250	-8.41237	-2.17220	2.98796	-6.60759
2761.71875	-4.38328	-5.82169	3.67664	-5.43354
2765.62500	-3.98060	-5.19878	1.25895	-4.54071
2769.53125	-4.38367	-1.27193	-0.35287	-5.39952
2773.43750	-1.56337	-1.70981	-1.56171	-4.85643
2777.34375	0.85404	0.11214	0.04993	-2.71158
2781.25000	3.67438	0.97154	0.45282	1.93102
2785.15625	0.85371	-2.54900	-1.56193	1.81975
2789.06250	-1.16113	-4.28312	0.85556	-1.54041
2792.96875	-1.96721	-3.41142	4.07895	-3.40451
2796.87500	-4.78786	-4.19066	4.07892	-1.16889
2800.78125	-7.20562	-4.76442	4.07887	-1.58218
2804.68750	-4.78821	0.07756	1.66126	-1.12716
2808.59375	-0.75906	6.02535	1.25822	1.88732
2812.50000	0.04664	4.99917	5.69041	5.72373
2816.40625	2.06111	2.38918	1.66106	8.47442
2820.31250	3.26959	-1.26948	-1.15956	6.19404
2824.21875	-0.35695	-3.36788	5.69022	5.15604
2828.12500	-1.56594	-5.80970	6.09304	4.07362
2832.03125	1.25432	-7.09989	3.67541	1.16739
2835.93750	3.26875	-3.91575	4.07821	3.25210
2839.84375	6.08914	-0.22601	4.07811	5.92527
2843.75000	6.08898	-0.80137	2.06339	5.76451
2847.65625	7.29755	-0.30661	0.45160	5.41756
2851.56250	10.11792	-0.62404	1.25736	3.06700
2855.46875	6.89430	0.67334	-0.35444	-0.71900
2859.37500	6.89411	0.78741	-1.16038	0.84091
2863.28125	6.89392	-5.11975	1.66009	1.50843
2867.18750	3.67031	-2.04971	1.66001	-0.93339
2871.09375	1.65550	0.25038	2.46575	-0.67151
2875.00000	-3.58275	-2.77609	2.86855	-0.21667
2878.90625	-3.58294	-3.46330	-0.35499	1.42239
2882.81250	-1.56847	-3.02896	-3.57849	1.66025
2886.71875	-2.77745	-3.79238	-2.36990	1.53878
2890.62500	2.05758	-5.68721	0.45053	4.45102
2894.53125	0.44563	-4.18598	-4.38473	1.93649
2898.43750	-0.36036	-3.30306	-4.38479	0.82488
2902.34375	2.05710	-5.00678	-0.35558	-3.44503
2906.25000	-1.16657	-3.52567	-0.75857	-4.49308
2910.15625	-0.76387	-1.51567	-0.35574	3.52010
2914.06250	-1.56990	-1.53699	0.04712	4.12591
2917.96875	-3.98767	-1.14390	1.25586	4.29086
2921.87500	-4.39071	-1.78654	2.46459	2.71872
2925.78125	-6.00261	-0.44946	0.44987	-0.09140
2929.68750	-4.79397	-0.93793	-1.96781	-0.24698
2933.59375	-1.16777	-0.46675	-1.96788	-3.32276
2937.50000	-2.37674	-0.60686	-4.38557	-5.09965
2941.40625	-5.19739	-2.63564	-4.38566	-7.24183
2945.31250	-3.18291	0.59537	-1.16231	-8.22293
2949.21875	-5.19785	2.48908	-1.56532	-7.25903
2953.12500	-4.79532	-1.77806	0.04625	-4.70012
2957.03125	-1.16938	-0.88031	0.04611	2.06940
2960.93750	-1.57284	1.71407	-4.38629	5.35978
2964.84375	-0.36459	2.42402	-1.56591	5.36183
2968.75000	-1.57395	1.10513	3.26910	2.62380
2972.65625	-1.57454	0.57498	4.88065	2.40519
2976.56250	-3.18682	0.05624	4.07467	2.42907
2980.46875	-6.41089	-0.82349	1.65700	0.23685
2984.37500	-4.79980	0.19683	0.85091	-0.83608
2988.28125	0.03477	-0.66233	0.04487	2.40145
2992.18750	0.03423	-1.46448	-1.96995	1.87141
2996.09375	0.83966	3.01480	-2.77597	-1.60102
