 	TP9	AF7	AF8	TP10	
-1000.00000	4.57895	-3.32085	0.22156	12.12594
-996.09375	3.77300	-0.71432	-0.58408	7.85586
-992.18750	8.20518	0.23986	-0.98671	3.67468
-988.28125	9.81682	-0.64628	-2.59823	-1.01357
-984.37500	6.59333	3.18065	-4.61262	-2.90883
-980.46875	12.23436	4.72773	-4.20944	-0.29499
-976.56250	11.42853	4.34375	-0.58285	-0.69364
-972.65625	2.96706	0.93483	-2.59726	3.94814
-968.75000	3.37002	1.47410	-4.61166	8.65733
-964.84375	4.98183	3.36325	-2.59680	1.65321
-960.93750	6.59359	1.92504	-1.38776	-3.02838
-957.03125	5.38487	0.14441	-2.19335	0.84726
-953.12500	6.19083	-1.21168	-3.80478	3.00785
-949.21875	7.39969	-3.68221	-3.80450	0.57951
-945.31250	2.16167	-2.89612	-1.38671	3.78990
-941.40625	-1.46468	-2.05912	-0.17766	5.53522
-937.50000	0.14714	-1.22096	-2.99790	-2.02592
-933.59375	4.17650	-0.95879	-3.40056	-0.35248
-929.68750	0.95315	-2.82038	-1.38564	12.22560
-925.78125	-4.68778	-3.11077	-0.98240	7.12470
-921.87500	-1.06129	-2.79354	-1.38507	-6.03514
-917.96875	2.56515	-2.56943	-3.80231	-7.70033
-914.06250	-0.65819	-2.73555	-0.57864	-1.69758
-910.15625	-2.67274	-4.00016	2.64507	0.48302
-906.25000	16.66808	-4.53739	4.66000	5.20852
-902.34375	21.50334	-4.71198	6.67493	16.25102
-898.43750	-3.88125	-2.68913	4.25766	8.80659
-894.53125	-9.52219	1.92332	1.84033	0.99011
-890.62500	4.58049	4.86579	-0.57698	6.04882
-886.71875	11.83335	5.71374	-2.59138	7.30638
-882.81250	12.63929	7.49488	-4.60576	12.35398
-878.90625	16.66867	8.49576	-5.00837	14.05177
-875.00000	19.48923	8.58927	-5.00804	12.14577
-871.09375	15.86292	5.64549	-7.82829	10.39004
-867.18750	6.59559	3.46298	-7.42503	10.99907
-863.28125	0.95467	-1.23048	-5.00715	9.67044
-859.37500	4.17824	-1.65003	-7.42447	1.58818
-855.46875	6.59589	3.56674	-7.82714	1.55227
-851.56250	6.19308	0.75718	-2.58873	3.83803
-847.65625	2.56675	-3.23473	-0.97668	1.77939
-843.75000	-0.25369	-0.26837	-3.79690	1.34735
-839.84375	-0.65656	-0.08457	-5.40839	-1.18558
-835.93750	0.95526	-2.26117	-2.58759	1.84941
-832.03125	2.56707	-1.73947	-0.57265	4.12424
-828.12500	3.37304	0.92874	-0.97526	3.01660
-824.21875	6.19374	1.91632	-1.37794	3.09629
-820.31250	5.79099	2.71691	-1.78056	2.10325
-816.40625	6.99992	3.60054	-0.57152	-1.06287
-812.50000	13.44691	0.97787	0.63755	-3.25436
-808.59375	8.20894	0.63922	1.84661	-1.81022
-804.68750	3.37389	2.09652	2.65272	3.22921
-800.78125	7.00048	1.51685	4.26478	4.20057
-796.87500	2.97140	2.62103	2.25042	-1.13858
-792.96875	-3.07233	2.86745	1.04192	-4.99821
-789.06250	-3.47505	1.13216	3.45982	-6.25422
-785.15625	0.15156	0.26824	4.66886	-5.10644
-781.25000	-0.65415	-1.67048	4.26629	-2.95398
-777.34375	0.55479	0.04201	1.84900	-2.00243
-773.43750	0.95787	-1.30621	3.05809	-0.70155
-769.53125	-1.05660	-0.41482	5.07302	-0.64479
-765.62500	-1.05645	1.26252	2.25281	-0.55832
-761.71875	-1.05635	-1.60774	0.23844	-0.02219
-757.81250	-3.87685	-0.90961	-1.37305	-2.04188
-753.90625	-5.48838	0.14507	0.64190	-6.47901
-750.00000	-0.65296	-0.37676	-1.37247	-12.78376
-746.09375	-3.47313	3.06089	-7.81912	-14.15446
-742.18750	-7.50203	2.10684	-5.80416	-6.74953
-738.28125	-8.30748	1.78442	0.24007	-10.52242
-734.37500	-5.48658	2.79285	3.06087	-7.41798
-730.46875	-6.29198	-0.76875	3.06118	-0.36103
-726.56250	-9.11211	-0.78746	-2.17659	-7.21460
-722.65625	-4.67940	-1.40760	-2.98213	-7.42355
-718.75000	-1.85841	-4.76716	-0.56426	-0.44712
-714.84375	-3.06670	-3.02973	-1.77271	2.52832
-710.93750	0.15720	-1.18837	0.24225	3.58414
-707.03125	2.17224	0.59253	-0.96625	2.12667
-703.12500	-2.25963	0.74002	-3.38352	1.17542
-699.21875	-3.06513	2.80785	1.04905	-2.03671
-695.31250	-3.46769	6.05128	2.66108	-6.05246
-691.40625	-7.49662	0.78228	2.66142	-3.76793
-687.50000	-7.49630	0.75019	3.87052	2.58487
-683.59375	-2.66086	3.71168	2.25911	-3.52035
-679.68750	0.15999	1.54419	-2.57581	-10.85990
-675.78125	-0.64566	2.64065	-2.17257	-9.78792
-671.87500	-2.25708	2.72660	2.66286	-7.90959
-667.96875	-5.07732	-1.52661	4.27493	-6.24405
-664.06250	-7.89768	-0.15155	4.27522	-8.21690
-660.15625	-5.88280	1.91913	4.67840	-8.78531
-656.25000	-5.07664	0.84487	2.66405	-3.83993
-652.34375	-6.68818	0.61676	0.64972	0.83236
-648.43750	-5.07621	1.41461	3.47057	2.23324
-644.53125	2.17671	2.44338	4.67960	5.21502
-640.62500	3.38563	1.91865	-1.76696	5.39486
-636.71875	5.40045	1.47380	-4.18423	2.12308
-632.81250	6.60943	1.70756	-1.76633	1.91102
-628.90625	2.98327	1.51270	-0.96022	4.24294
-625.00000	-0.64292	2.22521	-2.16878	4.13472
-621.09375	-3.46320	1.54282	-2.16855	1.86159
-617.18750	-0.64249	2.91967	-0.15367	1.65595
-613.28125	-2.65695	3.98687	0.24961	1.37322
-609.37500	-8.70071	1.18313	0.65283	-3.84081
-605.46875	-7.49173	2.01048	-1.76443	-8.63961
-601.56250	-8.29742	1.19386	-7.00218	-9.31326
-597.65625	-9.10313	-0.85806	-4.98720	-8.86588
-593.75000	-8.29703	-1.00368	-0.15183	-6.01582
-589.84375	-10.31147	-3.20193	-5.79259	-3.48236
-585.93750	-11.52017	-2.23400	-7.00114	-6.91990
-582.03125	-11.11713	-2.35262	1.46072	-12.01480
-578.12500	-9.10234	-1.79723	3.87854	-10.10087
-574.21875	-7.49041	0.03593	4.68467	-4.94209
-570.31250	-6.28144	-1.16743	4.28207	-9.18675
-566.40625	-4.66962	-0.03622	0.25304	-10.85538
-562.50000	-4.66952	0.57199	-2.56731	-8.26053
-558.59375	-4.26645	-1.10382	-0.95528	-5.67488
-554.68750	-2.25166	-0.54632	1.05966	-3.05817
-550.78125	-5.47502	-2.38406	0.25414	-4.02910
-546.87500	-5.47490	-4.69693	-0.55139	-3.52464
-542.96875	-5.07177	-8.16665	1.46366	-5.30554
-539.06250	-7.89218	-6.83407	2.26975	-6.86959
-535.15625	-8.29492	-5.16411	-0.14761	-5.59914
-531.25000	-9.10067	-6.44866	-3.37085	-5.73645
-527.34375	-11.51804	-6.95222	-2.96770	-6.68750
-523.43750	-12.32375	-6.00684	0.65893	-7.18209
-519.53125	-9.90602	-3.67454	0.65922	-6.43243
-515.62500	-10.30870	-4.14295	-0.95217	-7.32429
-511.71875	-7.08512	-5.30178	1.06278	-6.24825
-507.81250	-5.47326	-4.79097	0.25720	-7.04865
-503.90625	-8.29358	-3.42791	-4.98063	-5.83449
-500.00000	-5.06993	-3.71178	-2.56280	-1.14085
-496.09375	-1.44346	-3.11994	0.66097	3.45384
-492.18750	-3.05498	-2.97158	-1.35337	0.88466
-488.28125	-2.65192	-1.84306	-2.56187	-2.99742
-484.37500	-1.03998	-3.25423	-4.17328	-1.66902
-480.46875	-3.86033	-4.52762	-4.57595	-1.47245
-476.56250	-5.87482	-3.29989	-1.75514	-2.67678
-472.65625	-4.26293	-3.88830	-1.35195	-5.28756
-468.75000	-6.27739	-5.76663	-2.15751	-6.62219
-464.84375	-8.29191	-1.45996	-0.54555	-6.77640
-460.93750	-6.27712	-0.88348	-0.54527	-5.01096
-457.03125	-6.67998	-3.47004	-3.36552	-5.16457
-453.12500	-4.26227	-6.03487	-1.35063	-5.42152
-449.21875	-4.26217	-6.89374	3.48485	-5.02932
-445.31250	-7.48552	-4.89885	1.06753	-5.84811
-441.40625	-4.26199	-7.28528	-1.34979	-0.87930
-437.50000	-2.65019	-8.05888	0.26226	3.24464
-433.59375	-9.49988	-4.97613	-1.75211	-1.52875
-429.68750	-10.30556	-4.42011	-2.15474	-6.27665
-425.78125	-7.08204	-0.68122	1.06896	-7.75095
-421.87500	-5.47019	2.05357	0.26336	-7.21117
-417.96875	-7.48467	0.26305	-2.95985	-6.86164
-414.06250	-7.88749	0.09696	-7.79479	-6.09695
-410.15625	-5.06677	1.24987	-8.19743	-5.52800
-406.25000	-3.45493	-0.49618	-2.55616	-5.63756
-402.34375	-1.44016	-3.89426	-0.13829	-3.86246
-398.43750	-4.66349	-1.06560	-3.36145	-3.24816
-394.53125	-4.66332	1.12934	-7.39046	-3.40885
-390.62500	-1.84266	-1.56926	-6.98721	-6.40879
-386.71875	-5.46889	-0.31844	-4.56938	-11.59815
-382.81250	-5.87170	2.26852	-7.38963	-7.35639
-378.90625	-1.84225	-1.16286	-7.79231	-3.64392
-375.00000	-1.84212	-0.66640	-3.35976	-7.16163
-371.09375	-1.84200	0.01618	-3.35947	-10.93205
-367.18750	3.39621	1.46007	-2.95625	-8.30846
-363.28125	3.39634	2.81051	-5.37357	-6.01070
-359.37500	0.17308	0.37629	-5.37328	-7.64606
-355.46875	-1.03563	0.75789	-0.94074	-5.26444
-351.56250	-2.64723	3.58933	-1.34342	-7.81369
-347.65625	-3.45287	2.01504	-2.95484	-9.06652
-343.75000	-1.84099	-1.46550	-4.16339	-2.64870
-339.84375	-1.84081	-2.08753	-2.55145	0.86227
-335.93750	-3.04942	0.57112	-2.55118	-1.74374
-332.03125	1.38292	-0.11604	-2.95379	-2.28946
-328.12500	5.81530	-2.68587	0.26997	-3.39711
-324.21875	2.18903	0.31635	-1.34149	-1.70573
-320.31250	-1.84024	-1.30072	-4.16171	-0.28120
-316.40625	-3.45187	-4.44640	-2.95262	-5.05904
-312.50000	-5.86936	-3.03979	-2.95234	-5.23595
-308.59375	-5.86924	-2.57262	-1.74325	-0.56845
-304.68750	-7.88378	-2.32415	-1.74296	-3.58770
-300.78125	-7.88365	-2.90382	-2.95147	-7.45157
-296.87500	-7.07764	-1.79968	-0.13067	-2.71754
-292.96875	-9.89804	1.67024	0.27258	-3.35375
-289.06250	-6.27151	1.54660	-4.96519	-8.23619
-285.15625	1.78715	3.50314	-7.38246	-0.64171
-281.25000	2.19021	3.17611	-1.74113	3.12235
-277.34375	-4.25647	2.47106	-0.53212	-3.17889
-273.43750	-0.22695	2.33178	-1.74061	1.74839
-269.53125	4.20555	-1.61196	0.67719	5.02861
-265.62500	-0.62941	-1.54622	2.69204	-0.12302
-261.71875	-4.65851	-2.80471	2.28941	-2.81020
-257.81250	-7.47884	-3.71820	-0.93367	-4.82980
-253.90625	-5.06104	-1.85760	-2.54512	-4.43162
-250.00000	-0.22568	-0.76770	0.67858	-3.08073
-246.09375	-3.44896	-0.95646	0.27593	-4.85443
-242.18750	-5.86643	-1.91052	-1.73846	-4.29952
-238.28125	-5.06031	-1.42709	-2.14115	-8.47556
-234.37500	-5.06014	-0.41868	-1.73794	-10.20647
-230.46875	-4.65711	-3.17437	-0.12598	-9.59670
-226.56250	-7.47746	-3.59604	-2.14040	-12.01835
-222.65625	-11.50662	-1.79867	-4.15479	-10.61586
-218.75000	-7.47719	-1.53185	-2.94574	-6.05737
-214.84375	-2.23897	1.01144	-2.54262	-1.87351
-210.93750	0.58164	3.25558	-4.95987	1.59961
-207.03125	0.58175	5.03647	-4.15378	1.75356
-203.12500	-0.62690	1.55756	-0.12425	-1.21259
-199.21875	0.98502	0.40196	-0.92976	-4.02200
-195.31250	2.19397	4.45123	-3.74993	-3.60576
-191.40625	0.98529	2.00269	-5.36147	-4.54494
-187.50000	-2.64098	-0.04414	-8.18170	-6.25097
-183.59375	-1.43204	0.09681	-6.97260	-3.49186
-179.68750	0.58278	-0.05612	-2.13714	-1.16117
-175.78125	0.18003	-0.16849	-3.34559	-3.71566
-171.87500	0.58306	-2.09725	-4.15113	-2.64338
-167.96875	0.58324	-1.11239	0.28136	1.84269
-164.06250	1.38922	1.47147	1.49039	3.89892
-160.15625	2.19523	0.31872	1.08765	3.33043
-156.25000	0.18068	-1.15853	1.89378	3.84332
-152.34375	-1.43101	-0.98376	1.08817	4.08323
-148.43750	-0.22208	-0.58881	3.90891	1.85759
-144.53125	1.38975	0.43996	3.90914	4.83920
-140.62500	-0.22186	0.31816	3.50648	4.61599
-136.71875	2.19586	-0.93252	4.71550	6.17933
-132.81250	7.03114	-0.29593	3.90992	11.60826
-128.90625	3.00194	-1.29660	2.29848	10.31375
-125.00000	3.40493	-3.80758	2.29873	7.78779
-121.09375	6.62849	-3.68414	2.29899	4.30582
-117.18750	7.43450	0.91614	0.28465	3.69713
-113.28125	7.83748	3.19217	0.68783	1.80264
-109.37500	7.83759	1.19424	1.09104	-2.60560
-105.46875	7.83776	-0.39595	0.68835	-0.95756
-101.56250	6.22624	-0.00379	2.70323	1.59221
-97.65625	-1.83221	1.97365	1.49475	-1.18393
-93.75000	-6.26418	2.23092	-1.32553	-3.16904
-89.84375	-6.26404	0.83852	-1.32521	-3.45620
-85.93750	-8.27859	0.59764	-2.13077	-1.65564
-82.03125	-8.68134	-1.53557	-4.54811	1.71105
-78.12500	-8.68115	-1.38309	-6.96540	-4.03064
-74.21875	-6.66633	-1.96757	-6.96511	-8.54211
-70.31250	-10.29244	-1.96219	-4.54725	-7.14575
-66.40625	-15.53038	-0.42807	-6.96454	-6.39680
-62.50000	-12.30683	-2.64038	-8.17306	-5.81656
-58.59375	-9.08326	-1.49566	-6.96399	-10.48371
-54.68750	-9.88897	0.67354	-5.35206	-11.09052
-50.78125	-7.06834	-4.79061	-0.51663	-8.83805
-46.87500	-3.44188	-4.28295	-0.51633	-9.94542
-42.96875	-0.62124	1.51475	-3.73943	-8.90589
-39.06250	11.46686	4.05608	-2.12749	1.21509
-35.15625	12.27287	5.72609	1.90205	7.32060
-31.25000	-3.44126	0.81520	3.51402	-1.27830
-27.34375	0.58822	-2.10592	5.52892	6.63514
-23.43750	12.27340	-1.96641	6.33501	19.03432
-19.53125	11.06476	-3.26059	5.93233	14.94870
-15.62500	10.66197	-4.53487	7.54434	16.07153
-11.71875	18.31788	-5.29088	6.73871	21.98267
-7.81250	21.94450	-3.97431	2.30680	17.55591
-3.90625	19.52710	1.82097	3.11294	16.75539
0.00000	13.88621	1.53706	6.33665	18.22551
3.90625	9.85703	1.32303	6.73989	15.56749
7.81250	9.45426	2.27726	6.74024	12.59540
11.71875	10.26022	2.59995	5.12880	11.53380
15.62500	9.05150	0.38297	7.14367	14.47396
19.53125	9.45453	-3.30805	8.35271	13.46167
23.43750	9.45460	-2.88619	5.53250	12.25731
27.34375	5.42531	-2.66876	5.12984	12.06401
31.25000	5.02248	-1.32369	4.72717	7.50593
35.15625	4.21674	-0.64335	4.72746	6.14298
39.06250	5.02271	-2.48448	4.72771	7.50549
42.96875	4.61992	0.16711	2.71331	5.74022
46.87500	2.60543	-0.78604	2.31066	4.67754
50.78125	2.60556	-5.67417	0.29624	5.47282
54.68750	5.42619	-2.87345	-1.31528	4.65410
58.59375	7.44102	-1.23059	1.50555	5.59366
62.50000	8.64985	-1.19830	2.71456	6.49412
66.40625	7.44118	-0.93616	-0.91147	4.54130
70.31250	3.81489	0.02272	-2.11995	0.59932
74.21875	1.80034	3.76166	2.71546	-1.68097
78.12500	0.59165	-1.15929	6.34210	3.29111
82.03125	3.41226	-2.14398	4.32769	4.84943
85.93750	3.00948	2.52511	4.32794	3.19652
89.84375	3.81541	2.46929	6.74572	5.37715
93.75000	7.03898	4.75254	3.92547	6.87933
97.65625	4.62154	6.59262	-2.11823	6.23688
101.56250	3.41290	3.37734	-4.53558	4.83658
105.46875	1.80139	1.94586	-2.52067	3.87007
109.37500	0.59278	0.85901	2.31478	-0.74145
113.28125	1.39880	-1.51653	3.52382	-3.91609
117.18750	0.99605	-0.94421	2.31529	0.72872
121.09375	3.81668	-1.95802	4.73313	3.63532
125.00000	4.62268	-4.28205	5.53930	7.37045
128.90625	3.01113	-5.21121	3.12192	3.19715
132.81250	5.02591	-2.55862	4.33096	0.17978
136.71875	2.20555	0.40361	6.34586	1.26877
140.62500	0.59397	0.78992	2.71970	-1.17243
144.53125	1.80291	-0.03728	0.70528	-2.82006
148.43750	0.19132	-1.23515	0.30263	-3.75767
152.34375	-1.01739	0.81684	-2.11471	-1.38411
156.25000	-1.82319	-1.45498	-4.93494	-0.60736
160.15625	-3.43482	-4.09175	-6.14349	1.69483
164.06250	0.19166	0.98435	-2.51691	3.11810
167.96875	1.80345	1.90892	-0.90489	0.96062
171.87500	-1.41988	-0.66107	-0.90462	-0.14707
175.78125	-2.62854	-0.07653	0.30446	-2.08200
179.68750	-1.41957	-0.48472	0.70760	-5.49258
183.59375	-1.82229	2.01054	1.91664	-4.22636
187.50000	-0.61326	-0.20931	0.70809	0.02912
191.40625	1.40155	-3.36847	-1.70925	-2.55606
195.31250	-1.41878	0.50642	-1.30615	-5.17227
199.21875	-0.20978	0.32962	-1.30592	0.23134
203.12500	-0.61252	0.22505	-0.90270	6.17421
207.03125	-1.82116	-1.94614	-0.49956	4.32921
210.93750	-1.41807	-1.66681	-0.49933	2.67023
214.84375	1.40257	1.90143	-0.49910	8.65307
218.75000	2.61154	-2.45488	-0.90177	10.80551
222.65625	3.41756	-3.56285	-0.90151	7.72766
226.56250	6.64119	1.13298	-0.90127	4.99927
230.46875	5.43257	1.62145	-0.09519	-1.39091
234.37500	3.82105	2.89594	1.11388	-1.30448
238.28125	4.62713	4.45790	-0.09462	0.84348
242.18750	-0.61075	4.75317	-4.12364	-1.57904
246.09375	-5.44566	1.37566	-3.31752	-1.58382
250.00000	-1.81901	1.65967	-0.89965	0.57297
253.90625	0.19598	3.48554	-4.52573	-0.79777
257.81250	2.61377	-3.10954	-6.13710	1.77193
261.71875	6.64333	-4.23788	-0.49583	6.05741
265.62500	6.64357	-0.00597	0.71325	6.34122
269.53125	7.85259	-0.74709	-0.89813	6.14514
273.43750	6.24112	1.24890	-0.09197	1.30597
277.34375	4.62962	6.67263	0.31128	0.29091
281.25000	7.04748	7.34233	0.71446	3.64067
285.15625	5.83891	5.45334	0.71472	4.19822
289.06250	7.45084	4.07116	0.31209	4.85089
292.96875	5.83927	4.24028	0.31236	1.37851
296.87500	3.42183	2.37299	-1.29912	-0.37877
300.78125	1.81035	1.21734	-4.92517	-2.78523
304.68750	1.81057	1.23724	-2.10439	-5.59226
308.59375	1.00492	0.40034	-1.70116	-3.30782
312.50000	1.00511	-0.84058	-3.31264	-0.98435
316.40625	3.82577	-2.71439	-2.10356	0.16312
320.31250	5.03472	-2.86731	-2.50624	0.07630
324.21875	6.64657	1.85540	-4.92350	0.34238
328.12500	4.22919	1.13540	-1.69981	-3.82333
332.03125	2.61757	-1.50616	2.32973	-7.39579
335.93750	6.64699	2.28642	-3.71396	-2.11618
339.84375	7.85592	2.34239	-7.74311	1.74754
343.75000	4.63265	0.46226	-4.11651	1.05171
347.65625	3.82696	-0.16887	-4.51921	0.88873
351.56250	1.81252	0.22606	-4.51895	0.27487
355.46875	5.03618	0.44900	-3.71278	2.45080
359.37500	9.06571	-2.49336	-1.29500	5.04817
363.28125	5.03662	-0.11768	1.52581	2.58226
367.18750	4.63385	4.14532	-1.29451	1.96731
371.09375	5.43982	0.32411	-3.30893	1.07574
375.00000	4.63407	0.63371	-3.30871	0.96743
378.90625	4.63423	3.17463	-0.89089	2.32072
382.81250	0.20222	0.52210	5.55625	-3.52591
386.71875	3.42571	0.78340	8.77994	-1.39104
390.62500	6.64927	2.00893	7.57144	9.10920
394.53125	4.63473	0.82158	3.54244	8.33966
398.43750	3.82894	-2.41274	-0.88951	3.23368
402.34375	3.42605	-1.64420	1.52841	2.87509
406.25000	2.62027	-2.19284	3.54334	3.71040
410.15625	6.24674	-3.98825	1.52901	2.61736
414.06250	6.64973	-0.19978	-3.30591	1.59742
417.96875	3.82932	-1.93015	-6.93199	0.53180
421.87500	5.44110	-2.58358	-1.69364	2.04279
425.78125	8.26177	0.45830	3.14176	5.18689
429.68750	7.05307	1.26962	3.14202	3.76278
433.59375	2.21799	0.18718	2.33640	3.53890
437.50000	1.00925	-1.75338	1.93369	3.54557
441.40625	1.81513	-2.44803	3.14277	1.31010
445.31250	1.00928	-1.10692	1.12840	-0.86853
449.21875	0.20348	-0.71740	-1.69185	0.31939
453.12500	-0.19944	-2.05886	-0.48286	2.76411
457.03125	1.00942	-2.00340	0.32327	1.73475
460.93750	3.02416	-0.50162	-2.09411	-0.19454
464.84375	1.00961	0.70906	-3.70554	-0.19341
468.75000	-1.40789	-2.39452	0.72693	-2.69532
472.65625	1.81565	-1.50113	2.74183	-1.66707
476.56250	3.42743	1.38991	4.35384	4.34842
480.46875	2.62170	-1.34768	2.74236	5.57879
484.37500	4.63643	-1.09943	-0.48078	4.93906
488.28125	4.23361	-2.48673	-1.68926	2.34056
492.18750	2.62198	-1.76927	-2.89779	-0.89059
496.09375	3.42797	-0.44149	-3.30047	-1.10897
500.00000	-1.40705	-3.37348	-2.89727	-1.92253
503.90625	-8.65967	-4.11049	-3.70283	-3.19803
507.81250	-9.06249	-5.02134	-5.31436	-7.13280
511.71875	-4.63006	-5.28367	-2.49362	-8.20225
515.62500	-1.00348	-0.65168	-0.07576	-0.53836
519.53125	-0.19747	-0.93771	1.13331	4.69774
523.43750	1.41439	-0.26135	3.14823	3.19963
527.34375	3.02632	1.68930	3.14849	6.76482
531.25000	3.02647	2.05583	1.93994	9.84230
535.15625	3.83247	1.15811	4.76067	10.89143
539.06250	3.83264	0.72121	4.35805	8.51257
542.96875	3.42988	1.58755	0.32902	1.56873
546.87500	4.63887	-1.69255	-0.07366	1.32698
550.78125	5.04194	-4.33153	-0.47633	1.67000
554.68750	6.65378	-0.25462	-0.47605	3.36065
558.59375	7.45983	2.81084	-0.47578	6.69745
562.50000	3.83361	4.26004	-2.08724	6.41525
566.40625	3.83383	3.37131	1.13644	7.18083
570.31250	7.05751	3.35527	4.76304	8.38217
574.21875	5.44601	5.17935	-1.68357	5.87749
578.12500	1.41700	2.91232	-6.11553	2.47181
582.03125	2.22314	1.71574	0.33163	2.02507
585.93750	-0.19424	2.37929	1.94361	-0.65080
589.84375	-4.62625	0.53681	1.13804	-0.64046
593.75000	-4.22308	-0.67652	0.33246	1.11416
597.65625	-6.64049	-1.79755	-0.47316	-4.57192
601.56250	-7.84909	-3.22271	-2.08457	-7.57375
605.46875	-5.02831	-3.85912	-5.30774	-9.27072
609.37500	-1.80474	-4.72874	-2.08399	-11.69556
613.28125	0.61303	-1.30613	1.13972	-8.11110
617.18750	0.61318	1.97528	-4.50106	-1.94788
621.09375	1.82210	2.34097	-3.69490	-0.62502
625.00000	0.21052	0.77773	-0.47129	1.87330
628.90625	-0.59527	-3.17302	-3.29157	1.81392
632.81250	-2.20681	-1.95110	-4.09720	-2.86152
636.71875	-7.04179	-2.69513	-5.30577	-8.19525
640.62500	-4.22110	-3.75241	-5.70842	-6.14141
644.53125	0.21140	-0.62865	-3.29063	-4.28448
648.43750	-2.60895	-0.03276	-2.48453	-4.83249
652.34375	-2.20580	-1.00308	1.14215	-3.28330
656.25000	-3.01145	1.11085	2.75409	-3.17137
660.15625	-5.42880	1.46515	3.15727	-2.77020
664.06250	-9.05493	-0.01558	1.94872	-4.77472
667.96875	-9.45755	-0.54437	-2.88619	-5.84315
671.87500	-0.99572	1.13172	-3.28887	1.10017
675.78125	7.46610	2.50991	-0.06517	9.49324
679.68750	-0.18931	4.29429	-5.30304	-2.60244
683.59375	-3.81541	5.44152	-7.72043	-11.28046
687.50000	-0.99450	4.56170	-6.91430	-6.45150
691.40625	-7.84398	4.45058	-8.92865	-13.08002
695.31250	-11.87292	5.93009	-4.89913	-16.94490
699.21875	-5.82862	2.72014	-4.09305	-8.46197
703.12500	-4.61954	5.27048	-5.70445	-8.48864
707.03125	-1.79877	5.61807	-0.46610	-8.26459
710.93750	1.42496	3.71346	-0.86874	-5.52881
714.84375	-2.60409	4.11453	-4.89780	-7.94693
718.75000	-2.60385	0.77127	-5.70343	-7.45912
722.65625	-3.81242	0.68386	-8.12076	-8.48680
726.56250	-4.21512	1.41927	-8.12052	-8.05486
730.46875	-0.18561	1.73932	-6.10562	-2.83784
734.37500	-2.20002	0.28236	-3.68777	-0.98874
738.28125	0.21781	1.26686	-2.47879	0.40145
742.18750	1.82970	6.59345	-4.49319	2.82715
746.09375	-2.19942	6.07162	-6.10464	1.83711
750.00000	1.02420	3.36267	-3.28393	0.63654
753.90625	1.42728	4.09985	-2.07491	-0.90799
757.81250	-0.18421	5.81667	-1.67175	-4.22542
761.71875	3.84531	6.07914	-4.08913	-8.39352
765.62500	5.05430	3.46194	-1.26838	-8.80411
769.53125	1.83108	1.73341	1.95533	-10.01036
773.43750	1.42831	3.07183	0.34389	-8.10880
777.34375	5.86070	3.13598	-0.05881	-0.79440
781.25000	4.24911	-0.05090	-0.46153	1.36663
785.15625	-5.42111	-0.36185	0.74748	2.33260
789.06250	-10.65904	-2.74536	3.16529	3.50322
792.96875	-7.83842	-2.80566	3.16552	4.00066
796.87500	-6.22651	-0.33132	-0.05768	5.04878
800.78125	-3.80881	-1.31864	-0.05740	4.30336
804.68750	-3.00272	-0.56029	2.76338	4.22500
808.59375	-3.00251	-0.40224	3.16665	5.72390
812.50000	-1.39058	-4.26887	0.74937	3.18624
816.40625	-2.59911	-5.39458	1.15258	-0.39920
820.31250	-4.21053	-4.97543	3.57047	-0.39113
824.21875	-1.79269	-1.56116	1.15314	1.30840
828.12500	-0.58362	-0.09984	1.15340	1.08845
832.03125	-5.82145	1.09695	4.78002	-4.91100
835.93750	-7.02994	4.05991	0.75100	-7.87549
839.84375	7.07288	3.88793	-1.26339	5.41165
843.75000	15.13171	5.90727	-0.05433	14.93981
847.65625	7.07334	4.61088	0.34886	10.15038
851.56250	7.87940	2.40978	1.15493	9.52655
855.46875	21.57926	4.65807	1.55819	22.50629
859.37500	23.19116	5.12482	3.57310	30.16975
863.28125	26.01189	2.50813	8.00555	34.64451
867.18750	39.71167	0.83855	4.78240	37.34623
871.09375	37.29433	5.30811	0.35052	32.39756
875.00000	35.68276	7.27441	1.15662	32.72026
878.90625	40.11520	5.98717	2.36567	40.03298
882.81250	31.65387	5.57124	3.17179	36.65044
886.71875	34.47463	1.88319	2.36619	33.92611
890.62500	39.31000	-0.68572	2.76934	36.30519
894.53125	27.62525	1.42879	1.56084	29.61367
898.43750	26.81966	2.04178	3.57569	27.74470
902.34375	31.65505	2.20639	5.18759	31.43410
906.25000	26.41719	1.70436	2.36728	30.51688
910.15625	23.59693	-1.06735	2.36750	27.69868
914.06250	24.00007	-1.60117	2.36772	28.49497
917.96875	21.17970	-2.28102	3.57674	27.54927
921.87500	19.16522	-4.35996	1.56234	23.82992
925.78125	20.77716	-1.70868	-1.25802	26.31642
929.68750	23.19490	-2.68706	1.56274	25.11591
933.59375	25.20974	-1.81953	3.57758	23.31829
937.50000	25.61291	2.28388	4.78653	24.93691
941.40625	25.61316	1.99218	6.39847	25.92502
945.31250	23.19582	2.93042	7.60749	24.55254
949.21875	22.79322	1.70826	8.81653	24.53193
953.12500	24.80817	2.38144	6.39919	24.96228
957.03125	25.61432	5.25740	4.78771	22.72435
960.93750	24.80877	4.34161	4.78795	19.18349
964.84375	20.77974	3.13472	4.78818	15.96129
968.75000	18.36241	2.44878	4.78842	15.07120
972.65625	17.15386	4.14801	3.98280	14.89078
976.56250	12.31894	3.41269	2.37132	14.05654
980.46875	10.70742	0.27220	1.56575	12.06358
984.37500	9.90183	2.13218	-0.04576	12.63274
988.28125	9.90210	2.75956	0.35745	13.25786
992.18750	15.14046	2.67121	3.17821	12.44446
996.09375	11.51435	5.20782	1.16380	15.04679
1000.00000	8.69400	5.09635	1.56702	14.63623
1003.90625	9.90301	4.35937	3.58190	13.76372
1007.81250	11.11203	5.46318	3.98505	17.88761
1011.71875	11.91805	6.00671	3.17947	19.23575
1015.62500	11.51533	3.38595	1.16505	18.84111
1019.53125	9.50085	2.29411	3.58286	16.01869
1023.43750	4.66581	3.37339	1.97134	12.10298
1027.34375	8.29234	2.90639	-0.84892	10.83295
1031.25000	7.48660	2.06414	-2.46045	7.86649
1035.15625	5.47203	3.18104	-5.28074	9.72148
1039.06250	5.47219	2.34123	-1.25122	9.76018
1042.96875	2.24892	1.59577	2.77831	5.23383
1046.87500	5.06956	0.73321	2.77854	4.18617
1050.78125	5.87556	0.51180	5.19637	8.55845
1054.68750	5.87570	1.36527	3.58487	12.26373
1058.59375	4.66704	0.40145	-2.45889	8.75078
1062.50000	2.65253	0.23888	-2.45865	6.05094
1066.40625	2.24978	-1.05284	-1.65252	4.80184
1070.31250	-2.18231	-2.68065	-2.86109	-1.24954
1074.21875	-2.18213	1.56090	-2.86088	-1.73960
1078.12500	3.45908	4.53198	-3.66649	0.09266
1082.03125	-0.56995	3.73827	-4.87505	0.04877
1085.93750	-1.37555	3.19302	-2.45725	1.40219
1089.84375	5.07157	2.55927	-0.03939	0.60656
1093.75000	5.07179	3.76352	0.36384	2.76402
1097.65625	7.08666	1.03076	-0.03885	4.33070
1101.56250	12.32495	1.21736	-0.84445	3.34343
1105.46875	11.11636	1.38683	-0.84422	1.64640
1109.37500	8.29610	-0.69153	-0.44106	0.83339
1113.28125	8.29636	-0.49232	1.17097	1.19441
1117.18750	3.86438	-0.03132	0.76827	0.10494
1121.09375	1.85004	-2.48616	3.18609	-2.60140
1125.00000	6.28253	-1.22889	5.20096	-2.92351
1128.90625	5.47687	-2.76204	5.60417	-0.56517
1132.81250	1.04489	-3.55472	6.41022	0.80334
1136.71875	-0.56665	-0.67243	2.38113	2.72252
1140.62500	0.23947	-0.52093	3.99305	3.97051
1144.53125	1.44839	0.99102	7.21673	2.20105
1148.43750	4.67202	2.39277	6.00815	2.86186
1152.34375	5.07514	3.03409	5.20253	4.81398
1156.25000	1.44892	-0.09015	4.39690	2.91130
1160.15625	0.64324	-3.36231	1.97952	-1.11982
1164.06250	1.44925	-1.21672	-0.43780	0.09906
1167.96875	-2.98273	-4.16317	-0.43752	-0.96929
1171.87500	-0.96784	-6.11349	-0.43729	-3.69627
1175.78125	3.86749	0.50275	-2.04877	-2.95883
1179.68750	-1.37045	0.27242	-0.43682	-3.36949
1183.59375	-2.17616	-1.40086	0.77224	-1.57134
1187.50000	3.46498	-0.66900	0.36961	-2.38354
1191.40625	0.64472	-0.37715	-0.03315	0.65821
1195.31250	1.45083	-1.31524	-0.03299	4.44894
1199.21875	5.88334	-4.12221	-0.03280	4.06731
1203.12500	3.46596	-3.98943	2.78787	4.04053
1207.03125	4.67497	-4.04476	5.60862	3.45862
1210.93750	5.48099	-2.72590	4.80291	1.35902
1214.84375	1.04900	1.30158	3.19142	0.14957
1218.75000	-0.96547	1.98766	1.57994	4.66657
1222.65625	-3.78585	1.49736	0.77424	2.83290
1226.56250	-4.59149	1.02400	-0.03142	1.25008
1230.46875	-1.77080	0.94122	0.77463	5.25831
1234.37500	-0.15885	3.11066	-0.03098	7.91319
1238.28125	-0.15865	0.87163	-2.44831	6.48286
1242.18750	-0.96433	-2.26333	-0.83629	2.86465
1246.09375	-0.15831	-1.17339	3.99911	6.30691
1250.00000	0.64773	0.14697	3.99935	5.91223
1253.90625	1.45375	-0.72760	2.79077	3.56188
1257.81250	1.45394	-1.42830	0.77635	4.67661
1261.71875	3.87172	-0.35991	0.37366	3.73198
1265.62500	8.30413	0.24628	3.59732	4.93299
1269.53125	9.11012	-0.67637	5.61222	6.14423
1273.43750	4.27511	0.25915	4.00071	3.21060
1277.34375	0.64883	-0.07958	1.98634	0.45174
1281.25000	4.67826	-0.44597	3.19544	-1.81943
1285.15625	7.09599	0.04886	1.18107	-0.85342
1289.06250	-0.55956	-1.93172	-0.43043	-2.10036
1292.96875	-6.60331	-1.99199	0.37568	-6.43798
1296.87500	-7.81191	-4.35276	-0.43003	-9.01614
1300.78125	-6.19994	-4.13123	-1.63859	-10.97041
1304.68750	-3.37923	-1.76114	-2.44427	-12.66046
1308.59375	-1.76730	-2.81185	-1.23524	-9.54988
1312.50000	-1.36414	-1.84326	2.79430	-6.04363
1316.40625	-2.57274	0.25449	1.18285	-5.19691
1320.31250	-3.78135	-2.14697	-2.84621	-3.98003
1324.21875	-7.40747	-1.55323	-0.42842	-6.30987
1328.12500	-8.61605	-0.09193	1.58653	-4.91815
1332.03125	-8.61580	-2.11862	-0.83081	-4.87367
1335.93750	-8.21262	-1.97618	-3.65105	-8.24110
1339.84375	-2.57140	0.67227	-6.06839	-6.23605
1343.75000	5.89037	1.48279	-5.66517	-0.73728
1347.65625	6.69640	1.39521	-2.44153	1.72594
1351.56250	-11.83819	1.20876	-1.63541	-10.17999
1355.46875	-24.73169	-0.57225	0.37948	-19.76443
1359.37500	-31.58142	-5.74647	-1.63493	-29.42705
1363.28125	-40.84864	-10.78076	-4.45522	-39.86074
1367.18750	-40.44545	-10.43569	-3.64908	-38.77079
1371.09375	-45.68337	-7.98075	-4.45476	-38.48149
1375.00000	-52.13012	-6.82028	-4.45453	-44.60572
1378.90625	-49.71241	-8.10752	-1.63378	-50.18692
1382.81250	-48.90646	-7.31468	-1.23067	-53.16661
1386.71875	-47.69751	-5.36175	-4.45389	-49.84710
1390.62500	-44.07098	-7.52771	-5.25954	-46.25933
1394.53125	-37.62390	-7.02493	-4.85635	-43.28051
1398.43750	-31.17681	-3.18845	-2.03565	-39.10564
1402.34375	-28.75909	-1.81503	-2.43841	-37.43087
1406.25000	-29.56470	-2.31707	-3.64693	-33.10997
1410.15625	-31.98209	-3.47710	-1.22917	-31.89878
1414.06250	-28.75846	-2.80209	-2.84063	-33.92288
1417.96875	-26.34062	-6.70530	-6.06380	-33.65979
1421.87500	-25.53450	-7.57540	-2.84014	-30.52918
1425.78125	-22.71372	-6.53584	0.78645	-26.83383
1429.68750	-18.28127	-6.30547	0.78670	-24.81085
1433.59375	-12.23702	-4.63208	3.20453	-18.14684
1437.50000	-11.02797	-6.16964	4.41355	-13.70768
1441.40625	-10.62476	-6.05838	3.20494	-13.92831
1445.31250	-10.22151	-2.29961	1.59343	-12.88327
1449.21875	-6.99786	-2.31296	0.38482	-13.70986
1453.12500	-9.81816	-0.43095	0.78797	-14.48833
1457.03125	-17.47359	0.83342	0.78823	-11.08529
1460.93750	-14.24996	-2.09702	-0.82326	-10.59686
1464.84375	-11.42919	-0.08044	-2.03187	-8.17811
1468.75000	-8.60849	0.03948	1.99764	-3.02421
1472.65625	-7.80247	-1.08176	6.02717	-1.99584
1476.56250	-9.01111	-0.60825	4.81855	-2.83009
1480.46875	-7.39918	-1.73408	1.59538	-3.21136
1484.37500	-6.59316	-3.09759	0.78971	-2.64227
1488.28125	-3.36950	-2.47021	-0.01590	-0.80845
1492.18750	-4.17512	-2.55852	-0.01566	2.00452
1496.09375	-4.57780	-0.02189	-0.82127	2.59223
1500.00000	-0.14532	1.88129	-2.02985	1.37587
1503.90625	0.25790	3.56185	-2.43260	-1.51129
1507.81250	-0.54779	5.06862	-2.43236	-4.23721
1511.71875	-1.75639	2.79167	-2.43210	-2.88912
1515.62500	-0.54741	-0.63492	-4.84939	1.55134
1519.53125	-2.56190	-2.53269	-7.26676	-0.86814
1523.43750	-4.97923	-0.24461	-3.23721	-1.56029
1527.34375	-0.94973	1.70598	1.59824	1.19915
1531.25000	-4.97881	1.26653	2.80721	-3.78176
1535.15625	-5.38156	1.57756	2.00161	-3.13544
1539.06250	0.25974	3.15528	-0.81865	-1.08206
1542.96875	1.87164	5.63333	-4.44484	-1.17601
1546.87500	4.69232	3.56202	-2.02704	-0.61180
1550.78125	3.88663	-0.28574	2.40543	-1.07461
1554.68750	-0.14247	0.56775	0.79393	-1.80150
1558.59375	3.08118	4.43908	0.39126	-0.47927
1562.50000	3.08138	2.26182	-0.01149	-0.35851
1566.40625	0.26108	-1.04454	-2.42889	-1.60760
1570.31250	0.26128	-2.26941	-0.01107	-0.40627
1574.21875	-0.54440	-1.25128	3.21262	-0.89640
1578.12500	-1.75297	-4.32417	2.00404	-0.27290
1582.03125	-0.94686	-6.32666	1.60136	0.08609
1585.93750	3.48553	-1.63380	1.19859	3.05117
1589.84375	5.90338	0.95597	-0.01001	4.27019
1593.75000	7.91826	4.17491	-1.21861	3.60718
1597.65625	9.12731	7.08321	-0.81546	6.78551
1601.56250	3.48656	8.07562	1.60237	2.17191
1605.46875	7.91908	10.66268	-3.23260	4.90714
1609.37500	9.93400	7.77845	-6.05286	9.33223
1613.28125	-8.60052	4.75417	0.39426	-1.99174
1617.18750	-27.13508	1.18578	6.03547	-17.58670
1621.09375	-43.65508	-4.08952	5.22982	-34.79856
1625.00000	-58.56334	-5.24987	3.61833	-51.23787
1628.90625	-72.66573	-1.14197	4.42442	-70.63794
1632.81250	-91.60332	1.28874	4.42466	-89.01313
1636.71875	-115.37608	-3.88756	3.61905	-110.46412
1640.62500	-135.11952	-10.98875	4.42513	-129.76566
1644.53125	-149.22182	-12.70027	6.43997	-146.04079
1648.43750	-162.11545	-12.50730	10.46946	-158.67674
1652.34375	-177.82959	-11.86590	9.26085	-168.40970
1656.25000	-185.48506	-17.81064	12.08156	-177.56526
1660.15625	-190.32010	-21.88863	19.73750	-184.41690
1664.06250	-199.18440	-22.96643	20.94655	-191.65968
1667.96875	-198.37840	-25.91294	26.99073	-188.69887
1671.87500	-196.36362	-28.26610	28.60271	-182.96449
1675.78125	-206.03384	-29.70850	21.75310	-188.67400
1679.68750	-210.06303	-33.96817	26.58850	-197.54623
1683.59375	-190.72220	-37.25314	16.91844	-181.24257
1687.50000	-179.44000	-38.13307	4.02484	-169.16095
1691.40625	-183.87210	-38.64704	25.78331	-177.80420
1695.31250	-182.26021	-39.98808	43.91544	-171.19292
1699.21875	-172.58971	-43.19808	49.55669	-158.27783
1703.12500	-162.51634	-47.49763	53.98922	-149.84303
1707.03125	-148.01068	-48.35885	47.94551	-135.91959
1710.93750	-133.90796	-43.81661	43.51354	-119.88726
1714.84375	-118.19350	-49.05658	47.14021	-101.35313
1718.75000	-101.67317	-54.81749	47.14045	-85.55399
1722.65625	-88.77924	-49.66685	39.88793	-74.89677
1726.56250	-70.24428	-44.49924	36.66471	-57.13894
1730.46875	-62.18547	-45.79091	35.05317	-45.87803
1734.37500	-55.73844	-45.23328	27.39773	-37.17918
1738.28125	-41.23273	-42.63713	24.98036	-22.89520
1742.18750	-35.18858	-41.33986	24.98057	-15.63439
1746.09375	-27.53281	-41.45872	22.96612	-5.74522
1750.00000	-13.43003	-41.34723	22.16051	9.57435
1753.90625	-0.53606	-38.99834	25.38419	23.34119
1757.81250	6.31401	-38.08740	21.75801	26.87361
1761.71875	18.40218	-35.81029	14.50551	33.58472
1765.62500	30.08743	-29.56312	11.68526	44.05327
1769.53125	36.93740	-27.66524	9.26789	49.29395
1773.43750	50.63719	-25.52100	7.65642	60.46294
1777.34375	66.75449	-19.81575	9.26836	78.65656
1781.25000	74.81337	-16.15283	8.46275	89.68211
1785.15625	72.39597	-10.82282	2.01608	86.61893
1789.06250	73.20194	-7.56533	-1.20712	84.96905
1792.96875	74.41090	-6.41689	-3.22150	86.67542
1796.87500	75.61988	-7.16593	-6.44472	88.52943
1800.78125	79.64933	-8.15322	-8.45914	90.60449
1804.68750	78.44067	-8.60373	-6.44429	89.31733
1808.59375	78.03795	-6.02807	-8.45872	85.98101
1812.50000	81.26157	-1.83604	-13.29363	86.66677
1816.40625	84.08237	0.66459	-10.87578	89.52819
1820.31250	85.29136	2.29252	-12.08434	86.31280
1824.21875	85.29156	4.49800	-14.90463	83.17703
1828.12500	86.50047	4.34756	-14.90439	82.95706
1832.03125	82.87436	3.93264	-14.90417	80.18103
1835.93750	82.06863	6.49262	-10.87457	82.85764
1839.84375	84.08348	6.32059	-9.66556	84.05672
1843.75000	82.06892	9.95158	-14.09745	85.12324
1847.65625	80.05449	11.47565	-13.29138	87.58652
1851.56250	78.44285	11.69213	-12.48525	84.94799
1855.46875	79.65182	11.11986	-12.48497	84.22797
1859.37500	78.04031	6.75152	-9.26129	83.02698
1863.28125	70.78778	4.94072	-10.46986	81.05480
1867.18750	68.37038	4.88288	-10.87251	77.71265
1871.09375	66.75880	2.90564	-8.45469	73.56974
1875.00000	62.32688	4.06607	-10.87199	69.46027
1878.90625	61.52125	6.40528	-12.88643	69.52012
1882.81250	64.74487	7.60105	-14.49790	70.16692
1886.71875	67.56565	9.15110	-7.64790	71.06895
1890.62500	65.95412	11.82031	-4.82710	74.65664
1894.53125	65.95428	13.93482	-10.06495	71.99438
1898.43750	63.13390	10.11556	-3.21491	65.29009
1902.34375	54.26951	7.45963	3.23227	60.51781
1906.25000	54.26963	7.36053	1.62087	59.60052
1910.15625	50.64336	6.60341	-0.79649	54.76756
1914.06250	49.03172	6.47252	-1.19924	51.13152
1917.96875	49.43464	7.40440	-2.40783	46.55930
1921.87500	44.19654	8.95189	-3.21344	41.63100
1925.78125	38.55552	8.78259	-2.81030	41.69979
1929.68750	33.31734	5.78949	-6.83938	38.08146
1933.59375	30.49669	6.65693	-10.46559	35.07475
1937.50000	31.70542	6.32809	-6.83900	39.11065
1941.40625	32.10831	5.23049	0.41398	37.68090
1945.31250	28.88479	6.97454	-4.82392	33.08463
1949.21875	28.88474	6.55820	-12.07654	29.43723
1953.12500	28.48173	4.41086	-4.01779	25.03204
1957.03125	24.45242	3.25750	-2.40592	18.36152
1960.93750	19.21432	4.35637	-5.22624	16.02917
1964.84375	18.81144	5.16415	-4.01728	18.85068
1968.75000	23.64666	1.65768	-1.19659	18.36333
1972.65625	19.61742	0.93937	-0.39055	17.37683
1976.56250	13.17057	3.02465	-2.40508	17.34832
1980.46875	16.39410	-0.51874	-4.41961	16.56394
1984.37500	19.61763	1.34125	-4.82240	17.53581
1988.28125	19.21479	4.38624	-4.41937	20.57826
1992.18750	22.43838	4.29790	-2.80747	24.59984
1996.09375	22.03563	2.40234	0.41616	25.18732
2000.00000	20.42402	-1.73836	-1.59832	23.56781
2003.90625	35.73553	-0.46070	0.41651	38.40948
2007.81250	43.39138	2.65785	2.02838	46.96551
2011.71875	28.48306	5.61895	-8.04471	24.54062
2015.62500	23.24513	9.04216	-12.47677	16.08723
2019.53125	37.34787	9.15911	-10.05900	30.59067
2023.43750	46.21247	10.64129	-12.47645	37.15108
2027.34375	52.25659	11.78601	-12.47627	43.53674
2031.25000	59.91247	15.37592	-14.49076	50.64354
2035.15625	59.91269	21.32797	-18.11686	49.67804
2039.06250	66.35984	21.69686	-18.11666	52.13432
2042.96875	73.20984	22.96606	-20.93706	53.24904
2046.87500	69.58379	23.71527	-22.14565	50.58972
2050.78125	67.16643	25.50854	-22.54832	48.51518
2054.68750	62.73434	32.00307	-24.96572	43.75894
2058.59375	63.94334	32.65100	-23.75670	40.64886
2062.50000	63.94356	30.87674	-22.14477	35.53148
2066.40625	55.48232	30.39090	-26.97964	29.85013
2070.31250	47.42398	30.37483	-26.57652	26.61924
2074.21875	39.36561	26.55782	-23.75582	26.12911
2078.12500	37.35119	23.08202	-20.12923	28.36429
2082.03125	41.38070	24.70588	-20.12901	27.51454
2085.93750	42.18678	24.96658	-20.12881	25.64443
2089.84375	37.35189	24.33288	-13.27875	24.44588
2093.75000	30.09941	21.50789	-14.48732	15.72424
2097.65625	29.69671	18.37230	-12.87539	13.26159
2101.56250	30.50282	18.15599	-8.44290	12.27437
2105.46875	25.26497	18.32548	-8.44267	7.35386
2109.37500	24.86231	16.24714	-8.44244	8.95840
2113.28125	24.05668	15.64051	-11.26269	7.70768
2117.18750	17.61003	12.47503	-12.06833	3.79771
2121.09375	14.38685	11.63201	-8.44173	3.50900
2125.00000	14.38706	14.90394	-9.24737	4.39569
2128.90625	11.16384	13.37082	-8.44130	3.12761
2132.81250	9.55240	10.56346	-8.44109	-0.33906
2136.71875	12.37314	9.01358	-11.26138	1.58006
2140.62500	8.74695	7.95620	-10.05236	5.64850
2144.53125	5.12084	8.66235	-10.05215	3.47611
2148.43750	9.15037	8.04945	-8.44025	6.95744
2152.34375	11.16528	5.46736	-3.60483	8.50671
2156.25000	7.13623	5.16365	-3.60459	4.58939
2160.15625	5.92770	5.92085	-4.81316	3.37889
2164.06250	7.53973	7.26067	-3.60416	3.79196
2167.96875	10.76343	7.13476	-0.38055	3.93240
2171.87500	10.76372	10.01972	-0.78322	3.62306
2175.78125	8.34649	11.80083	-5.21525	5.97229
2179.68750	5.52624	10.36178	-5.61793	5.15876
2183.59375	5.12366	10.70317	-2.39430	2.52480
2187.50000	6.33278	6.19695	2.03818	-1.10774
2191.40625	-0.51672	2.05660	2.84423	-8.13912
2195.31250	-4.94859	4.74491	-2.79654	-7.57176
2199.21875	-0.91901	5.56426	-3.60211	-2.71516
2203.12500	-1.72458	5.69703	-2.39314	-4.35351
2207.03125	-0.91837	6.85043	0.83056	-3.32361
2210.93750	-4.54450	4.94593	2.84543	-3.40848
2214.84375	-11.39404	5.34708	-2.79537	-6.22962
2218.75000	-13.40843	5.22735	-3.19811	-6.14477
2222.65625	-13.81110	2.72241	-1.98910	-11.20180
2226.56250	-12.19917	-0.16853	-2.39183	-12.78460
2230.46875	-14.61654	0.15161	-3.60034	-14.01445
2234.37500	-17.03390	1.51522	-4.80895	-19.01521
2238.28125	-13.81022	-1.12668	-6.42051	-18.02794
2242.18750	-15.01882	-0.63520	-2.79388	-19.22856
2246.09375	-18.24204	-1.55993	2.84735	-19.00970
2250.00000	-19.85349	-4.26880	0.02705	-19.40440
2253.90625	-18.64445	-3.12875	-1.58446	-21.35181
2257.81250	-14.21206	-3.42660	-0.77843	-17.41657
2261.71875	-17.03239	-5.58170	0.02757	-16.74957
2265.62500	-17.43508	-2.55792	1.63949	-12.32507
2269.53125	-10.98800	-0.66011	1.23671	-7.89035
2273.43750	-14.21126	-0.93340	0.43105	-9.61521
2277.34375	-19.44906	-1.67506	2.44586	-9.15056
2281.25000	-18.64306	-2.04140	4.46071	-11.82467
2285.15625	-17.03118	1.27404	2.44621	-14.48501
2289.06250	-18.64270	0.50228	0.43176	-18.14954
2292.96875	-23.07473	6.88886	0.83485	-20.87545
2296.87500	-33.55075	14.19844	1.23796	-32.31811
2300.78125	-49.66775	7.16719	6.07332	-49.58366
2304.68750	-68.20234	7.52264	7.68527	-68.59966
2308.59375	-87.13987	17.75397	4.05908	-94.50003
2312.50000	-103.25690	20.33430	2.85049	-110.73734
2316.40625	-124.61199	14.77634	0.03021	-128.02237
2320.31250	-149.19048	13.18078	-6.41649	-155.01071
2324.21875	-160.87523	16.99802	-10.04263	-170.23422
2328.12500	-174.57466	14.02708	-8.43073	-183.34795
2332.03125	-189.88577	13.20920	-10.04222	-201.03244
2335.93750	-187.46803	16.97799	-12.05669	-202.78821
2339.84375	-186.25903	16.80597	-10.84770	-201.58911
2343.75000	-187.46761	12.78128	-8.02700	-201.73131
2347.65625	-184.24393	9.87317	-7.22091	-201.28268
2351.56250	-175.78217	13.71601	-9.23532	-195.05678
2355.46875	-168.12625	15.56133	-8.83210	-184.49467
2359.37500	-152.41176	11.59587	-1.57918	-171.99603
2363.28125	-134.68257	16.23193	-2.78776	-154.62750
2367.18750	-130.65308	13.75649	-11.24905	-143.06126
2371.09375	-120.17668	2.91468	-7.21951	-132.29573
2375.00000	-103.65636	1.25459	-0.36946	-114.64702
2378.90625	-90.35943	-4.86777	-6.41317	-100.88743
2382.81250	-71.82439	5.59545	-4.39826	-83.72054
2386.71875	-52.88645	11.57775	3.25769	-63.07491
2390.62500	-42.41006	0.54734	7.28722	-49.01093
2394.53125	-27.50148	2.66192	-0.77115	-34.75015
2398.43750	-10.98114	2.87202	-16.88821	-22.91947
2402.34375	-8.56336	-0.99261	-8.82929	-15.60381
2406.25000	-0.50458	-3.50924	1.64713	-1.20975
2410.15625	14.80702	-5.87802	-2.78493	10.88045
2414.06250	19.23943	-5.20293	-2.38181	18.52662
2417.96875	26.89537	-4.67397	-0.36690	25.63959
2421.87500	36.56598	-7.55868	-6.81352	30.78481
2425.78125	42.61020	-7.32494	-5.60449	37.30071
2429.68750	50.26612	-1.05055	4.46899	41.74127
2433.59375	53.89279	-3.80935	1.24575	44.37594
2437.50000	55.90771	-10.18213	-5.20093	48.41211
2441.40625	57.51964	-8.45918	-2.38021	52.62370
2445.31250	59.13169	-6.71503	-3.18584	60.51858
2449.21875	64.37006	-6.72840	-2.37978	65.73603
2453.12500	71.22013	-2.83173	2.05272	70.59858
2457.03125	76.05561	-1.56740	2.05293	75.21043
2460.93750	76.86172	-1.67728	2.05317	77.71349
2464.84375	72.02686	0.74227	2.85930	76.50604
2468.75000	69.20670	1.66803	5.27719	71.58678
2472.65625	69.20705	-6.70593	3.26283	70.60067
2476.56250	71.62497	-5.82948	-3.58668	72.58709
2480.46875	69.61074	4.72969	-6.00401	66.96791
2484.37500	65.17883	4.57512	-1.16862	60.28445
2488.28125	65.17917	2.38201	2.45806	62.92432
2492.18750	64.77653	0.68200	4.07000	60.90218
2496.09375	65.98560	0.39817	6.48781	60.68413
2500.00000	66.79164	-0.92204	6.89092	65.10874
2503.90625	65.58318	-1.25608	1.65309	67.05685
2507.81250	68.40392	0.25069	-0.36144	71.58373
2511.71875	67.59828	0.79425	-1.57001	70.51431
2515.62500	62.76327	-3.43823	-2.37569	69.71668
2519.53125	62.36066	-4.53004	2.86262	68.10303
2523.43750	62.36086	-0.63019	4.87748	64.59034
2527.34375	65.18157	0.91751	2.05719	64.93220
2531.25000	59.54077	-0.73062	1.25152	61.56287
2535.15625	48.66188	-0.01655	4.47518	58.58273
2539.06250	50.67675	-0.45337	4.87828	61.03906
2542.96875	48.66235	-2.81055	1.65515	59.73635
2546.87500	45.03618	-2.86718	0.04363	54.65952
2550.78125	47.45404	-1.47685	-0.76199	53.79383
2554.68750	45.03669	-1.83216	-6.80571	49.84352
2558.59375	43.42522	-1.99009	-5.59667	42.70424
2562.50000	41.81377	-4.16731	-0.35838	39.60158
2566.40625	38.99344	-5.05604	0.44777	37.94965
2570.31250	38.18782	-1.44574	0.04504	33.10705
2574.21875	38.59101	2.39284	-1.16353	35.03455
2578.12500	40.60591	3.75223	-3.58083	38.88157
2582.03125	38.59148	4.57018	-1.16306	36.01725
2585.93750	40.20340	5.63665	1.65776	33.34135
2589.84375	38.59194	4.19708	1.65802	32.54576
2593.75000	32.54816	2.98375	5.28460	33.09158
2597.65625	32.54838	1.45980	4.07603	33.04657
2601.56250	28.51931	0.03465	4.07624	31.25347
2605.46875	25.69906	-0.60173	4.47939	29.15354
2609.37500	26.10226	-1.06833	4.07663	28.34055
2613.28125	22.47613	-0.86908	2.46515	26.68690
2617.18750	20.05879	-0.40815	1.25655	23.17993
2621.09375	22.47667	-0.44529	0.04793	21.27943
2625.00000	24.08871	-0.79975	-2.36948	23.77787
2628.90625	25.70076	-0.72116	-1.16048	28.95671
2632.81250	33.75973	-1.51380	1.25731	34.75760
2636.71875	34.96889	2.17443	1.25751	31.84162
2640.62500	22.47837	9.17568	-1.15986	16.16657
2644.53125	16.03176	9.88184	-2.36843	9.15914
2648.43750	20.06138	6.85135	-5.59162	17.07279
2652.34375	22.07641	5.88106	-9.62076	21.84553
2656.25000	18.04737	3.56268	-3.17366	25.58394
2660.15625	13.21251	3.91701	0.45290	22.35876
2664.06250	12.40694	5.25680	-3.17332	15.11619
2667.96875	11.19843	4.32504	-2.77022	14.45080
2671.87500	10.39289	4.79240	-4.78468	10.11212
2675.78125	9.58735	6.57348	-3.17280	4.80575
2679.68750	7.57296	7.14907	-1.96380	6.00686
2683.59375	9.18493	7.49051	-3.97827	4.98459
2687.50000	8.78226	4.99887	1.26005	7.39589
2691.40625	4.75326	-0.35028	2.06612	10.84072
2695.31250	5.55941	-0.07957	-1.15716	6.97583
2699.21875	8.38026	2.35155	0.05182	4.17669
2703.12500	5.55999	2.88728	-2.76848	2.53828
2707.03125	-0.48369	-0.39157	-6.79758	-0.46119
2710.93750	1.93416	-2.29613	-4.37981	-6.18707
2714.84375	4.75493	2.13426	-6.79714	-4.57598
2718.75000	3.14348	4.02911	-12.84093	-0.05888
2722.65625	0.72615	3.53877	-10.42312	-3.50414
2726.56250	-0.48236	0.64780	-1.96134	-3.07222
2730.46875	-2.49673	-0.24084	0.05353	-1.07862
2734.37500	-0.88468	2.73446	-4.78138	0.36757
2738.28125	3.14490	3.71893	-2.76656	2.96659
2742.18750	-2.89878	0.58394	-1.55754	2.97477
2746.09375	-4.91315	-1.95255	-1.96027	4.80529
2750.00000	-0.88359	2.59124	1.66634	1.99305
2753.90625	-1.28629	6.55176	1.66653	0.04556
2757.81250	1.13160	5.04513	-1.95968	1.96619
2761.71875	-1.28574	3.69592	0.45813	1.42453
2765.62500	-4.91182	3.89920	0.45836	-0.59779
2769.53125	0.72942	2.17070	-1.95903	1.82240
2773.43750	3.95315	3.10618	-4.77932	4.52990
2777.34375	9.99741	4.78211	-5.98788	6.60636
2781.25000	9.59480	2.80401	-2.36131	6.34988
2785.15625	-9.34268	-0.73034	2.47412	-3.16019
2789.06250	-5.31307	-0.69621	4.89189	2.44275
2792.96875	3.95462	-0.35356	4.89209	7.77556
2796.87500	-1.28316	-5.93776	4.08647	1.97398
2800.78125	-7.32679	-6.52205	2.07205	-2.39770
2804.68750	-8.93829	-3.34610	0.46056	-4.49063
2808.59375	-3.69991	-2.78505	0.86367	-0.57405
2812.50000	-5.31134	-3.83110	-2.35956	-4.32051
2816.40625	2.34467	-0.92747	-3.56809	-2.66782
2820.31250	2.34499	-2.12006	3.28191	2.98131
2824.21875	-5.31041	-2.73503	4.08796	1.05449
2828.12500	-4.50422	-1.27369	4.49111	1.23742
2832.03125	-9.33907	-1.68863	6.10300	0.47603
2835.93750	-7.32412	-1.14329	2.87975	1.13788
2839.84375	-4.90622	-2.12119	-1.55221	-0.48348
2843.75000	-4.50303	-0.90775	2.47733	-1.83445
2847.65625	-4.90563	-1.39831	3.68636	0.22589
2851.56250	-10.14345	-5.61403	-1.55150	-5.63613
2855.46875	-9.74037	-2.55990	-0.74543	-5.55016
2859.37500	-3.29320	-0.07846	0.86649	-3.52768
2863.28125	0.33350	-0.27751	0.46383	-7.11156
2867.18750	3.55712	-0.33534	3.68751	-4.40974
2871.09375	3.55737	0.10496	3.28480	-2.91155
2875.00000	-0.06869	2.07131	-0.74429	-2.58885
2878.90625	1.14037	-0.02170	0.86763	-2.93184
2882.81250	2.34944	-0.03463	4.09128	-2.28507
2886.71875	3.55846	-0.09634	1.67394	0.63162
2890.62500	2.75285	-3.47107	-1.14643	-1.42164
2894.53125	-1.27618	-3.77410	2.88306	-6.90425
2898.43750	-5.70813	-3.16107	4.09204	-9.98209
2902.34375	-4.90193	-2.99645	3.68935	-9.91899
2906.25000	-0.06653	2.54549	3.68955	-6.40398
2910.15625	-1.27507	1.38549	3.68971	-0.76059
2914.06250	-5.30408	-0.75998	5.70453	-0.36710
2917.96875	-6.51257	1.78370	0.06365	-4.13314
2921.87500	-2.88587	0.51066	-5.57715	-2.61426
2925.78125	-0.87094	-0.86737	0.46701	-0.53057
2929.68750	-1.67661	2.18358	8.12283	0.28365
2933.59375	-3.69103	3.85689	6.91422	2.91832
2937.50000	-4.09370	-0.90416	0.06462	3.73103
2941.40625	-2.88468	-2.00174	-0.33813	1.89868
2945.31250	-1.67567	0.95115	-0.33791	1.73494
2949.21875	-0.86954	-1.47985	-1.14356	0.10252
2953.12500	-4.49567	-3.62713	3.28889	6.97972
2957.03125	-6.10708	-1.95992	6.51256	7.96524
2960.93750	-3.68928	-1.26397	2.48348	0.79803
2964.84375	1.14618	0.75269	-7.18665	5.23156
2968.75000	1.95230	-1.14207	-12.82750	1.92391
2972.65625	-4.89723	-2.66627	-4.76862	-6.71792
2976.56250	-6.10573	-1.78984	4.49899	-3.11991
2980.46875	-4.09078	-0.90099	7.31972	-4.70989
2984.37500	-2.88167	0.95902	5.70823	-11.39342
2988.28125	-0.06086	-0.42820	4.90254	-9.55953
2992.18750	0.34240	-0.91950	4.90277	-9.16407
2996.09375	-0.06031	2.42300	4.90299	-5.35300
