 	TP9	AF7	AF8	TP10	
-1000.00000	26.46754	1.69657	-5.15484	29.64940
-996.09375	24.81412	1.90107	-2.91734	32.63294
-992.18750	19.69281	-2.37147	-1.39434	28.92859
-988.28125	19.27911	-0.59314	-0.33693	28.34397
-984.37500	23.38710	-0.77126	-0.21030	29.18456
-980.46875	24.07376	0.16005	0.56912	22.19866
-976.56250	23.94910	0.82633	-1.59013	22.48298
-972.65625	22.30972	-2.35303	-4.21900	31.47983
-968.75000	21.75829	-2.72617	-3.27970	30.52068
-964.84375	29.68396	-0.46329	-3.51310	31.17811
-960.93750	31.43396	-0.58809	-4.19835	29.00655
-957.03125	29.39915	-1.05126	-3.88388	25.95581
-953.12500	35.63105	1.71418	-2.18962	32.20898
-949.21875	33.91965	3.20959	-0.97698	32.63019
-945.31250	34.54965	4.26433	-1.99431	31.31989
-941.40625	31.24652	3.48024	-3.34101	24.70742
-937.50000	30.71073	1.90645	-1.33931	17.69703
-933.59375	32.24922	2.57678	-0.14151	18.62745
-929.68750	24.30776	5.12865	3.35029	15.70683
-925.78125	25.08196	5.35534	3.13907	15.48726
-921.87500	24.74241	1.88824	-0.88948	12.94252
-917.96875	24.68445	1.23516	-1.61514	11.43710
-914.06250	27.47035	1.03951	1.11847	19.34984
-910.15625	23.11477	-2.20484	-2.78676	18.40628
-906.25000	23.42843	-0.41087	-5.43686	17.50298
-902.34375	26.44521	2.29124	-4.09741	19.51040
-898.43750	25.85113	2.16993	-2.29663	15.26581
-894.53125	26.53108	4.35343	1.58918	14.24035
-890.62500	27.89657	2.96887	4.38670	13.30571
-886.71875	25.14062	3.89100	5.32038	9.53872
-882.81250	22.26844	5.49466	1.13716	6.94432
-878.90625	23.76238	2.69315	-2.17793	5.44054
-875.00000	22.18211	-3.19781	-1.95444	6.53697
-871.09375	15.66164	-0.30113	-0.10918	4.41405
-867.18750	13.67909	3.35569	1.56773	2.84837
-863.28125	11.82115	-0.58850	3.12977	5.06310
-859.37500	14.01373	-0.82383	5.18573	6.97294
-855.46875	21.28012	0.54487	2.17111	11.16696
-851.56250	18.21846	1.28300	-0.15575	9.84657
-847.65625	14.40618	1.20956	-0.17215	7.47584
-843.75000	20.49609	2.98025	0.26905	13.05795
-839.84375	17.98827	1.28695	1.65990	11.02607
-835.93750	17.38896	1.07365	2.68159	11.63173
-832.03125	17.01149	2.48392	0.62164	7.02581
-828.12500	14.00046	1.48481	-2.31390	3.24369
-824.21875	14.04810	-0.72072	-0.59432	8.35694
-820.31250	11.94041	-0.64682	-0.66966	5.53745
-816.40625	14.55237	-0.80833	-0.02249	1.10592
-812.50000	16.05276	-1.53329	2.62636	5.21025
-808.59375	13.64473	0.96100	3.60662	11.07367
-804.68750	9.40035	-0.81067	5.37596	7.06571
-800.78125	6.37262	-4.20932	0.20969	3.82660
-796.87500	2.31212	-7.92447	-3.92895	7.82214
-792.96875	2.83749	-9.15725	1.42646	12.45436
-789.06250	3.23889	-10.83566	2.28059	10.78943
-785.15625	6.14629	-10.98737	0.45245	9.97446
-781.25000	2.51891	-10.61057	-1.34481	3.89841
-777.34375	-2.79049	-8.59248	-0.57911	2.39521
-773.43750	1.53110	-8.30048	1.45387	6.99964
-769.53125	-5.15708	-10.12956	-0.64841	0.75008
-765.62500	-7.40750	-10.29585	-0.05145	6.18425
-761.71875	-4.43427	-13.00167	3.53029	8.99174
-757.81250	-5.16523	-13.69473	0.75708	-2.25129
-753.90625	1.24732	-9.84343	-4.94766	-1.88226
-750.00000	-0.69186	-6.18621	-1.14866	1.88059
-746.09375	-6.69461	-3.56911	2.65756	-3.11948
-742.18750	-7.21507	-5.74240	1.94020	-6.66993
-738.28125	-2.77277	-6.71392	2.49428	-0.04348
-734.37500	1.58000	-6.13180	4.38208	5.15771
-730.46875	-0.71931	-3.43566	4.00537	0.45622
-726.56250	-1.40137	-3.69797	0.52336	-1.03919
-722.65625	-0.56896	-7.36737	-2.08613	0.43776
-718.75000	-2.03330	-8.20200	-1.41397	-0.21729
-714.84375	-8.34841	-9.65801	-6.82185	-1.28015
-710.93750	-9.29372	-7.51748	-12.18078	-5.55792
-707.03125	-8.06602	-3.82989	-2.42218	-7.74785
-703.12500	-11.88146	-4.17669	-4.11665	-12.39190
-699.21875	-12.58884	-4.05932	-10.97055	-12.00986
-695.31250	-12.81708	-2.69550	-9.55046	-5.86716
-691.40625	-17.57375	-3.11921	-10.62152	-10.94229
-687.50000	-16.23333	-3.96199	-5.37063	-10.38156
-683.59375	-15.75838	-6.24298	-0.12167	-11.31470
-679.68750	-24.33825	-6.37617	2.83327	-23.30527
-675.78125	-30.75471	-8.21352	1.43261	-30.74411
-671.87500	-38.07214	-13.20689	2.23757	-37.06670
-667.96875	-49.70045	-10.94106	2.15722	-45.23430
-664.06250	-60.94928	-8.72969	3.45273	-55.97029
-660.15625	-78.75621	-9.11053	9.37246	-75.57892
-656.25000	-93.57674	-13.32098	13.23124	-93.21315
-652.34375	-105.45928	-14.81320	15.51799	-108.11713
-648.43750	-116.55152	-13.48209	12.91125	-117.17201
-644.53125	-117.23277	-8.81476	13.05451	-119.37276
-640.62500	-118.19672	-1.78804	13.07732	-120.05260
-636.71875	-117.05386	0.51433	10.12877	-116.28835
-632.81250	-109.75066	4.95568	10.28260	-113.69673
-628.90625	-108.02248	6.95237	7.95649	-118.23972
-625.00000	-103.22000	9.21806	7.32989	-114.90670
-621.09375	-99.11846	6.32241	7.49907	-103.51917
-617.18750	-93.91381	3.06947	7.83663	-91.48005
-613.28125	-77.95454	4.59713	8.28902	-81.60947
-609.37500	-66.85163	0.40126	-1.42271	-73.44872
-605.46875	-59.61372	-0.96639	-0.42291	-63.94582
-601.56250	-52.52406	2.32584	3.91841	-56.18124
-597.65625	-38.23690	4.41497	2.72583	-45.75459
-593.75000	-20.55527	3.85411	-0.53603	-35.62508
-589.84375	-12.00489	1.92212	-1.12119	-27.95495
-585.93750	4.30734	0.52470	1.88625	-19.29590
-582.03125	11.53326	1.13012	2.33432	-14.69270
-578.12500	12.12538	2.93613	1.24031	-11.31626
-574.21875	33.43174	0.30753	-0.88232	-0.31503
-570.31250	42.79081	3.86109	0.40166	2.50179
-566.40625	43.80392	9.66459	-1.85743	3.70708
-562.50000	43.91390	9.18175	-6.11814	6.04698
-558.59375	40.27673	11.92660	-4.68094	9.04544
-554.68750	40.08766	13.29638	-3.22699	19.90055
-550.78125	33.44368	13.47253	-3.70193	21.12246
-546.87500	29.04139	11.54767	-3.18982	21.95949
-542.96875	34.15569	11.57265	-4.11322	26.18914
-539.06250	36.17057	15.66968	-5.37040	26.23974
-535.15625	37.29115	13.80768	-6.36298	28.66379
-531.25000	34.87328	12.62608	-4.56588	28.69324
-527.34375	24.46707	9.40036	-3.72001	23.34406
-523.43750	17.72661	4.67721	-9.78246	22.36344
-519.53125	24.01049	7.31321	-12.11252	24.98411
-515.62500	25.45399	10.30106	-7.06853	24.78560
-511.71875	16.43559	8.57573	-5.41231	22.37849
-507.81250	22.40330	8.86686	-7.07147	28.38083
-503.90625	32.10659	9.44882	-4.99329	29.62074
-500.00000	25.58286	7.40431	-3.95722	22.63182
-496.09375	23.52562	5.99705	-4.13724	26.01746
-492.18750	25.25347	5.35088	-2.21121	30.37109
-488.28125	20.40681	5.51759	-2.36254	28.57701
-484.37500	20.48490	6.14528	-11.50325	28.61110
-480.46875	24.39445	5.06201	-7.09733	30.48926
-476.56250	29.91032	6.53424	1.21973	31.57909
-472.65625	30.28527	9.39882	-0.60318	32.51706
-468.75000	35.37463	9.83163	-0.87255	31.96068
-464.84375	37.65905	8.46819	-0.29999	35.84135
-460.93750	30.94732	6.32874	-0.58221	37.29600
-457.03125	38.58289	4.65689	0.53816	43.51265
-453.12500	45.62060	3.79598	-3.00570	49.36285
-449.21875	41.49172	3.67971	-5.01639	48.97834
-445.31250	41.31576	3.92864	-3.21314	48.87700
-441.40625	39.62431	1.93579	-2.14219	47.09976
-437.50000	36.67093	0.76503	-0.54340	45.73058
-433.59375	35.79195	0.62947	1.86319	49.48174
-429.68750	33.49162	1.97254	0.51978	52.20243
-425.78125	37.89224	2.60217	0.30855	54.80360
-421.87500	41.58218	4.37316	-0.09361	56.69139
-417.96875	42.33039	5.73470	2.00118	58.40971
-414.06250	42.69903	2.31555	1.10843	61.48752
-410.15625	46.80536	5.92094	-1.18504	61.35011
-406.25000	48.32818	6.10317	1.00000	59.23830
-402.34375	43.68958	4.77596	-4.10745	57.61964
-398.43750	45.11054	7.07226	-5.93306	44.51086
-394.53125	53.04348	5.62937	-4.46477	40.66509
-390.62500	50.78290	7.46823	-4.08477	46.58056
-386.71875	46.41559	6.37577	-4.35985	42.81388
-382.81250	42.73782	3.14431	-8.54312	39.01096
-378.90625	35.77057	1.95454	-9.44061	39.11922
-375.00000	39.02570	1.30163	-4.78492	41.82756
-371.09375	43.38479	4.19831	-2.93969	38.89902
-367.18750	50.26723	2.61711	-1.66569	41.36293
-363.28125	53.64779	3.50808	-1.31248	43.98078
-359.37500	43.34995	6.09324	-0.46539	40.24980
-355.46875	40.67477	4.25767	0.83515	41.53650
-351.56250	35.87313	3.67809	-2.42671	40.08448
-347.65625	27.21679	4.42068	-6.40656	37.32950
-343.75000	27.38546	3.08370	-3.64588	36.60069
-339.84375	19.88023	-2.57108	-1.58112	30.48988
-335.93750	15.30024	-3.25737	-4.30822	27.72018
-332.03125	20.34769	-1.55913	-3.62970	27.89697
-328.12500	16.18822	-0.14809	-3.27470	27.43797
-324.21875	13.40107	-1.84074	-6.13172	34.40570
-320.31250	13.78985	-2.89410	-7.17730	36.09120
-316.40625	12.31739	-4.31947	-5.82214	36.31863
-312.50000	5.90627	-7.17776	-3.60933	38.89154
-308.59375	3.63545	-4.70842	-3.35942	39.73024
-304.68750	8.86695	-5.16941	-0.56885	37.65209
-300.78125	3.30224	-9.28037	0.91271	38.18052
-296.87500	4.74255	-7.39340	1.52923	37.94127
-292.96875	14.28893	-5.92534	-1.15740	34.37548
-289.06250	15.72480	-4.82505	-1.01803	31.46488
-285.15625	21.44164	-1.66173	-1.46111	30.21304
-281.25000	18.66418	-4.80779	-4.30814	31.14105
-277.34375	15.96180	-5.63212	-4.82038	22.54033
-273.43750	20.90141	-2.23480	-5.54210	20.38553
-269.53125	16.97215	-0.89831	-1.88989	25.57840
-265.62500	17.27697	-1.38822	-2.35977	19.32806
-261.71875	22.02513	-3.98283	-5.51432	17.41213
-257.81250	29.87669	-4.27720	-5.12969	22.37860
-253.90625	34.59599	-5.37512	-3.46799	22.70702
-250.00000	36.76466	-6.62559	-0.73583	16.40014
-246.09375	39.48104	-5.15213	1.16915	14.64982
-242.18750	28.71975	-5.19424	-0.28831	13.93455
-238.28125	21.12407	-4.94364	-0.20633	12.50364
-234.37500	25.54696	-2.05144	1.03467	17.56881
-230.46875	21.88810	-3.06757	2.04299	13.57222
-226.56250	16.32223	-2.87718	2.27840	6.48715
-222.65625	14.99577	2.03430	0.89420	8.63462
-218.75000	13.09750	-0.38145	2.29212	10.27234
-214.84375	9.46390	-3.95070	1.92042	10.61869
-210.93750	7.77341	-0.29556	0.40327	8.20436
-207.03125	9.43567	-2.61868	3.38761	5.69545
-203.12500	8.27040	-4.45776	4.48058	12.80457
-199.21875	3.40495	0.54202	3.57270	15.71528
-195.31250	-0.76005	3.83288	3.61974	14.35812
-191.40625	-5.20232	4.51163	1.19554	11.55479
-187.50000	-8.99745	3.28190	-0.33630	4.99498
-183.59375	-6.34983	3.93851	2.41304	9.52666
-179.68750	-6.71819	1.85353	6.05151	11.53677
-175.78125	-3.51033	2.76189	2.10137	10.66998
-171.87500	-2.55843	4.10216	-4.84734	8.69483
-167.96875	0.08682	4.75472	-2.84715	6.37197
-164.06250	5.39434	5.86945	-1.27794	10.88974
-160.15625	-0.32257	3.14812	-5.18148	7.03321
-156.25000	-2.80972	4.11550	-1.42803	2.39333
-152.34375	-6.47899	4.92309	2.42086	0.81641
-148.43750	-5.23866	3.81743	-0.91983	-1.88875
-144.53125	1.20296	3.35152	-0.54719	5.20537
-140.62500	0.05570	1.20048	2.10722	6.26171
-136.71875	0.95078	1.44375	3.50569	1.23536
-132.81250	7.19302	4.15363	0.83893	3.62117
-128.90625	5.22232	2.48768	0.20979	0.73186
-125.00000	4.04707	1.22222	1.38371	2.53895
-121.09375	5.32246	3.26214	0.51762	7.63577
-117.18750	2.54720	3.60806	-0.42550	6.81814
-113.28125	2.17647	7.03135	-1.13232	7.02736
-109.37500	-1.59673	8.42381	-1.47138	5.33860
-105.46875	-3.40036	4.72206	0.08423	3.28135
-101.56250	0.99737	4.89974	1.33134	9.96927
-97.65625	-0.82333	6.57573	3.69926	12.72206
-93.75000	-7.43979	5.09327	3.35597	10.22523
-89.84375	-5.57655	4.30218	0.08220	3.84303
-85.93750	4.24059	4.98948	-1.62318	-1.04512
-82.03125	11.28008	5.70988	-1.49610	0.79043
-78.12500	11.40922	5.10577	-1.04546	-4.39373
-74.21875	9.36012	1.15842	-3.82967	-2.90220
-70.31250	7.35845	0.60108	-6.00784	1.05118
-66.40625	7.62098	0.81862	-4.94565	1.62731
-62.50000	5.16658	-2.36606	-1.51769	3.08150
-58.59375	4.21278	0.00072	-2.97656	0.22587
-54.68750	5.42696	2.07447	-7.37914	-3.74218
-50.78125	-2.30623	1.75416	-4.02574	-7.09332
-46.87500	-3.74769	2.68865	0.19266	-8.06513
-42.96875	3.22494	3.63922	2.07324	-2.08408
-39.06250	7.02600	4.95752	2.33654	-1.99627
-35.15625	16.61934	5.82453	-1.24996	-5.17897
-31.25000	16.57516	4.53942	-0.41782	-1.27408
-27.34375	14.03829	2.54430	-1.11459	2.48924
-23.43750	20.78252	3.58029	-2.81064	7.86521
-19.53125	22.29314	4.25942	0.38669	7.90817
-15.62500	22.79308	2.73572	2.46800	9.32111
-11.71875	19.25275	0.49623	0.38408	10.42893
-7.81250	17.44422	1.59749	0.40217	12.31006
-3.90625	19.57387	2.29352	1.96366	11.97928
0.00000	15.79263	1.93326	0.84288	9.82230
3.90625	17.50765	2.87834	4.17566	11.16744
7.81250	12.15096	2.11559	3.61814	10.26875
11.71875	8.46379	2.67183	-0.49345	10.48854
15.62500	9.68106	3.40709	-1.73475	10.65915
19.53125	6.08643	4.02120	-0.72861	7.80370
23.43750	7.62217	6.24944	3.87091	9.64842
27.34375	6.93328	8.99468	2.03149	9.91642
31.25000	3.99568	6.17335	-0.17253	7.06783
35.15625	9.64313	4.50558	0.60194	11.15150
39.06250	9.72125	4.07482	-0.70157	14.36955
42.96875	4.02899	-0.45086	-1.26847	19.69687
46.87500	-1.65631	-1.43136	1.66768	18.22657
50.78125	-3.64143	2.43429	1.76949	6.44923
54.68750	3.34340	6.80007	-1.90404	4.98382
58.59375	8.18777	6.52524	-3.91224	13.02315
62.50000	8.35569	4.53250	-1.97768	21.59556
66.40625	-1.54549	1.86223	1.71973	18.67356
70.31250	-9.63951	2.33643	4.12512	11.42329
74.21875	-3.98372	5.05545	4.85164	2.61764
78.12500	-0.50424	6.13371	3.33865	6.20242
82.03125	1.28189	5.07918	1.33826	12.95549
85.93750	4.43502	7.59172	-1.44001	10.45023
89.84375	-1.13108	8.29934	-1.56596	10.27530
93.75000	-8.31509	2.09478	-0.48441	8.06327
97.65625	-7.06423	1.28815	-4.33360	12.05567
101.56250	-5.08190	4.81229	-5.42528	9.92356
105.46875	-3.46578	6.48797	-0.15712	9.27423
109.37500	-7.15441	5.41653	3.23227	9.82751
113.28125	-6.43849	4.36839	0.22188	5.58430
117.18750	-7.44344	3.67418	-0.33498	4.40528
121.09375	-15.14387	4.53535	2.30871	8.09843
125.00000	-10.74596	6.20484	-0.47707	6.28933
128.90625	-10.41044	4.56885	-2.02863	-1.63012
132.81250	-12.47114	3.41813	-4.30907	-3.63504
136.71875	-6.46021	4.83108	-5.21408	3.40633
140.62500	-4.70252	5.05129	-1.65175	3.88413
144.53125	-2.09400	6.33652	2.03064	4.32756
148.43750	-1.65759	4.54817	2.39522	7.71072
152.34375	0.16208	2.47026	0.83306	5.76158
156.25000	7.98609	2.74492	-2.45016	8.65892
160.15625	12.16560	2.73104	-1.99704	7.78593
164.06250	20.47895	3.25349	-3.11235	5.01585
167.96875	15.45269	2.53402	-3.23958	5.59521
171.87500	4.84603	0.31862	0.33898	5.53872
175.78125	7.29662	-0.16538	1.10840	6.46200
179.68750	4.46152	0.79580	0.86871	-0.31467
183.59375	5.80910	0.17625	2.22393	1.52388
187.50000	5.44158	-2.27912	0.81045	9.33418
191.40625	4.78217	-1.82446	0.65746	6.14299
195.31250	9.20760	-0.27095	1.03058	5.27309
199.21875	7.67202	1.25915	0.09463	4.59227
203.12500	8.30628	-0.07730	-0.49759	1.53209
207.03125	14.22610	-1.83278	-2.37830	-0.01929
210.93750	15.25881	-5.16478	-3.85058	2.30795
214.84375	19.76678	-6.03086	-1.87609	1.86179
218.75000	22.22739	-3.53604	-0.69376	5.20716
222.65625	21.94263	-0.73409	0.00274	4.66490
226.56250	21.24138	-1.36612	-3.13649	0.49537
230.46875	18.52116	-0.83554	-2.30478	-1.96747
234.37500	13.99106	-0.51968	-6.80384	1.85545
238.28125	7.45745	-0.69676	-9.55530	0.74548
242.18750	6.84780	1.02342	-3.12659	-3.95826
246.09375	4.71763	1.53711	-0.65909	2.01145
250.00000	4.87211	1.09239	2.47607	0.53996
253.90625	10.00641	-0.65762	2.36643	2.01331
257.81250	8.51282	-2.71445	1.71484	1.29830
261.71875	7.76724	-0.85218	3.40858	-3.75860
265.62500	7.35525	1.63691	1.82914	0.90396
269.53125	2.89075	1.82958	-1.99766	0.53408
273.43750	2.56323	2.42277	2.26709	0.70214
277.34375	2.44579	1.29017	5.31514	3.25274
281.25000	3.36828	2.50065	-0.13675	4.89075
285.15625	3.76427	0.94597	-0.10556	4.83448
289.06250	-1.14946	0.57174	-0.41391	0.80873
292.96875	-1.50160	-0.13973	-1.45888	-0.08818
296.87500	0.95981	0.43884	-0.76888	-0.23149
300.78125	0.52673	1.81217	0.74085	-4.97611
304.68750	2.00281	1.47660	-0.01801	-7.13882
308.59375	6.42517	-1.06814	-2.84506	-9.53885
312.50000	13.50934	-2.70078	0.45835	-2.39867
316.40625	14.94829	-2.85001	0.38711	3.74500
320.31250	10.95371	-4.12919	0.80213	0.92013
324.21875	11.74425	-4.83255	3.70187	-0.75220
328.12500	13.50234	-4.70113	-0.82930	-0.71237
332.03125	15.34206	-2.43693	-0.84377	-1.82616
335.93750	17.82941	-2.12807	1.12844	-4.15794
339.84375	19.76854	-2.83480	-1.16340	-0.76143
343.75000	22.92274	-2.67330	-0.63344	-2.58049
347.65625	28.11830	-4.68625	1.20079	-4.15722
351.56250	29.35888	-0.15087	-1.33407	0.79367
355.46875	22.10118	-0.61679	-2.97602	5.47043
359.37500	12.49259	-5.58833	-1.93341	7.73590
363.28125	11.77612	-3.73339	0.27090	3.51580
367.18750	10.76572	-2.23231	0.42463	-0.54504
371.09375	9.60093	-2.28663	1.40713	-0.21063
375.00000	16.48421	-1.53756	0.16352	6.43188
378.90625	19.37125	-1.10938	-1.50845	7.09676
382.81250	17.80472	-0.76353	-0.03405	5.87631
386.71875	17.43386	-0.56374	-1.14377	6.89168
390.62500	14.46645	0.82873	-2.28870	0.36803
394.53125	12.25989	1.15620	-0.33015	1.13148
398.43750	12.22532	-2.29258	1.31983	2.98453
402.34375	9.59874	-5.45179	1.27012	-1.11231
406.25000	4.99688	-4.91974	-0.28196	-4.41474
410.15625	-4.42204	-1.68156	-2.74989	-8.78207
414.06250	-7.90163	0.21441	-4.45523	-9.23778
417.96875	-6.90622	1.33769	-5.13396	-9.81959
421.87500	-3.95672	1.94224	-2.26569	-9.76558
425.78125	-1.17076	1.21822	1.39699	-1.02113
429.68750	-11.23104	-0.14499	0.02480	-2.70864
433.59375	-12.17729	0.47543	-0.92769	-4.54984
437.50000	-17.45230	-2.70932	-3.14068	-6.72183
441.40625	-22.43544	-5.58068	-2.98780	-4.33914
445.31250	-8.73038	0.11943	-0.54054	4.98971
449.21875	-10.82241	1.81373	-2.42524	-1.18177
453.12500	-17.90479	0.73354	-3.84779	-7.39150
457.03125	-14.15559	2.48995	-5.19063	-5.43949
460.93750	-18.81597	3.40534	-4.52436	-6.56025
464.84375	-22.11644	2.25770	-0.45517	-4.50466
468.75000	-26.99572	-1.04210	-4.45815	-7.44936
472.65625	-26.30909	-3.44016	-7.57249	-10.13272
476.56250	-18.75901	-5.22479	-4.03040	-2.33895
480.46875	-14.02492	-4.94858	-4.45939	0.92768
484.37500	-9.09277	-3.65173	-6.40739	-2.09139
488.28125	-9.00665	-4.27951	-2.85024	-3.80389
492.18750	-10.41228	-2.37242	-1.62338	-1.51968
496.09375	-3.44760	0.74112	-3.68831	-4.67069
500.00000	-4.81138	-1.63376	0.42907	-10.45383
503.90625	-9.54339	-2.30045	2.55322	-12.73488
507.81250	-10.06502	-2.25733	-5.25694	-16.85686
511.71875	-7.70824	-2.90994	-4.53331	-16.63687
515.62500	-4.87929	-8.21874	-3.35694	-15.66016
519.53125	-9.27973	-7.20170	-7.18597	-20.93307
523.43750	-4.11750	-2.15299	-5.80994	-22.31157
527.34375	-6.41805	-5.85466	-5.63478	-19.62592
531.25000	-10.16149	-6.66136	-5.42125	-14.41580
535.15625	-4.11097	-3.89693	-4.64687	-14.36126
539.06250	-8.86801	-4.32769	-3.13000	-16.78415
542.96875	-14.15729	-6.83872	-2.48817	-16.69481
546.87500	-9.76929	-6.20755	-3.58138	-17.35915
550.78125	-8.12778	-5.96828	-4.68843	-17.45136
554.68750	-6.38080	-4.42303	-4.33264	-11.66389
558.59375	-9.99767	-5.90669	-3.92333	-8.86257
562.50000	-17.08210	-7.49651	-2.79464	-13.18393
566.40625	-17.71557	-5.73464	-5.14121	-11.27070
570.31250	-19.36251	-9.69265	-5.95934	-11.67109
574.21875	-16.52704	-11.00301	-7.24746	-12.01508
578.12500	-15.86790	-9.92472	-6.74582	-10.84779
582.03125	-17.30503	-7.75584	-3.91099	-8.12399
585.93750	-19.79275	-9.27246	-4.67455	-5.79401
589.84375	-22.13520	-8.96776	-8.02393	-7.58056
593.75000	-19.24587	-6.30782	-4.92769	-4.15152
597.65625	-15.98033	-5.90566	-2.32991	-2.97944
601.56250	-18.43012	-6.41079	-5.83917	-9.54372
605.46875	-21.64911	-8.36149	-5.00316	-8.98412
609.37500	-22.51729	-9.83594	-5.24007	-4.40145
613.28125	-20.18973	-8.46653	-5.83280	-1.79467
617.18750	-20.38897	-7.14621	-4.77792	-4.58531
621.09375	-20.43386	-4.27050	-2.13413	-4.92140
625.00000	-18.05079	-2.19817	-3.71109	-3.50701
628.90625	-20.13290	-3.83423	-6.47153	-7.39709
632.81250	-21.38786	-5.38798	-6.33438	-8.59600
636.71875	-20.61516	-7.19858	-7.64236	-6.38968
640.62500	-20.46914	-8.18720	-6.90054	-2.68823
644.53125	-15.04005	-3.67859	-4.42697	-1.43869
648.43750	-16.21522	-1.03485	-6.07709	-2.89040
652.34375	-20.43923	-4.32165	-5.22167	-4.83913
656.25000	-22.28517	-3.24110	-4.47554	-3.95585
660.15625	-19.31398	0.77434	-8.45463	-1.20173
664.06250	-9.38837	1.69972	-9.56994	0.86404
667.96875	-13.60806	0.57736	-6.07082	2.65304
671.87500	-17.36414	-2.04098	1.53702	4.61216
675.78125	-7.66012	-4.53960	4.32114	14.40093
679.68750	-2.03291	-5.59296	0.85802	23.74257
683.59375	0.92715	-7.01840	-0.60726	26.79100
687.50000	8.21599	-5.44449	-2.02076	28.55850
691.40625	13.60130	-4.98984	-0.56205	28.59175
695.31250	18.43033	-5.04801	-1.80070	28.93163
699.21875	20.52170	-5.12972	-0.72196	37.11618
703.12500	16.32137	-10.89843	3.11801	39.29503
707.03125	17.80968	-11.84807	4.46075	38.14732
710.93750	22.87238	-8.33029	4.19732	37.25187
714.84375	35.84246	-5.16706	2.54553	40.83574
718.75000	41.12406	-8.31327	1.31034	43.37593
722.65625	33.18412	-11.95815	3.21573	42.02850
726.56250	34.09513	-7.75507	7.73218	43.09770
730.46875	29.36056	-8.43327	6.54926	36.60609
734.37500	28.45710	-9.72923	5.27364	35.59431
738.28125	28.37057	-8.29468	6.55151	37.30526
742.18750	28.16399	-7.78334	7.33912	36.63116
746.09375	29.25746	-6.46374	6.58331	37.76591
750.00000	28.20316	-8.11726	4.48043	34.28006
753.90625	32.12878	-6.64384	5.98262	34.14191
757.81250	29.82944	-4.26852	4.92815	33.42714
761.71875	27.47228	-3.61509	4.60726	32.39970
765.62500	27.46342	-1.52889	4.63955	35.04776
769.53125	25.01367	-1.73922	0.81280	30.64871
773.43750	24.28330	-2.35479	1.04825	28.39925
777.34375	24.56883	-1.06985	2.08169	27.32360
781.25000	21.05906	2.15531	3.47968	26.14107
785.15625	21.05210	6.64446	3.10804	27.29362
789.06250	18.95890	6.67313	3.20271	22.86490
792.96875	16.99508	3.54407	1.35185	21.16218
796.87500	15.02427	2.10787	-2.79325	19.40717
800.78125	11.36775	3.07825	-1.28349	13.05084
804.68750	12.03805	0.72801	-0.43065	14.51444
808.59375	11.62527	-1.81673	-1.64595	20.17298
812.50000	15.08298	-1.83773	1.25449	22.47796
816.40625	19.34234	0.43054	0.78035	18.54828
820.31250	16.55649	3.58354	0.79242	13.30586
824.21875	17.74974	1.67126	4.49803	12.84227
828.12500	17.89595	1.39976	0.77286	15.29965
832.03125	18.12384	4.46984	-2.86791	15.39466
835.93750	19.80525	5.58447	-1.29861	12.65999
839.84375	14.89446	4.47474	0.03608	13.23604
843.75000	11.60177	1.81564	-1.85140	13.43165
847.65625	7.52981	0.20556	-4.44925	9.84040
851.56250	0.71166	-2.91479	-4.96939	5.92680
855.46875	-0.90510	-2.97790	-2.98494	6.17149
859.37500	-4.87269	-4.32317	-1.94225	5.61651
863.28125	-5.18631	-7.70632	-9.81113	4.61992
867.18750	-5.79372	-6.60822	-12.88077	1.36496
871.09375	-9.77896	-2.23037	-6.66012	-4.34455
875.00000	-6.11892	-1.07841	-3.87443	-2.13421
878.90625	-8.46973	-5.48542	-3.53170	-1.87218
882.81250	-13.66234	-5.13966	-4.07193	-3.89831
886.71875	-12.01819	-5.74575	-1.15233	-0.46528
890.62500	-12.56777	-6.77089	0.92623	-2.55657
894.53125	-7.92420	-5.63757	-2.35330	-1.79299
898.43750	-8.36130	-6.66876	-5.53851	0.06007
902.34375	-4.54070	-7.81336	-7.60279	-4.43961
906.25000	8.58672	-2.04318	-7.54317	-3.30972
910.15625	11.65904	-2.02847	-5.17580	-5.25937
914.06250	11.80619	-3.35596	-3.65767	-5.71478
917.96875	10.78730	-5.45615	-3.12758	-3.87855
921.87500	14.94592	-6.46335	-0.66224	-6.64454
925.78125	16.12058	-2.35217	-8.28151	-4.34637
929.68750	4.04603	-4.52134	-18.51815	2.83117
933.59375	9.95002	-5.51263	-18.26167	3.81102
937.50000	19.58387	-1.44462	-19.26587	-0.77801
941.40625	10.57175	-1.09255	-18.70999	-12.09439
945.31250	-3.92795	0.17530	-20.29193	-28.55277
949.21875	-15.28711	0.25782	-20.16189	-35.52967
953.12500	-19.95158	2.40107	-19.56977	-42.94762
957.03125	-25.46951	2.14280	-22.12140	-55.50060
960.93750	-23.68275	1.44645	-22.66384	-53.39759
964.84375	-27.38584	2.71627	-22.62391	-58.99728
968.75000	-37.10016	2.63989	-19.37413	-64.76199
972.65625	-34.39870	3.06220	-17.65321	-55.75993
976.56250	-24.02789	2.08341	-20.15512	-45.14524
980.46875	-18.89068	1.15076	-18.97231	-35.43133
984.37500	-12.34642	0.43292	-15.27919	-30.79425
988.28125	-8.63379	-1.40375	-12.12494	-21.22417
992.18750	-3.59238	-1.10846	-10.09223	-19.74543
996.09375	-1.05981	0.39333	-12.96296	-25.31360
1000.00000	-2.42355	1.24181	-17.30708	-25.45529
1003.90625	-1.51434	0.57515	-12.36239	-24.91540
1007.81250	1.59048	-0.99356	-9.29340	-20.57542
1011.71875	5.55899	-1.64613	-12.59911	-18.34047
1015.62500	7.17914	-1.71691	-11.01984	-15.34867
1019.53125	10.03122	-0.29708	-8.40201	-11.75679
1023.43750	11.56680	-0.88966	-7.02613	-6.68821
1027.34375	9.66885	-0.96522	-8.05990	-12.46391
1031.25000	14.78969	0.24259	-9.05522	-15.71510
1035.15625	18.82528	3.40973	-7.87801	-5.18409
1039.06250	9.63589	4.59055	-5.55534	-3.98039
1042.96875	8.77866	2.48225	-3.70475	-1.87627
1046.87500	10.34606	1.50157	-2.78336	1.89194
1050.78125	3.92886	0.12903	-2.27869	-5.85568
1054.68750	7.28748	-2.75805	-2.32594	-5.70899
1058.59375	12.93795	-3.43597	-2.72256	0.31598
1062.50000	19.15015	0.21213	-0.78809	-2.39346
1066.40625	22.14300	0.36221	-1.92593	-2.89750
1070.31250	17.67566	-1.98413	-3.95290	-0.07410
1074.21875	12.04959	-2.08579	-4.43527	4.01437
1078.12500	3.03846	-1.41055	-5.14250	4.37597
1082.03125	4.01885	1.16119	-3.51649	0.65310
1085.93750	12.00732	1.65902	-2.26548	-1.04593
1089.84375	8.05311	-0.45394	-3.19737	-3.63800
1093.75000	7.31601	-0.21167	-0.90712	-1.82047
1097.65625	6.55227	2.20503	4.10817	-1.05114
1101.56250	0.87903	4.52036	3.82230	-0.76542
1105.46875	4.91278	-0.25098	1.43475	3.01781
1109.37500	7.26807	-2.12838	1.19775	1.55682
1113.28125	5.56639	2.06136	1.41086	-3.08896
1117.18750	3.35248	0.15813	0.04811	-2.25302
1121.09375	5.72510	1.42201	-2.94926	-4.60360
1125.00000	16.16679	4.30008	-7.34690	2.45206
1128.90625	10.86124	-2.17125	-1.64587	5.81506
1132.81250	-0.86984	-2.91929	4.93811	-4.65109
1136.71875	0.70884	-1.90952	4.03306	-0.02692
1140.62500	7.70469	-3.30123	4.37200	1.25714
1144.53125	13.53683	2.41604	3.21919	2.90982
1148.43750	7.52659	3.44797	1.97203	-0.55629
1152.34375	7.33202	0.96689	-0.79898	-7.33997
1156.25000	16.76829	1.24143	-3.27635	-2.83012
1160.15625	16.51601	0.01860	-3.22615	-0.47882
1164.06250	16.36848	-1.47369	-3.13263	-1.23339
1167.96875	20.61032	0.62723	-3.66283	3.77908
1171.87500	20.48062	2.03805	-0.89019	5.33525
1175.78125	17.29095	2.35985	1.08796	2.23034
1179.68750	15.66558	3.32093	-4.79280	-0.91879
1183.59375	22.65518	-0.52218	-4.24340	-2.70541
1187.50000	21.88564	-1.76898	-4.04510	-0.93792
1191.40625	14.78045	-0.91148	-8.63037	-4.12789
1195.31250	13.16274	-0.56679	-3.82508	0.64442
1199.21875	9.61323	-2.26027	-3.55223	0.77051
1203.12500	7.83076	-9.23792	-6.15911	-3.09449
1207.03125	8.51331	-10.99351	-1.99586	-2.63037
1210.93750	6.32338	-4.65533	1.36697	-8.76373
1214.84375	4.38522	-1.08927	1.32696	-10.82061
1218.75000	2.01147	-1.81802	-0.31122	-6.26555
1222.65625	6.56262	-1.43376	0.78832	-1.16590
1226.56250	7.47369	-2.46893	6.51349	-8.15519
1230.46875	1.53051	-3.95309	21.44784	-10.21434
1234.37500	7.47707	-0.81688	33.06607	-5.98774
1238.28125	5.37599	-0.18828	32.32927	-6.29125
1242.18750	1.14020	-2.09463	31.90815	-3.74164
1246.09375	2.23378	-2.78989	31.15236	-0.99492
1250.00000	4.40307	-2.42884	31.06414	-0.85419
1253.90625	9.13468	-2.97017	30.14868	-0.99214
1257.81250	1.59734	-4.22132	28.28843	0.71080
1261.71875	-3.98314	0.05844	29.17631	0.48944
1265.62500	-5.20063	2.54746	28.40277	5.95823
1269.53125	-7.65024	3.54585	23.36722	9.61799
1273.43750	-8.38045	2.52724	16.75292	0.11601
1277.34375	-10.10934	0.18577	14.96582	-1.76529
1281.25000	-9.99246	0.18742	15.96093	0.27584
1285.15625	-5.56696	-2.17327	13.97756	1.42870
1289.06250	-6.85402	-4.56226	13.26642	3.04435
1292.96875	-5.19131	-2.45332	13.83324	3.75942
1296.87500	-5.55042	0.94554	14.12036	4.82502
1300.78125	-3.56569	2.31885	14.82427	5.31861
1304.68750	5.16349	0.37154	11.24494	6.37945
1308.59375	4.34788	0.64728	8.01500	5.59120
1312.50000	3.77636	-1.79137	6.48320	2.65812
1316.40625	6.82699	-6.77586	4.80029	1.54902
1320.31250	2.42951	-2.81696	7.63287	-1.67875
1324.21875	6.84644	2.52356	6.90619	1.88707
1328.12500	7.79858	1.04312	2.37507	1.92680
1332.03125	4.80299	-1.52779	1.95764	-5.23109
1335.93750	16.15462	-0.01025	4.33277	2.10759
1339.84375	19.30250	-1.12000	3.65265	-0.94269
1343.75000	14.80085	-1.36146	2.57098	-0.74692
1347.65625	14.35511	-2.16573	3.59940	7.74984
1351.56250	19.62478	-4.48032	1.87041	2.62749
1355.46875	26.87232	-3.73754	-0.17448	0.05154
1359.37500	22.09867	-3.06817	1.27113	-1.71233
1363.28125	19.36742	-3.22790	1.05786	-0.29149
1367.18750	15.93937	-2.12985	0.00285	6.92974
1371.09375	9.13355	-3.39305	1.79121	4.44358
1375.00000	4.33200	-4.65870	-1.87000	1.41593
1378.90625	5.20462	-3.42467	-8.37705	2.88683
1382.81250	8.87644	-1.87011	-5.69382	2.47251
1386.71875	4.47666	-1.26740	-5.99776	0.26458
1390.62500	-0.10218	-1.88963	-7.14263	-3.84136
1394.53125	4.54144	-2.36809	-10.42225	-3.07772
1398.43750	6.11909	-1.78758	-13.20448	-2.83625
1402.34375	9.93977	-5.34973	-6.80727	-3.30654
1406.25000	13.79988	-8.44408	-4.33003	-2.98250
1410.15625	10.02246	-5.20593	-5.18618	-7.34969
1414.06250	13.39315	-5.72758	-8.50323	-12.23749
1417.96875	19.62719	-6.21609	-4.74972	-7.98395
1421.87500	20.15969	-3.99981	1.74499	-4.70635
1425.78125	18.91697	-1.09744	1.78135	-2.81148
1429.68750	17.31874	-0.04318	0.81215	-1.27526
1433.59375	16.77585	-2.64628	0.26272	0.10725
1437.50000	13.91894	-2.60763	2.07910	1.56186
1441.40625	12.56261	-1.85262	2.63492	-0.08450
1445.31250	6.92747	-1.39069	0.24713	-2.03747
1449.21875	-2.81986	-1.71107	-1.23465	0.65575
1453.12500	-4.26086	-4.80594	-3.06013	-3.13605
1457.03125	-7.76395	-4.66130	-0.77653	-9.24233
1460.93750	-13.63269	-5.35775	-0.91604	-11.16879
1464.84375	-13.70926	-6.10253	-3.69659	-9.91882
1468.75000	-14.96185	-2.55257	-2.86445	-3.99877
1472.65625	-13.87197	-1.32434	-2.75521	-5.47307
1476.56250	-15.58902	-3.10900	-3.64536	-6.54347
1480.46875	-20.92800	-1.62411	-4.88015	-4.88824
1484.37500	-15.99554	-0.73034	-12.87203	-3.07204
1488.28125	-12.68570	-2.16404	-16.16462	-3.57539
1492.18750	-13.28527	-0.65989	-11.71434	-5.72294
1496.09375	-14.78186	-0.36692	-8.13805	-8.47070
1500.00000	-21.78644	-5.56243	-4.42358	-13.04464
1503.90625	-24.90649	-7.84086	-2.70240	-13.71366
1507.81250	-18.98098	-3.76857	-3.66272	-6.95617
1511.71875	-17.42994	-2.40660	-5.35659	-4.72117
1515.62500	-23.46533	-5.70075	-5.38902	-13.81729
1519.53125	-29.47742	-7.10137	-6.39753	-19.08989
1523.43750	-28.74740	-5.67908	-2.60378	-17.64754
1527.34375	-33.46550	-2.53107	-3.23436	-21.00554
1531.25000	-40.43240	-5.35254	-3.82664	-27.07721
1535.15625	-42.03761	-5.40876	-1.44052	-29.84284
1539.06250	-59.68845	-3.82492	-3.54999	-44.35341
1542.96875	-75.05097	-8.35068	-1.69926	-62.79859
1546.87500	-88.79475	-12.55473	3.25163	-75.55054
1550.78125	-97.22659	-7.88340	4.96511	-90.95376
1554.68750	-104.34410	-6.33824	6.52966	-107.32719
1558.59375	-119.64597	-9.03083	6.13314	-120.64288
1562.50000	-135.19208	-9.00909	5.24721	-137.45479
1566.40625	-142.27243	-5.63559	2.90068	-141.58524
1570.31250	-141.50179	0.07662	-0.73794	-142.79117
1574.21875	-132.21936	1.18373	-0.01143	-144.74660
1578.12500	-122.29274	1.45595	2.90781	-137.93794
1582.03125	-118.08877	0.40122	2.11626	-133.60210
1585.93750	-108.08557	0.49609	-1.46781	-124.01896
1589.84375	-101.56346	0.80065	2.83844	-111.29967
1593.75000	-92.22717	-0.56893	4.32282	-96.58823
1597.65625	-88.96149	2.25063	0.87657	-82.52209
1601.56250	-78.51733	3.35710	0.18777	-67.73067
1605.46875	-62.79832	-0.60845	3.84424	-57.50043
1609.37500	-60.84570	-5.30646	2.39846	-54.93206
1613.28125	-44.81824	-0.71381	-0.61188	-39.83416
1617.18750	-23.66182	4.23274	0.84589	-25.29852
1621.09375	-14.84190	1.87019	-0.53981	-16.76991
1625.00000	-8.83195	0.71896	0.30071	-5.28191
1628.90625	-2.04915	4.72381	-0.04220	-3.12771
1632.81250	6.36667	-1.26232	-3.53143	-3.11746
1636.71875	11.57205	-10.32589	-4.83944	5.13319
1640.62500	10.91265	-6.07655	-6.11222	12.05842
1644.53125	17.14802	1.25242	-5.65339	19.75513
1648.43750	18.79380	1.47849	-4.08000	23.13887
1652.34375	21.82293	-0.19672	-3.62753	22.80209
1656.25000	21.58905	0.07786	-3.68731	26.10315
1660.15625	21.33702	-0.74194	-5.65173	26.84269
1664.06250	30.45694	-0.62251	-7.57289	31.32627
1667.96875	33.49017	-4.56552	-8.10311	30.69774
1671.87500	39.40463	-5.16936	-5.33043	27.41883
1675.78125	37.42397	-0.01246	-1.33757	28.34325
1679.68750	35.39579	0.94861	-3.59191	32.84984
1683.59375	43.99722	1.53773	-3.84838	40.73373
1687.50000	39.60147	-1.72373	0.37911	34.03988
1691.40625	40.55494	-0.46342	-4.20606	27.22367
1695.31250	50.21957	3.50759	-3.43003	33.60784
1699.21875	48.68508	4.63453	0.87209	34.94281
1703.12500	48.91744	4.90961	-0.52599	31.48080
1707.03125	60.07635	3.15392	0.41380	34.36259
1710.93750	67.55696	3.85095	-0.25260	34.67637
1714.84375	76.09511	3.38765	-1.90439	37.05186
1718.75000	79.76537	4.67349	-1.12496	39.99541
1722.65625	72.63160	5.05768	-0.02549	35.42484
1726.56250	66.69308	4.82832	-1.15003	32.46514
1730.46875	62.76477	4.95584	-3.54176	31.21207
1734.37500	70.72623	3.65980	-6.83208	31.81246
1738.28125	70.64009	3.07959	-7.16599	31.91217
1742.18750	61.97247	5.60547	-3.96081	27.20918
1746.09375	67.09566	7.73079	-1.09027	25.52387
1750.00000	68.45956	4.06254	0.43316	26.47073
1753.90625	67.95353	4.32701	3.54705	31.16828
1757.81250	64.04308	6.70222	5.31315	27.63335
1761.71875	55.23970	5.74379	1.36587	19.75654
1765.62500	51.20225	6.21817	-1.01940	22.80794
1769.53125	40.29173	8.82822	0.39185	23.24452
1773.43750	38.75634	8.61542	1.43324	25.42777
1777.34375	46.29546	8.28860	4.48134	31.60540
1781.25000	40.36892	8.69323	3.86467	25.99114
1785.15625	34.72176	5.92958	-2.14803	22.71200
1789.06250	37.86733	3.54053	0.36416	27.55118
1792.96875	37.11310	2.82892	6.16904	31.48992
1796.87500	33.12833	5.82485	7.66493	34.57040
1800.78125	27.86080	1.95993	5.14544	30.63185
1804.68750	26.92010	1.62422	4.78949	24.43995
1808.59375	20.06119	7.54089	4.38003	26.87542
1812.50000	14.25235	9.53440	5.66878	29.58372
1816.40625	11.66272	8.17619	5.59752	26.05742
1820.31250	6.05718	8.10569	1.98323	24.84472
1824.21875	6.04259	11.43147	4.07709	23.97860
1828.12500	0.95150	11.15982	4.38118	21.60123
1832.03125	-0.83447	7.78289	3.15798	23.30832
1835.93750	4.47406	5.67398	2.30964	27.82672
1839.84375	3.99627	3.35539	2.03255	28.00013
1843.75000	4.33055	1.50207	2.15962	22.55491
1847.65625	6.70618	3.11531	2.78514	22.99324
1851.56250	3.11226	4.42701	4.68248	21.49750
1855.46875	-0.92151	3.55791	2.63758	21.33952
1859.37500	-6.90316	1.80963	2.47141	22.79937
1863.28125	-8.82786	2.05264	3.06402	21.80295
1867.18750	-7.41996	1.53889	3.21783	20.96591
1871.09375	-15.03088	-0.12731	3.79736	16.06257
1875.00000	-16.20543	0.62153	1.74783	15.85545
1878.90625	-11.70601	1.04949	-1.53594	15.31172
1882.81250	-12.86910	0.99230	3.16183	14.49453
1886.71875	-8.00124	0.78892	6.08138	12.28672
1890.62500	-2.90948	-1.44520	4.93639	8.98667
1894.53125	-3.50389	-3.13255	5.28313	17.80903
1898.43750	-13.20819	-2.95519	5.32140	20.06525
1902.34375	-15.43126	0.33234	3.25700	15.56583
1906.25000	-7.94473	0.46128	6.13717	17.50173
1910.15625	-12.12496	-5.56814	4.47513	6.28483
1914.06250	-8.35123	-4.88109	-2.87124	7.03837
1917.96875	-3.32586	-6.98143	-1.13234	11.69509
1921.87500	0.02726	-6.37704	3.34759	8.12300
1925.78125	5.63438	-0.65430	8.62199	13.24143
1929.68750	9.67723	0.39984	6.04102	13.56900
1933.59375	13.96956	2.22887	3.47682	12.13115
1937.50000	15.14186	2.26737	2.06966	14.79469
1941.40625	17.41191	1.81340	1.41662	13.14847
1945.31250	19.02953	0.66350	2.65510	12.40449
1949.21875	9.28221	-4.89513	-0.03542	11.87445
1953.12500	10.25877	-2.75211	0.95958	11.70920
1957.03125	13.60558	1.01869	3.24312	11.24420
1960.93750	10.15452	0.32214	2.29763	12.13868
1964.84375	9.67510	0.78592	4.35223	11.77722
1968.75000	1.16976	-1.30530	3.16975	1.58027
1972.65625	-0.15778	-0.88316	-1.15339	1.71774
1976.56250	0.94608	-3.87669	3.59743	5.07956
1980.46875	-3.58680	-8.43588	3.57139	5.52602
1984.37500	-4.69814	-7.54222	-1.60008	7.74542
1988.28125	-7.02908	-11.79659	-1.26655	6.03335
1992.18750	-6.01658	-17.94834	-0.03993	2.67696
1996.09375	-10.73636	-15.64085	1.52133	6.77892
2000.00000	-20.96416	-13.18082	0.40037	11.47234
2003.90625	-9.57838	-14.65363	-0.69915	14.83270
2007.81250	2.79437	-11.79018	-0.45095	13.93452
2011.71875	-9.35391	-11.63709	1.07836	0.85812
2015.62500	-11.76255	-14.52849	1.04572	-0.17952
2019.53125	-11.73044	-19.15268	0.84284	0.59186
2023.43750	-17.44707	-20.95401	1.00997	-4.81566
2027.34375	-13.30033	-18.20906	0.78216	-0.92080
2031.25000	-8.17884	-17.40422	0.59263	1.06638
2035.15625	-2.93375	-18.66934	-0.64774	-0.08735
2039.06250	-6.07853	-19.10027	-2.75731	1.92243
2042.96875	-9.35291	-16.77631	-1.30977	4.02674
2046.87500	1.48254	-17.75701	0.01447	3.76585
2050.78125	6.34805	-17.11512	-0.28689	4.47996
2054.68750	8.90140	-15.97303	1.27747	5.43274
2058.59375	5.28506	-13.83052	2.89541	-1.03281
2062.50000	2.63336	-11.79420	2.00930	-5.35368
2066.40625	5.62664	-14.46473	2.08021	-4.64872
2070.31250	-2.06365	-13.18494	1.66486	-10.68953
2074.21875	0.36942	-10.46615	-0.42929	-9.01842
2078.12500	8.28187	-11.80563	-0.33075	-2.61263
2082.03125	10.87463	-14.06918	-0.31655	-1.50011
2085.93750	14.43154	-10.34796	-0.67737	0.83049
2089.84375	15.71624	-4.40246	-0.80348	0.25327
2093.75000	14.97992	-2.95152	1.08383	2.87696
2097.65625	10.18761	-6.98185	1.66684	0.82613
2101.56250	11.36484	-6.27838	0.97805	-6.94653
2105.46875	14.99638	-2.99115	-0.20075	-5.98370
2109.37500	14.12898	-3.65988	-1.64669	-9.86220
2113.28125	20.88953	-1.48480	-0.62790	-4.43458
2117.18750	22.30277	-0.16468	1.23269	2.84825
2121.09375	23.06453	-2.52736	0.65268	5.73578
2125.00000	27.05996	-5.69350	-0.92464	5.94151
2128.90625	27.39596	-4.10639	-0.86491	1.24571
2132.81250	26.54456	-2.83999	-1.93683	0.04695
2136.71875	22.48281	-3.03920	-5.25976	1.04473
2140.62500	20.61477	-2.81934	-2.50359	0.71700
2144.53125	24.02981	-3.54912	2.79019	7.20472
2148.43750	24.86978	-1.71152	0.73694	12.19995
2152.34375	30.31660	-0.16349	0.78617	8.23674
2156.25000	23.63590	-4.32130	3.14370	4.68786
2160.15625	9.68449	-8.36472	-1.23866	-0.21369
2164.06250	12.35792	-6.23088	-4.77179	-0.56530
2167.96875	15.39118	-2.11545	-6.51107	2.43262
2171.87500	11.23244	-1.91362	-6.55922	7.21232
2175.78125	14.49005	-6.02426	-1.35780	9.74839
2179.68750	17.70011	-4.66036	-0.79180	5.79327
2183.59375	13.81085	-4.47434	-1.85441	1.99183
2187.50000	17.87677	-4.51249	1.16411	4.16235
2191.40625	13.18933	-0.83469	1.81682	4.59876
2195.31250	5.52796	-2.10195	0.98093	-1.10518
2199.21875	3.59048	-2.58683	1.25361	0.22952
2203.12500	3.41980	-0.70018	1.06412	0.79657
2207.03125	3.29668	1.57333	2.00376	-1.15694
2210.93750	2.31582	0.65856	3.75474	1.57410
2214.84375	3.60130	1.00101	3.31161	2.33748
2218.75000	-3.60756	3.09260	4.09091	1.65419
2222.65625	-6.71198	-0.14965	0.35512	-0.49911
2226.56250	-0.56275	-4.81137	-5.60476	-3.05629
2230.46875	-3.68533	-5.08690	-3.56432	2.13715
2234.37500	-7.00606	-1.14503	-0.00486	-0.08332
2238.28125	-10.31583	-1.72539	1.27293	-6.83385
2242.18750	-10.52209	-4.03477	-1.96886	0.14778
2246.09375	-9.02543	-1.10372	-4.73943	-1.53792
2250.00000	-22.16727	-4.36917	-7.64823	-8.24725
2253.90625	-23.88247	-9.74582	-8.16087	-8.38530
2257.81250	-22.15210	-13.81752	-8.40957	-5.87661
2261.71875	-25.31464	-15.58186	-7.92471	-4.08343
2265.62500	-21.29378	-10.27238	-8.69837	-10.29983
2269.53125	-22.13138	-9.27409	-12.92822	-11.87825
2273.43750	-22.86119	-12.30752	-9.06646	-9.29239
2277.34375	-20.96341	-8.60510	-12.86832	-7.14443
2281.25000	-18.42863	-6.18601	-15.09681	-7.52080
2285.15625	-14.40575	-8.94972	-8.21581	-8.38259
2289.06250	-19.31898	-9.32421	-7.71832	-5.15523
2292.96875	-17.25311	-6.40954	-6.74865	-0.81363
2296.87500	-15.59708	-5.02546	-7.26745	-3.77702
2300.78125	-14.41802	-3.24942	-10.18996	-6.90951
2304.68750	-12.94147	-6.00277	-8.12826	-5.84829
2308.59375	-16.17417	-4.92140	-4.91144	0.61656
2312.50000	-13.11890	-0.10746	-5.23448	3.72787
2316.40625	-17.72345	-1.46572	-5.70861	-2.21594
2320.31250	-14.06181	0.88120	-0.86134	-0.60801
2324.21875	-7.22680	1.38639	-2.39391	0.13785
2328.12500	-8.69185	-1.70591	-5.31322	-5.46284
2332.03125	-8.46344	-1.05370	-2.50722	-2.94975
2335.93750	-10.40787	0.06072	-2.54967	-0.44581
2339.84375	-15.31822	0.56258	-0.40921	-7.52492
2343.75000	-13.37253	-0.88791	2.53841	-9.74641
2347.65625	-10.19123	0.32227	-3.68588	-13.33732
2351.56250	-10.96486	0.82802	-5.81778	-9.99777
2355.46875	-16.20749	-3.26460	-2.62457	-6.93213
2359.37500	-19.77175	-3.40126	-5.20824	-15.94814
2363.28125	-18.07024	-3.96429	-7.03318	-8.07991
2367.18750	-16.25959	-2.06061	-6.07358	-6.09637
2371.09375	-6.14170	-1.30943	-4.28513	-8.58192
2375.00000	-2.07829	-2.57530	-3.51403	-5.56536
2378.90625	-4.42861	0.27009	-7.60352	-3.28838
2382.81250	-4.38269	-2.60781	-6.93491	-6.12004
2386.71875	-11.60255	-6.43758	0.01402	-9.13359
2390.62500	-18.59854	-6.65712	1.28666	-7.59833
2394.53125	-10.73121	-6.32998	0.82772	2.02990
2398.43750	-2.70629	-3.73512	1.26892	5.49498
2402.34375	-11.37615	-7.70044	1.21919	-1.01916
2406.25000	-10.73916	-8.78034	1.68173	3.73740
2410.15625	-4.44291	-2.72191	1.63144	6.62331
2414.06250	-0.26604	-0.42325	2.74663	6.97403
2417.96875	-7.32838	-0.10607	1.66492	4.37815
2421.87500	-12.03368	0.49818	1.71267	2.41805
2425.78125	-8.84391	0.57983	2.95784	6.73095
2429.68750	-9.23299	0.42509	2.79445	5.44712
2433.59375	-3.32855	1.85114	3.85675	6.02430
2437.50000	-2.15585	2.29252	0.03205	6.27055
2441.40625	-4.31762	0.62976	-1.42681	3.41584
2445.31250	2.53849	1.09153	-1.79996	5.49271
2449.21875	0.44723	3.59142	-4.49051	7.78353
2453.12500	-0.18743	1.30219	-1.48075	6.81265
2457.03125	1.95086	1.04370	-0.00307	3.93016
2460.93750	-2.30585	3.57057	-1.35143	0.79529
2464.84375	2.85600	2.42260	2.31487	1.64249
2468.75000	4.02135	-0.07159	0.72943	6.75686
2472.65625	3.49978	-0.85827	-3.19076	5.68574
2476.56250	7.02114	-1.03140	-4.48385	3.40682
2480.46875	8.93528	-0.75545	-4.91280	2.24170
2484.37500	14.67388	1.34699	-3.63728	6.87880
2488.28125	16.77510	0.71893	-0.48312	7.18146
2492.18750	11.34051	-1.00060	-0.86803	1.40762
2496.09375	2.18845	-1.11075	-5.75344	-5.77224
2500.00000	-3.20429	0.54344	-6.87412	-10.34601
2503.90625	-3.10056	0.68243	-2.73531	-0.13565
2507.81250	-0.39827	1.12814	2.75122	6.62209
2511.71875	-0.05594	2.49002	2.66903	6.84263
2515.62500	-0.04705	0.00152	1.02494	6.61104
2519.53125	-3.64119	-2.60796	0.82229	7.38263
2523.43750	-1.70204	-2.39461	0.98963	4.79580
2527.34375	-8.83736	1.55911	1.97080	2.64682
2531.25000	-18.22139	4.78148	0.57261	-0.60405
2535.15625	-10.96179	2.71049	-1.47343	-2.96651
2539.06250	-12.49501	0.26493	-2.37414	4.28147
2542.96875	-13.75460	0.57418	-0.52354	1.95368
2546.87500	-12.99244	0.80222	-2.01967	-3.94805
2550.78125	-11.75357	1.04127	-3.93259	-0.01035
2554.68750	-10.81226	1.37756	-3.57688	0.53966
2558.59375	-12.81717	2.31125	-3.16761	-1.09069
2562.50000	-4.59002	5.15351	-1.23307	1.03535
2566.40625	-4.41720	3.28886	-2.37093	1.33752
2570.31250	-14.52517	0.94230	-1.57735	-0.67389
2574.21875	-10.48048	2.85512	-1.65671	3.41493
2578.12500	-8.20908	1.51555	-3.97564	2.97103
2582.03125	-13.27221	0.46071	-1.94675	-0.75161
2585.93750	-14.95371	-1.05626	-1.90445	1.98185
2589.84375	-9.64018	-1.15480	-3.64224	3.82232
2593.75000	-14.80914	-0.91271	-4.57532	6.44615
2597.65625	-20.40755	-2.92843	-5.20102	5.20116
2601.56250	-15.20103	-2.62792	-1.45761	0.65214
2605.46875	-15.19593	-3.37013	-3.03931	7.65920
2609.37500	-16.06341	-2.83016	-5.69399	4.58680
2613.28125	-12.52637	-1.86395	-4.27218	1.15015
2617.18750	-9.50152	-2.15556	0.81196	6.82152
2621.09375	-8.33700	-0.08602	3.05263	2.05361
2625.00000	-7.16200	-1.64029	1.87844	2.66254
2628.90625	-9.24356	-3.27664	1.93850	3.20514
2632.81250	-9.28903	-2.01020	3.28443	1.20070
2636.71875	-8.51555	-0.19465	-2.05285	2.60156
2640.62500	-13.20416	0.42819	-4.53453	-0.94940
2644.53125	-11.80376	1.71301	-0.85225	-0.50540
2648.43750	-10.56056	2.74482	1.52688	-1.15076
2652.34375	-13.57511	-0.13937	-0.03535	-1.48734
2656.25000	-13.00294	1.74677	-1.70689	-2.61845
2660.15625	-8.01661	4.95607	-2.46259	-5.10223
2664.06250	-9.37233	6.68701	-4.78671	-13.91525
2667.96875	-12.38254	8.38482	-4.91411	-17.76685
2671.87500	-1.63262	8.18380	-4.15618	-2.51070
2675.78125	-2.80713	8.90841	-2.17808	-8.03307
2679.68750	-10.07308	7.45173	-0.00020	-18.43485
2683.59375	-12.35055	6.02605	-1.86848	-8.13342
2687.50000	-18.76082	5.18205	-1.67037	-10.39499
2691.40625	-14.98680	4.83049	0.99708	-5.12330
2695.31250	-14.58956	6.38378	4.59346	2.06676
2699.21875	-17.73589	7.51053	2.85157	-4.25395
2703.12500	-8.63913	6.57663	-0.56122	-5.29828
2707.03125	-4.33011	5.62668	0.78143	0.80710
2710.93750	-2.08760	7.12950	0.11495	0.71784
2714.84375	4.83886	7.47190	-1.53691	-0.93608
2718.75000	4.47978	6.34001	-1.96638	-2.82781
2722.65625	3.79280	5.11241	-2.47867	-3.36917
2726.56250	5.91266	3.67413	-1.58873	1.32657
2730.46875	5.61041	1.38389	0.45174	1.28214
2734.37500	7.12465	0.08769	-0.01808	0.27071
2738.28125	7.03822	-0.49272	-1.56080	1.57902
2742.18750	6.42890	1.22716	-1.17602	0.50237
2746.09375	5.10500	-0.27409	-2.33482	2.84630
2750.00000	7.67742	1.69847	-1.21430	1.37546
2753.90625	8.37993	5.18621	-1.32392	2.84943
2757.81250	3.26041	1.11437	-0.76669	3.74661
2761.71875	7.75326	0.96171	-0.28178	-3.32461
2765.62500	18.62379	2.24183	-4.68182	-1.88514
2769.53125	22.62133	2.83712	-0.85305	4.19232
2773.43750	21.89136	2.22118	4.21755	9.59879
2777.34375	22.98314	-0.52341	-0.39010	6.50880
2781.25000	24.71192	2.29855	-4.63319	4.11770
2785.15625	21.88504	5.17581	-5.40791	8.09109
2789.06250	10.52500	3.18961	-2.89579	6.08050
2792.96875	7.35293	2.07486	-3.53784	1.55770
2796.87500	6.59138	0.63842	-2.44500	0.20607
2800.78125	0.92086	3.62320	-2.94992	-3.73212
2804.68750	2.80050	4.49615	-5.32064	3.37314
2808.59375	5.61176	3.15994	-0.89511	4.19712
2812.50000	11.48776	5.15327	1.19935	-4.37632
2816.40625	13.33041	4.19787	-0.08076	-3.06721
2820.31250	4.90441	3.72437	0.73703	-1.86205
2824.21875	8.11332	1.81190	-1.60144	-4.74230
2828.12500	6.64872	2.34603	-2.10337	-3.89584
2832.03125	7.28051	3.80423	0.70247	1.84098
2835.93750	12.58933	2.90395	-0.54888	-0.48990
2839.84375	14.52938	2.59993	-4.45249	-2.73338
2843.75000	15.66995	5.58168	-2.71375	5.92481
2847.65625	11.59923	7.59772	-0.87955	5.55798
2851.56250	13.24367	7.29768	-2.20568	0.43658
2855.46875	10.41924	7.23441	-0.62429	5.11440
2859.37500	0.40880	5.08319	-0.38756	3.35164
2863.28125	-0.30662	4.11737	0.20496	-4.89679
2867.18750	-2.92766	4.00640	1.16449	-4.52433
2871.09375	-7.71773	3.54887	1.34113	-0.15961
2875.00000	-4.45970	1.47714	0.90339	0.03704
2878.90625	-4.79510	1.50209	0.03730	3.12051
2882.81250	0.08635	2.65361	0.70581	3.10994
2886.71875	5.76062	2.85315	2.01355	2.11155
2890.62500	0.37662	4.64817	-0.34025	2.84154
2894.53125	0.18570	2.55774	0.00648	1.59112
2898.43750	-2.26559	-0.48840	0.85058	-0.18152
2902.34375	-3.27974	1.18727	-1.61665	1.76630
2906.25000	-3.44858	-3.11614	-0.34822	3.29971
2910.15625	-5.21112	-4.71346	0.00444	0.54479
2914.06250	-1.03441	-1.20602	3.13425	-2.32780
2917.96875	-1.24706	1.12569	6.08194	-3.71485
2921.87500	-1.92336	2.13289	3.71206	-6.48081
2925.78125	3.28079	-0.60608	1.73376	-8.21197
2929.68750	5.30898	-1.96963	1.57043	-3.85485
2933.59375	3.15442	-0.94659	0.21508	-2.87503
2937.50000	0.70029	-1.31117	-0.78908	-6.25535
2941.40625	-0.25304	-0.55647	-0.23327	-9.11025
2945.31250	1.36457	-2.51241	-1.81523	-5.42192
2949.21875	-0.32416	-2.43008	-3.29694	-5.54886
2953.12500	-6.19737	-1.89895	-1.89898	-6.11696
2957.03125	-6.07405	-1.75466	-0.42135	-3.76158
2960.93750	-0.25769	-0.43670	-2.17259	-3.27021
2964.84375	9.33639	0.02697	-3.74435	2.41234
2968.75000	13.32226	1.15909	-2.50925	-0.12884
2972.65625	14.81545	2.79001	-4.01185	-5.63216
2976.56250	24.78391	3.42266	-6.91675	-4.28463
2980.46875	22.26611	3.69854	-4.52519	-1.42023
2984.37500	14.70847	-0.24308	-0.83218	4.02304
2988.28125	19.63075	-4.09462	-0.90150	9.16134
2992.18750	25.07597	-4.20254	0.32527	15.47579
2996.09375	27.20669	-3.90982	1.88673	16.75798
