 	TP9	AF7	AF8	TP10	
-1000.00000	15.65468	2.13702	-0.23030	10.07892
-996.09375	16.07121	2.82416	-3.16929	8.12015
-992.18750	18.63497	1.70685	0.37549	2.88479
-988.28125	7.10332	2.55211	0.16582	-3.14385
-984.37500	0.77063	3.15185	-5.80788	3.22279
-980.46875	2.78862	1.22942	-6.76128	-1.18112
-976.56250	-1.00993	3.65123	-8.40427	-6.25637
-972.65625	-5.41286	3.02640	-7.20191	-6.05140
-968.75000	-7.97270	-1.02632	-5.03052	-0.50543
-964.84375	-6.04885	0.24746	-3.04534	6.80219
-960.93750	-3.05894	0.71642	-4.02927	8.24958
-957.03125	-6.68071	2.04366	-3.98125	6.53579
-953.12500	-6.97868	1.92487	-3.90369	5.94062
-949.21875	-8.72709	-1.36678	-6.99300	7.98882
-945.31250	-6.46390	2.99717	-4.70404	4.63832
-941.40625	-3.11094	5.83871	-3.71763	8.53199
-937.50000	-7.77365	2.43371	-4.40605	8.63111
-933.59375	-13.83987	-0.39129	-3.02877	2.22137
-929.68750	-19.33728	-0.88833	-6.52898	6.22879
-925.78125	-15.40936	-0.28266	-6.75401	3.15417
-921.87500	-15.91919	0.07841	-0.98925	5.28280
-917.96875	-9.10944	0.79213	0.39506	9.30311
-914.06250	-9.04738	0.91078	-2.56374	6.59139
-910.15625	-12.40092	2.01903	-1.22214	11.95520
-906.25000	-7.92750	2.90014	-0.73287	7.97081
-902.34375	-16.11769	2.37575	-4.70674	3.71501
-898.43750	-18.73469	3.16338	-5.29150	5.73505
-894.53125	-17.95835	2.60553	-1.70440	0.54430
-890.62500	-19.33985	0.10049	2.47883	-3.82689
-886.71875	-20.30482	-1.15349	-1.95181	-2.28392
-882.81250	-22.26360	-2.98100	-6.40685	-4.25718
-878.90625	-19.31608	-4.95704	-1.31855	-0.86579
-875.00000	-19.99639	-2.56176	1.15953	8.68474
-871.09375	-15.16162	3.02440	2.15465	12.89408
-867.18750	-19.92351	-0.75792	2.08014	5.01395
-863.28125	-25.51587	-3.09553	-0.84973	3.90250
-859.37500	-27.36947	-1.00369	5.06220	6.82137
-855.46875	-19.56647	-2.50463	5.62419	2.83217
-851.56250	-10.73059	0.71501	1.83266	-0.71707
-847.65625	-16.47045	3.68380	2.90114	2.05260
-843.75000	-19.85585	-0.38302	4.71355	8.01943
-839.84375	-12.67468	-0.28644	6.19637	-1.02937
-835.93750	-5.76376	0.35800	4.43577	1.14084
-832.03125	-5.62627	0.01995	4.73439	9.35693
-828.12500	0.91980	-0.31911	7.36061	2.12342
-824.21875	8.38958	-0.48212	8.26987	-2.41055
-820.31250	21.13770	0.82317	7.72660	-0.25530
-816.40625	22.64445	0.78721	8.07013	2.01835
-812.50000	22.33258	3.75718	8.44054	10.90794
-808.59375	29.81928	4.15559	9.81680	10.06019
-804.68750	33.80851	6.27937	10.62650	4.01436
-800.78125	44.24240	5.95327	9.25138	15.17108
-796.87500	43.11535	6.43766	9.67698	17.16576
-792.96875	31.66666	9.10354	8.91978	9.60461
-789.06250	19.45228	7.83929	7.04532	14.58364
-785.15625	9.63367	5.80061	6.14365	15.98623
-781.25000	7.87291	5.43571	5.53464	10.98055
-777.34375	0.86942	8.04168	6.03304	12.74909
-773.43750	-5.40168	3.16274	8.58812	12.32497
-769.53125	0.03602	3.88089	7.10356	10.05928
-765.62500	-6.94464	2.91845	3.28379	11.72323
-761.71875	-11.83166	-1.12986	3.42778	17.37025
-757.81250	-4.55288	5.19665	2.37648	11.74361
-753.90625	-8.25955	5.67642	2.60858	9.02367
-750.00000	-9.08642	2.75534	1.52863	11.80895
-746.09375	-18.77148	2.46952	1.24185	13.36502
-742.18750	-25.36550	3.58509	2.12709	10.94491
-738.28125	-14.64061	4.75288	0.31976	9.72110
-734.37500	-19.99367	3.74848	2.26186	8.99582
-730.46875	-18.78897	1.63990	3.61593	10.98259
-726.56250	-11.36478	3.64855	0.82433	9.61152
-722.65625	-12.60357	4.27161	1.23150	12.63048
-718.75000	-15.68551	0.66694	3.08719	14.33787
-714.84375	-23.25111	-0.20568	3.11447	0.58397
-710.93750	-18.18321	-0.27345	4.09630	-0.45988
-707.03125	-10.93585	-1.19958	3.24018	9.71604
-703.12500	-16.27975	-3.50014	4.36920	8.29720
-699.21875	-16.54684	-2.62785	2.62114	5.44355
-695.31250	-21.63158	-2.56131	-1.68467	3.55633
-691.40625	-20.55340	-3.38999	-3.07622	6.10990
-687.50000	-12.26556	-1.19560	-3.59874	7.62280
-683.59375	-19.90016	-3.20761	1.87156	0.33296
-679.68750	-27.70075	-5.93577	-0.67436	0.75766
-675.78125	-25.98899	-2.91690	-6.89843	-1.00297
-671.87500	-19.03360	-2.47383	-4.20383	-7.16109
-667.96875	-22.21831	-4.80101	-3.57567	-6.34637
-664.06250	-24.29626	-3.30980	-1.42488	-4.03773
-660.15625	-15.70582	-0.79343	-0.75400	1.07467
-656.25000	-10.91304	3.56175	-2.45422	2.23846
-652.34375	-7.96228	3.27846	1.11455	3.67370
-648.43750	-10.58463	0.07141	2.50299	5.27990
-644.53125	-12.97391	3.04503	0.12255	8.05284
-640.62500	-10.78792	0.31010	-4.06285	7.99157
-636.71875	-9.82432	-2.46706	-3.66366	2.82195
-632.81250	-10.28453	-1.04433	-2.03125	4.79497
-628.90625	-14.03914	1.73572	-0.67479	9.86490
-625.00000	-14.97201	2.15935	0.87422	16.43137
-621.09375	-12.55544	1.00392	-0.52592	27.53313
-617.18750	-7.39212	3.57590	-0.05063	27.75736
-613.28125	-9.85984	2.68842	1.66828	27.25688
-609.37500	-14.05180	-1.82251	3.40989	31.59050
-605.46875	-8.15673	-3.14366	4.05454	26.71505
-601.56250	-2.48865	-2.33564	4.21756	27.84644
-597.65625	11.30824	-0.47096	5.16151	36.35860
-593.75000	20.33308	-0.03216	5.76460	38.45022
-589.84375	17.58266	1.07831	6.29421	35.00790
-585.93750	11.87904	0.02930	3.21750	37.26969
-582.03125	19.39573	1.17150	2.51377	39.52955
-578.12500	19.29495	1.10591	3.91469	35.88365
-574.21875	12.62937	-1.95618	3.40622	36.79104
-570.31250	15.99686	1.16900	4.75323	33.02389
-566.40625	10.45923	2.41206	3.19870	24.70608
-562.50000	6.74022	2.26077	0.40849	26.29248
-558.59375	7.71336	0.65185	-0.56701	29.96060
-554.68750	6.94595	-1.07080	0.63571	21.50088
-550.78125	18.67153	-0.74645	1.60563	15.98500
-546.87500	17.37932	0.37906	-0.83684	20.83990
-542.96875	9.88865	1.33776	2.33570	25.17740
-539.06250	12.43102	0.58558	5.01387	20.19830
-535.15625	9.75706	0.60779	6.71918	19.19851
-531.25000	13.12787	-0.64089	7.32603	18.56299
-527.34375	18.51791	-1.63701	2.79603	8.33280
-523.43750	20.35518	0.01670	3.46212	10.77143
-519.53125	27.00368	-0.30037	4.94441	20.28964
-515.62500	25.52120	0.25737	2.31504	20.23721
-511.71875	34.03295	2.69221	1.76586	18.21624
-507.81250	50.92841	3.61660	1.20319	14.17232
-503.90625	52.21595	3.13507	3.38639	18.10087
-500.00000	50.62376	1.62213	3.65814	22.97110
-496.09375	35.72867	1.10035	7.16610	19.40036
-492.18750	26.60706	1.99767	7.48746	12.15009
-488.28125	29.17766	0.42519	2.84558	11.76229
-484.37500	24.05346	0.62202	1.70712	11.27891
-480.46875	19.62427	3.53481	1.55953	14.93350
-476.56250	14.21377	4.74784	3.94590	15.09617
-472.65625	17.06327	2.51123	-0.08987	6.83961
-468.75000	21.35303	1.27900	-2.75370	9.56492
-464.84375	16.82985	3.35856	-0.36566	8.41079
-460.93750	11.35815	1.40989	-0.54387	6.23167
-457.03125	1.28941	3.14002	-0.89884	11.77052
-453.12500	0.58848	4.63286	2.40212	2.31073
-449.21875	8.51025	0.13240	2.93918	9.99990
-445.31250	9.16163	-0.33892	1.60178	20.34891
-441.40625	6.47055	0.08501	1.78235	11.34871
-437.50000	0.59893	-3.72302	3.10853	7.01542
-433.59375	7.42627	-0.10123	2.47122	13.49936
-429.68750	8.37554	1.81920	-2.64078	16.29787
-425.78125	-0.59049	-1.20153	-3.26881	9.99972
-421.87500	3.33165	-1.64648	2.89887	6.08429
-417.96875	6.91764	-4.15629	3.07436	8.08983
-414.06250	-1.48215	-0.41130	-2.30206	10.21312
-410.15625	-6.85074	1.50274	-0.55757	6.71212
-406.25000	-6.00396	0.77197	2.75217	1.51859
-402.34375	-8.95631	1.45629	2.00179	0.08295
-398.43750	-11.17062	0.63210	0.61114	3.31151
-394.53125	-12.40910	0.47702	0.57180	4.16445
-390.62500	-11.37318	-0.41634	0.72574	9.46331
-386.71875	-10.72659	-2.47629	1.13015	10.60300
-382.81250	-7.85035	0.93423	2.71874	5.40592
-378.90625	-9.73820	0.16694	1.35981	4.76764
-375.00000	-12.43322	-1.46716	-1.80340	7.87089
-371.09375	-10.41913	-1.52212	1.20602	6.03600
-367.18750	-13.56950	-3.28980	1.93716	2.58772
-363.28125	-12.31228	-2.00100	-3.00755	1.47602
-359.37500	-14.56900	-3.13264	-4.34857	-0.44063
-355.46875	-13.21324	-3.02191	-2.57801	1.61370
-351.56250	-2.36300	-1.41400	-0.32580	4.51101
-347.65625	-0.44746	-4.48920	-0.46620	3.25103
-343.75000	-3.83315	-3.31803	2.15189	1.15883
-339.84375	-0.27876	-3.22144	2.42587	3.79464
-335.93750	-1.42699	-4.99469	0.66518	4.75555
-332.03125	0.32154	-0.90064	1.36661	1.28614
-328.12500	3.24053	-0.83680	3.18688	0.09585
-324.21875	0.23333	-0.99997	2.08141	2.81388
-320.31250	-7.56886	-1.30647	1.94095	6.58003
-316.40625	-13.71871	-3.76010	5.10492	1.19704
-312.50000	-6.37579	-2.40183	2.65478	1.22120
-308.59375	-1.30748	-1.19756	-1.20710	5.61049
-304.68750	-8.60112	-0.68546	-0.39738	3.19007
-300.78125	-3.80892	1.00313	-0.16088	1.45206
-296.87500	-4.13078	0.27876	1.07050	5.46055
-292.96875	-2.28341	-1.08461	3.53671	4.34553
-289.06250	4.43945	2.08343	4.07971	-3.56996
-285.15625	1.87320	4.47708	3.98387	2.66715
-281.25000	3.73841	1.69462	3.37474	5.71947
-277.34375	6.00194	3.49477	1.45554	0.23473
-273.43750	1.74518	5.46570	2.80184	-2.60744
-269.53125	1.13876	4.16921	6.15244	-2.45594
-265.62500	-3.02153	1.59498	3.94443	-1.19524
-261.71875	-6.69987	0.77012	2.07381	2.03394
-257.81250	-12.71786	-0.15609	5.45468	5.27158
-253.90625	-12.79825	-2.49687	7.70143	-7.52179
-250.00000	-3.14899	-0.17990	2.18924	-5.13947
-246.09375	-2.76084	0.34008	-1.72389	7.69866
-242.18750	-1.69923	0.64984	1.98178	6.48738
-238.28125	-1.04766	1.81753	2.18905	10.09880
-234.37500	-1.16269	0.81310	1.71352	4.94145
-230.46875	0.84787	2.33085	3.06754	1.69016
-226.56250	-2.20416	-0.49572	1.88767	5.15433
-222.65625	-1.02529	-0.67850	3.90655	8.57642
-218.75000	-9.74813	-1.86563	4.55342	6.25467
-214.84375	-14.09015	-7.17044	2.16305	0.15662
-210.93750	-7.81333	-6.43244	3.54770	9.18626
-207.03125	-7.81851	-5.34386	3.90032	7.67755
-203.12500	-8.72987	-2.40628	3.82055	2.22976
-199.21875	-5.77306	-0.72810	3.68403	6.62947
-195.31250	-5.61911	-0.25864	2.19866	4.34004
-191.40625	-6.55491	-1.08732	-0.40182	2.05915
-187.50000	-3.90731	-1.71343	-1.73032	9.21391
-183.59375	-3.48256	0.30391	-3.91585	14.41590
-179.68750	-7.25313	-1.61844	-5.25305	11.21528
-175.78125	-17.22568	-4.64358	-3.01561	-1.02049
-171.87500	-13.49310	-2.58890	-3.14157	0.47809
-167.96875	-7.40980	-0.48398	-3.72230	7.74062
-164.06250	-11.09899	1.81304	-3.18335	5.61788
-160.15625	-7.34339	0.30006	-4.12422	0.65773
-156.25000	-12.62358	1.02879	-5.01862	-4.62467
-152.34375	-16.11934	-2.47799	1.37062	1.24338
-148.43750	-8.66833	-4.87917	3.16199	6.07350
-144.53125	-10.65479	-0.29391	-1.63602	3.20591
-140.62500	-7.25996	2.20924	0.62540	-6.52523
-136.71875	-10.72865	-0.56794	1.83039	-4.44175
-132.81250	-9.17429	-1.56288	1.04526	2.36673
-128.90625	-4.06469	-1.60340	3.20757	-1.83057
-125.00000	-10.23589	-0.77704	2.33902	-0.50205
-121.09375	-12.25181	2.09649	0.93885	3.34692
-117.18750	-13.93843	1.04172	1.81700	4.77999
-113.28125	-11.97415	1.36272	3.13302	8.30874
-109.37500	-4.88424	-0.32804	2.85992	2.56905
-105.46875	-4.22741	0.36518	1.08703	-1.50068
-101.56250	-0.17128	0.77008	2.86176	5.27152
-97.65625	9.19317	-1.39470	5.41746	6.53076
-93.75000	10.96499	-0.95608	1.18533	2.57813
-89.84375	13.04940	0.55708	-1.10558	8.40303
-85.93750	12.58360	1.11963	3.07045	9.05280
-82.03125	12.04148	-1.36468	2.76969	6.07431
-78.12500	9.12002	0.18128	0.94720	0.41356
-74.21875	7.28953	0.74539	0.03583	2.93245
-70.31250	12.26859	-0.56174	0.17408	10.84997
-66.40625	16.40117	-0.12467	1.44014	9.38179
-62.50000	8.65274	-1.88774	0.66458	7.34148
-58.59375	-0.44751	-3.49673	2.10662	6.17413
-54.68750	6.03781	-1.99602	2.10055	4.56388
-50.78125	9.70469	0.74577	0.65295	4.68878
-46.87500	7.20357	-0.94923	2.64273	9.54349
-42.96875	1.72746	-2.00531	5.00950	5.01630
-39.06250	-0.96837	-1.95173	1.64369	2.85751
-35.15625	-2.83660	-3.13839	-0.27735	-2.17197
-31.25000	-3.09229	-2.77535	0.73247	1.62448
-27.34375	1.08890	-0.95101	0.63477	10.73471
-23.43750	4.53777	0.29964	2.50970	9.94969
-19.53125	0.30706	-0.42044	0.36568	8.99149
-15.62500	-3.19027	-3.08622	3.37734	0.88025
-11.71875	-1.93131	-3.06903	5.64872	-2.75246
-7.81250	0.45865	-0.53295	2.26564	-2.76720
-3.90625	-6.71541	-1.01454	6.06063	5.19041
0.00000	-7.50193	-0.10994	5.92957	8.85153
3.90625	-7.89173	1.78573	2.99074	-3.58406
7.81250	-10.16382	2.68295	5.32686	2.86493
11.71875	-2.75843	3.93091	7.53490	11.34103
15.62500	-5.86850	2.91880	2.77007	7.23067
19.53125	-5.46299	1.39914	5.44323	6.04940
23.43750	-3.21839	2.61210	8.63556	2.98793
27.34375	-5.60743	2.79298	5.00278	4.40080
31.25000	-3.33291	1.96357	5.15958	6.72239
35.15625	-7.85670	1.62543	5.53311	-2.08806
39.06250	-5.27034	2.09434	3.34035	-4.26798
42.96875	-6.07223	0.60097	4.19431	-1.14751
46.87500	-14.02654	0.07911	3.86895	-0.53476
50.78125	-9.73184	3.23423	1.98848	-0.90505
54.68750	-8.67818	1.15114	3.47159	-4.25637
58.59375	-6.13167	-2.05136	3.24922	3.66588
62.50000	-7.57147	-4.24771	1.75495	10.61402
66.40625	-4.37083	-4.25227	3.93819	7.82993
70.31250	3.02494	-3.13768	1.24382	5.38989
74.21875	2.11718	-0.92033	0.21290	4.32934
78.12500	0.39802	-3.37994	-0.46925	6.05444
82.03125	-1.65719	-6.69559	-2.30839	-1.61073
85.93750	-4.01329	-2.95059	-0.43206	-4.72584
89.84375	-1.72645	-4.26003	-0.70221	-6.61530
93.75000	-4.50635	-6.19948	-1.42178	-4.55626
97.65625	-3.42967	-3.90343	-0.56049	-1.96276
101.56250	10.06994	-3.92171	-1.54818	-0.34601
105.46875	3.59306	-3.27089	1.63590	0.90978
109.37500	-1.81821	-4.16424	1.78988	-1.04424
113.28125	8.90135	-5.41828	-0.62613	-0.30742
117.18750	9.76273	-4.42526	1.76856	1.34525
121.09375	3.03940	-2.37210	3.23045	5.94504
125.00000	2.76158	-2.39453	0.06750	0.98972
128.90625	7.59592	-3.65822	-3.36975	-6.08336
132.81250	6.86294	-1.79956	-0.22089	4.16808
136.71875	7.31412	1.10099	0.87850	5.07092
140.62500	7.07178	1.58107	-1.26822	-0.87509
144.53125	5.20382	-1.12869	-1.51214	-0.43259
148.43750	7.18922	-0.72960	1.14312	3.27040
152.34375	7.08967	3.44791	3.01751	9.66599
156.25000	5.31529	2.60445	4.02403	6.36474
160.15625	2.82536	-0.52252	4.29814	0.94164
164.06250	-1.54664	-1.08699	0.92579	0.29059
167.96875	4.63377	-3.43979	-1.19313	3.67084
171.87500	12.38780	-3.37600	-2.19332	8.12146
175.78125	15.42445	-0.71858	-2.08992	-1.24846
179.68750	16.88960	3.00426	2.60488	-0.30286
183.59375	13.56024	3.37114	2.14260	10.43147
187.50000	13.24752	2.31177	-3.53091	6.42649
191.40625	12.27197	0.69552	-5.78098	1.54855
195.31250	9.00775	-0.80703	-4.56836	1.14293
199.21875	11.78524	-1.13316	-3.52584	0.21109
203.12500	9.44877	-2.26061	-1.48846	0.59332
207.03125	10.49026	-2.81824	1.78369	-0.92441
210.93750	18.82481	-1.66495	-0.49369	-4.81047
214.84375	18.67616	0.72861	-0.18651	-4.21411
218.75000	17.31783	0.36365	1.62208	-3.57910
222.65625	7.49336	-1.86555	-1.50578	4.63607
226.56250	-2.80766	-3.52111	-2.57700	1.79412
230.46875	-8.65249	-0.38544	-2.04684	-4.90397
234.37500	-7.17202	0.26373	1.78913	-0.41974
238.28125	13.72797	1.45341	3.14194	4.42127
242.18750	14.55942	2.94472	0.88188	1.61501
246.09375	10.44951	1.81268	1.91991	-2.71664
250.00000	15.66628	0.50319	2.45178	2.48620
253.90625	14.84533	-2.20027	2.97085	7.26567
257.81250	3.41582	-1.48771	-0.17321	-2.00411
261.71875	1.24658	-1.12593	0.83995	-6.45126
265.62500	9.99575	-0.51870	3.58791	-3.55003
269.53125	14.02062	-4.23903	1.31566	-4.78663
273.43750	15.40053	-5.05087	-0.67001	-4.14307
277.34375	13.35550	-3.21909	-1.06874	-0.31817
281.25000	17.12309	-1.18278	-0.01890	3.40393
285.15625	17.21273	1.57097	2.42598	2.54373
289.06250	15.43036	0.69723	0.18427	3.91748
292.96875	15.42460	2.18874	-2.28357	5.63184
296.87500	18.13900	1.49988	-2.76625	3.00415
300.78125	18.67755	1.16333	0.32082	-0.65528
304.68750	14.80139	2.43865	-0.35865	-0.12470
308.59375	13.46174	-2.41936	-0.94439	-8.45005
312.50000	13.69075	-3.04551	1.75656	-4.92226
316.40625	16.93501	-1.02824	-0.42874	1.08490
320.31250	9.94010	0.67577	1.45754	-5.74275
324.21875	2.78719	0.47119	2.08336	-10.72644
328.12500	3.29541	1.31708	-1.26595	-0.36399
332.03125	0.51343	1.40738	-4.66711	-1.56366
335.93750	-0.35593	-1.93657	-5.73968	-4.08982
339.84375	8.23423	-1.43497	-3.45705	3.03745
343.75000	10.60906	-0.70619	-1.53083	4.60437
347.65625	12.35067	0.21919	2.84381	10.47209
351.56250	12.14555	1.04143	4.23229	7.64635
355.46875	4.92053	-0.41726	1.44895	-4.08591
359.37500	1.06216	-1.94348	-1.12473	-8.57911
363.28125	-6.43625	-0.69145	-3.14312	-10.12210
367.18750	-8.50862	1.13406	-1.91353	-8.14871
371.09375	-0.98171	0.28763	-0.15409	-6.30196
375.00000	4.93475	1.11395	-3.44016	-7.39104
378.90625	4.12743	1.16686	-0.40800	-5.15364
382.81250	0.02295	4.14138	0.06734	-6.94394
386.71875	1.58413	7.28288	-2.24297	-17.51759
390.62500	5.04759	2.77151	1.11041	-3.91646
394.53125	7.31603	0.24121	0.94927	1.28138
398.43750	9.35739	1.04893	1.11228	-4.43698
402.34375	9.85725	0.49584	1.25045	-7.20685
406.25000	1.95865	1.33731	-0.56414	-12.36803
410.15625	-1.19514	1.23883	0.77137	-2.51359
414.06250	-1.38793	0.22071	0.75011	-2.37715
417.96875	-1.08522	0.73387	-0.86201	-6.73992
421.87500	-1.70983	3.38955	-1.35082	-3.07746
425.78125	-0.81447	2.50111	0.34201	-2.74565
429.68750	-1.81402	-2.09471	-0.99910	-3.84696
433.59375	-7.09907	0.15374	-4.53423	-10.22181
437.50000	-9.66192	-1.40965	-4.61329	-14.05590
441.40625	-6.82245	-1.47223	-4.61916	-6.54980
445.31250	-10.43225	-0.21525	-5.61419	-4.46277
449.21875	-9.97825	-2.00472	-12.58690	-16.16964
453.12500	-13.27370	-2.71705	-17.05421	-14.17349
457.03125	-14.88064	0.07141	-16.01896	-7.18310
460.93750	-3.32207	0.90080	-11.12697	-5.39580
464.84375	-13.23236	-0.12141	-9.16474	-2.10638
468.75000	-17.10668	1.72252	-9.25828	-0.04868
472.65625	-9.05656	3.29414	-10.61909	-4.98373
476.56250	-12.73086	1.95616	-9.28915	-5.48865
480.46875	-14.16522	-1.57849	-5.15900	1.19186
484.37500	-7.98109	-2.45772	-4.26775	4.75420
488.28125	-1.43564	5.05550	-9.95342	-0.99793
492.18750	-6.15436	7.30892	-10.21044	-9.26185
496.09375	-6.45601	4.24741	-7.79128	-8.19473
500.00000	-2.67667	5.19365	-8.06911	-3.31021
503.90625	-7.94882	0.83269	-8.65365	-4.00152
507.81250	-10.50094	-1.67864	-7.82514	-4.89405
511.71875	-8.61559	2.47767	-5.75519	-1.23209
515.62500	-15.41953	1.30680	-5.88196	-1.63025
519.53125	-9.95145	-2.15101	-6.55854	2.44627
523.43750	-1.82816	-2.33963	-7.41479	1.46695
527.34375	-4.39912	-0.35052	-6.09920	1.58257
531.25000	-0.33896	2.49989	-4.10362	10.23259
535.15625	-0.96334	-1.22217	-2.35017	8.13187
539.06250	-13.82726	-6.68752	-1.02815	3.54127
542.96875	-12.15835	-7.14064	-3.37264	2.24274
546.87500	-4.46946	-5.46831	-8.40457	3.54913
550.78125	-7.52897	-5.51870	-10.09207	1.35551
554.68750	-9.04761	-4.94874	-6.46133	2.93174
558.59375	-7.05584	-3.98130	-3.56362	-3.66623
562.50000	-5.87716	-2.28904	-3.78024	0.76188
566.40625	-4.24721	-2.52907	-3.46188	8.28541
570.31250	-4.40907	-3.04417	-2.36636	3.56519
574.21875	-7.06107	-2.21526	-0.88784	1.27690
578.12500	-5.35847	-1.68595	-1.67169	-3.07788
582.03125	-10.36252	-0.67927	-3.80256	-6.99048
585.93750	-11.76885	1.61440	-3.36142	-5.13231
589.84375	-4.28150	-0.15146	-3.49239	-0.86229
593.75000	-8.32522	0.53305	-3.76036	-0.48372
597.65625	-8.34238	-0.60465	-7.43774	-1.16140
601.56250	-5.04634	-4.72889	-8.67737	-0.45392
605.46875	-5.25306	-3.51648	-3.67332	-0.81456
609.37500	4.53557	-2.08010	-1.38411	0.97519
613.28125	7.28121	-3.55208	-5.81030	1.25277
617.18750	4.52759	-3.55535	-8.77127	-0.35893
621.09375	5.25176	-3.15566	-7.12168	-3.39476
625.00000	0.81899	-4.62758	-4.39948	-6.13226
628.90625	1.09050	-1.98241	-5.71378	-0.98323
632.81250	-1.76783	-1.97886	-3.81344	-2.80112
636.71875	-8.67044	-2.07387	-3.65484	-9.15815
640.62500	-9.27283	-5.62912	-5.58129	-0.90201
644.53125	-8.83862	-4.54156	-5.13882	-3.73132
648.43750	-8.97095	0.54239	-5.60479	-9.94466
652.34375	-11.72176	-2.80499	-6.63417	-5.00650
656.25000	-14.51293	-5.82766	-9.00928	-4.61946
660.15625	-13.15285	-3.28364	-8.48717	-3.05055
664.06250	-13.65047	-0.43996	-6.69898	-2.44970
667.96875	-13.14946	-2.16380	-6.29790	-5.74305
671.87500	-15.34748	-5.22436	-5.81117	-6.58541
675.78125	-16.24503	-3.93508	-3.47681	-3.69414
679.68750	-12.02429	0.25583	-3.34662	-6.21963
683.59375	-19.23228	0.42292	-3.44004	-3.87452
687.50000	-21.10390	2.79017	-4.57184	-3.66722
691.40625	-14.67810	2.85073	-6.58276	-6.33863
695.31250	-17.92028	-3.24348	-7.20159	-9.63483
699.21875	-17.16766	-4.67947	-8.69251	-6.79297
703.12500	-16.69492	-4.37210	-7.85364	-3.95452
707.03125	-16.29890	-3.13329	-10.50271	-7.72198
710.93750	-18.18938	-3.56177	-12.17339	-10.31568
714.84375	-14.32540	-5.36206	-7.69082	-9.17344
718.75000	0.42576	-5.59633	-9.21113	0.05046
722.65625	1.23772	-5.15536	-9.86700	-1.05895
726.56250	-2.74610	-2.20767	-6.36386	-4.58390
730.46875	-3.32888	-3.10724	-4.85506	0.42007
734.37500	-6.69501	-2.23014	-4.53961	-0.72535
738.28125	3.27716	-1.68685	-3.69121	5.02633
742.18750	8.79926	-3.13651	-1.42168	13.28964
746.09375	7.88964	-2.49463	0.18638	21.48941
750.00000	16.19580	-0.62245	-1.14971	26.27463
753.90625	18.64503	0.51296	-0.56740	18.10100
757.81250	19.58283	-1.41001	0.61669	22.61945
761.71875	24.94775	-3.15086	0.15633	35.47705
765.62500	16.84092	-6.81720	0.28105	42.32147
769.53125	20.63789	-6.18198	-1.05921	39.45329
773.43750	32.25592	-2.77207	-3.02558	35.59699
777.34375	31.60126	-4.36026	0.08888	37.49551
781.25000	36.80630	-3.58637	0.10589	38.11237
785.15625	33.80227	-2.28394	-4.06731	34.57155
789.06250	34.17320	-4.07338	-3.37682	35.13234
792.96875	29.68161	-2.41353	-2.24326	36.43036
796.87500	25.61711	0.74723	-2.04860	28.27372
800.78125	26.65997	-2.02491	-2.78083	26.84046
804.68750	25.35596	-4.61155	-3.19024	26.47243
808.59375	24.57071	-1.14875	-1.25495	28.23469
812.50000	19.36052	-1.23133	0.97422	25.01475
816.40625	15.31091	-1.39628	0.25075	19.10236
820.31250	17.88835	-2.89776	3.18240	23.82206
824.21875	20.94126	-4.13164	2.50768	15.23067
828.12500	17.22208	-2.64833	-3.96343	15.95853
832.03125	11.74798	-4.86585	-3.44641	29.54099
835.93750	14.76407	-3.93811	-0.66624	22.44421
839.84375	20.97433	-3.38307	-0.13453	18.97955
843.75000	27.83652	-4.47253	-2.68919	18.19761
847.65625	29.86638	-3.33685	-1.43145	16.45719
851.56250	24.15076	-4.85566	3.43232	23.40475
855.46875	23.95263	-3.65258	3.26133	19.33263
859.37500	21.81768	-3.88210	3.79050	15.12471
863.28125	11.01149	-5.23269	4.18528	18.07001
867.18750	13.76310	-6.84313	2.71199	13.63720
871.09375	13.84272	-6.84192	2.26905	12.64316
875.00000	8.60309	-4.56617	2.76822	7.32147
878.90625	12.35865	-5.19865	3.27462	4.18659
882.81250	7.15619	-8.83061	3.38688	8.01849
886.71875	7.60971	-5.91714	4.43500	15.98673
890.62500	15.86548	-2.36391	6.76225	23.04139
894.53125	9.38511	-3.85642	7.52647	12.57331
898.43750	9.91816	-2.49547	1.94646	5.48937
902.34375	15.48709	-1.56765	-0.24979	12.23554
906.25000	13.03797	-0.96462	1.72029	13.45953
910.15625	9.66111	-2.70482	1.19606	10.27837
914.06250	5.32132	-3.13292	1.42041	6.45350
917.96875	14.89128	-2.61986	1.01714	3.70222
921.87500	25.14554	-3.18761	-1.48633	8.57322
925.78125	22.41430	-3.27008	-1.80818	15.75460
929.68750	24.63793	-3.43369	-1.94052	10.62376
933.59375	22.57602	-2.39399	-3.05802	-2.60110
937.50000	14.37174	-1.94278	-9.18107	-0.39144
941.40625	13.58440	-2.81121	-16.43968	10.33791
945.31250	19.24163	-1.95714	-14.21122	9.60413
949.21875	24.53033	2.70021	-11.91661	6.35872
953.12500	21.23446	2.39080	-14.36929	3.51954
957.03125	16.00064	-0.05889	-16.96044	2.04819
960.93750	10.23280	0.36757	-15.69483	1.41771
964.84375	2.33677	-1.05759	-14.53846	-0.53107
968.75000	4.90885	-5.25761	-13.82613	5.15282
972.65625	0.06483	-7.31238	-12.76932	2.63519
976.56250	-4.81858	-5.02395	-12.64821	-1.49621
980.46875	0.59653	-5.33521	-13.35324	1.15489
984.37500	-0.47259	-2.58803	-11.65609	-3.34150
988.28125	6.87852	0.89588	-12.50659	-3.45273
992.18750	17.47085	-3.29749	-8.73423	6.81805
996.09375	-9.82752	-4.34433	-5.10629	-9.84401
1000.00000	-26.19501	-0.98043	-6.99577	-35.17949
1003.90625	-31.06455	-2.11793	-1.93919	-32.64766
1007.81250	-41.67558	-4.22636	1.30692	-34.74929
1011.71875	-45.43156	-2.08472	-1.45821	-45.59303
1015.62500	-53.04174	1.17664	-7.62894	-57.27350
1019.53125	-49.58863	1.74813	-8.30540	-52.39140
1023.43750	-50.33015	0.35077	-5.93812	-52.16226
1027.34375	-53.30437	-1.68945	-4.21956	-57.68785
1031.25000	-45.21525	-0.85366	-3.02977	-48.23204
1035.15625	-34.55796	2.27415	-1.67920	-39.85678
1039.06250	-34.52843	-0.77362	-3.58053	-26.31568
1042.96875	-41.72412	-2.43548	-2.70143	-24.39100
1046.87500	-37.25900	1.25154	0.32522	-36.78448
1050.78125	-36.28935	3.21580	-2.57097	-34.54599
1054.68750	-41.83739	-0.64648	0.25389	-27.32883
1058.59375	-33.80158	-0.48487	3.15166	-20.63023
1062.50000	-29.80238	1.61034	-0.69123	-14.99331
1066.40625	-42.67796	-1.85312	1.23887	-28.82511
1070.31250	-40.01941	0.45228	1.52856	-27.90440
1074.21875	-30.58369	3.69879	-1.42515	-20.11964
1078.12500	-32.10471	3.42226	-1.40302	-26.89211
1082.03125	-27.84160	1.60839	-0.71332	-18.31403
1085.93750	-21.99539	-0.12718	-2.68972	-17.26179
1089.84375	-12.09066	0.52445	-3.22351	-17.02119
1093.75000	-8.88172	4.02946	2.55257	-9.39008
1097.65625	-5.27273	5.71221	4.11332	-13.29123
1101.56250	-1.17106	6.02013	4.88848	-4.92815
1105.46875	-3.79556	5.62085	5.46044	-0.45375
1109.37500	-7.30377	3.02789	6.94384	-4.30509
1113.28125	-8.58760	3.16757	4.93532	-6.84812
1117.18750	-8.92383	5.98478	4.79489	-6.84826
1121.09375	-5.37940	6.38451	7.65334	-7.06366
1125.00000	-3.36548	6.52429	0.30234	-5.36893
1128.90625	-9.94390	7.55771	-2.22078	-1.83177
1132.81250	-19.65222	3.93494	2.09719	-10.49955
1136.71875	-10.43778	3.83982	1.04704	-17.25964
1140.62500	-8.62267	6.73142	-0.87928	-18.67397
1144.53125	-8.99447	5.40139	1.17495	-6.59499
1148.43750	0.94627	2.02376	4.73834	3.30877
1152.34375	-2.61055	-0.92075	6.93245	-1.82633
1156.25000	-2.17851	0.89168	2.13982	-9.90098
1160.15625	3.61349	5.45036	-5.39658	-1.88540
1164.06250	1.10105	3.86175	-4.41423	-6.11995
1167.96875	1.60185	3.74956	-1.19254	-9.01048
1171.87500	-0.19350	4.31532	-1.10864	-7.43540
1175.78125	-1.09118	1.97822	0.01697	-5.35024
1179.68750	-0.09399	2.54268	1.35594	-1.02605
1183.59375	-0.04934	1.50093	2.47145	-8.35142
1187.50000	5.33174	1.45062	0.93667	-8.54723
1191.40625	-6.77736	3.12285	2.95516	-0.33962
1195.31250	-14.85492	5.49018	1.53049	-2.83007
1199.21875	-7.25262	3.65125	-1.57207	-4.01760
1203.12500	-10.40638	1.54097	0.07270	-2.79088
1207.03125	-11.21924	2.77979	-2.17332	-5.75242
1210.93750	-10.28921	2.75417	-3.44099	-1.89926
1214.84375	-13.67793	2.56551	-3.39064	-3.57750
1218.75000	-6.98531	4.34582	-6.52259	-2.81520
1222.65625	-17.85831	2.36920	-5.56678	1.71648
1226.56250	-19.42443	-0.32418	-2.06356	0.20632
1230.46875	-10.73962	2.40257	-2.56940	6.41911
1234.37500	-18.94067	1.26500	-4.67156	2.85616
1238.28125	-17.02695	-1.41509	-3.01729	1.35503
1242.18750	-17.14572	1.56743	-1.95653	4.38031
1246.09375	-20.06992	2.61226	-0.75138	6.53612
1250.00000	-21.83706	2.87277	1.94195	8.50088
1253.90625	-28.65525	4.00821	1.71847	3.55066
1257.81250	-28.12033	1.68229	0.48497	9.68073
1261.71875	-21.94950	-2.47614	0.42758	2.79473
1265.62500	-16.35664	-0.50144	0.55229	-1.64290
1269.53125	-20.21537	1.34251	-0.38498	7.97952
1273.43750	-24.71476	-0.08275	-0.73962	9.76412
1277.34375	-24.96666	-0.05925	2.37497	7.63316
1281.25000	-28.22328	-0.09122	2.79491	7.84686
1285.15625	-30.42169	0.80828	2.65107	1.88823
1289.06250	-25.61875	1.43636	3.34167	-2.78936
1292.96875	-28.49893	1.08153	3.66937	3.74661
1296.87500	-22.49051	3.03349	3.86410	7.27471
1300.78125	-15.00113	1.47009	3.13192	8.25880
1304.68750	-20.33482	0.49523	5.54313	5.07004
1308.59375	-20.31462	-1.28007	3.85205	-4.44992
1312.50000	-25.92814	-4.98907	5.67829	-5.65544
1316.40625	-26.75488	-4.34813	8.58126	-4.71834
1320.31250	-25.78970	-1.41745	2.64844	-6.84875
1324.21875	-29.99008	-1.84546	-0.44385	-3.75537
1328.12500	-26.45711	-0.76514	1.94959	-7.45998
1332.03125	-28.70840	0.24076	2.86960	-6.36866
1335.93750	-28.51354	-1.65206	1.21757	-3.39252
1339.84375	-20.28927	-4.32041	5.37578	6.84208
1343.75000	-11.81592	-0.57474	7.65629	-1.99887
1347.65625	-10.59257	7.00783	3.67589	-7.36594
1351.56250	-20.74104	5.89201	1.28693	6.02817
1355.46875	-20.53685	3.87163	-0.49580	0.34404
1359.37500	-17.03139	5.25378	3.25684	-2.65541
1363.28125	-30.25570	3.50032	5.26339	-10.58942
1367.18750	-33.54857	3.09861	3.79009	-10.18735
1371.09375	-24.20192	3.90571	2.94425	-7.15240
1375.00000	-34.68002	-0.66839	1.42870	-11.66856
1378.90625	-34.95402	-1.70380	3.14391	-5.93935
1382.81250	-22.83077	2.72284	2.45032	-6.13698
1386.71875	-23.18338	3.62177	4.30427	-3.40721
1390.62500	-19.36001	1.13103	7.43738	2.43843
1394.53125	-15.76735	1.25028	2.15770	0.43170
1398.43750	-12.41409	2.61123	3.02454	4.62956
1402.34375	-13.29227	0.31560	5.66360	1.30222
1406.25000	-14.93577	0.51573	4.41019	-5.93545
1410.15625	-9.04554	0.38725	6.70642	-1.05823
1414.06250	-7.74455	-0.04091	8.54251	3.17530
1417.96875	-5.42759	2.88978	8.54222	2.03553
1421.87500	-3.23204	3.53078	8.45634	11.74156
1425.78125	-3.54589	3.44821	10.95503	9.65532
1429.68750	5.12448	1.67290	10.82276	4.12132
1433.59375	0.64499	-0.51085	10.51116	9.43112
1437.50000	8.55795	3.16382	9.62633	5.59672
1441.40625	18.24688	1.89247	5.99412	4.23808
1445.31250	12.62210	-0.07395	7.01382	2.29545
1449.21875	17.91085	0.55410	6.89091	3.48212
1453.12500	13.40622	-0.56113	6.45291	0.64286
1457.03125	10.59002	2.63030	7.08522	0.78309
1460.93750	10.06030	2.25092	5.53039	3.37595
1464.84375	8.61125	0.01994	4.26919	-3.00525
1468.75000	3.93076	-0.15075	6.19032	-5.38012
1472.65625	4.72797	-0.99670	5.63542	-3.46566
1476.56250	9.11203	-0.32002	4.54784	-5.98549
1480.46875	8.88626	1.78635	5.05160	-6.55804
1484.37500	11.04081	0.10137	3.12244	-2.59302
1488.28125	11.94502	0.36179	1.86902	-4.71917
1492.18750	4.00259	5.43578	0.80627	-7.74536
1496.09375	-3.14919	3.98599	5.24009	-11.51382
1500.00000	-7.83164	0.09709	3.75349	-9.45014
1503.90625	-7.86589	0.16837	-0.45736	-6.51547
1507.81250	5.29619	0.07459	3.59462	-0.96152
1511.71875	-4.90658	1.00741	6.06753	-2.13507
1515.62500	-12.11378	-0.56642	3.12022	-7.77168
1519.53125	2.21847	-0.39781	2.84664	-4.90437
1523.43750	-3.35817	2.23415	6.42272	-6.28703
1527.34375	-7.13823	3.82028	4.11196	-6.97758
1531.25000	-8.31654	3.85022	2.07821	-10.41582
1535.15625	-16.99988	4.56031	1.81713	-9.29348
1539.06250	-20.59663	2.72136	4.34796	-0.18486
1542.96875	-19.73380	0.65651	2.00359	-8.33354
1546.87500	-18.89502	3.53765	0.59804	-2.99824
1550.78125	-21.55190	3.08430	1.32818	6.89570
1554.68750	-27.10009	1.23663	0.92964	0.01012
1558.59375	-21.88505	0.99522	3.02147	1.06747
1562.50000	-21.51239	0.26998	1.99906	0.25723
1566.40625	-28.74709	3.25332	3.52629	-0.27801
1570.31250	-20.44765	1.93232	5.83067	6.28350
1574.21875	-24.71167	-4.49154	5.29451	8.02417
1578.12500	-27.84459	-2.35050	3.70492	0.84853
1582.03125	-29.22254	-3.76143	3.18581	-1.45278
1585.93750	-28.61455	-4.69119	4.83580	-1.20661
1589.84375	-20.72462	-0.41313	4.30197	0.24253
1593.75000	-21.54516	-2.14629	4.83991	4.24704
1597.65625	-21.96574	-0.86647	3.58018	2.36027
1601.56250	-16.65535	0.65019	1.53483	-7.81168
1605.46875	-20.08589	1.86260	5.73318	-9.38145
1609.37500	-20.37083	0.47834	5.20199	0.86953
1613.28125	-13.59615	0.21510	3.59637	1.95264
1617.18750	-15.54420	3.03228	4.66476	0.34063
1621.09375	-13.61159	2.22315	3.89678	5.36310
1625.00000	-12.40381	4.78047	2.58971	0.20776
1628.90625	-13.34147	1.38157	4.49892	-3.50797
1632.81250	-19.02071	-1.43539	4.78761	0.71791
1636.71875	-16.65624	3.70759	1.72277	0.00158
1640.62500	-2.75338	5.79335	1.81111	11.07791
1644.53125	-4.33420	3.25450	1.44774	13.08349
1648.43750	-6.88442	1.08566	-0.22696	10.09319
1652.34375	-3.99436	1.36459	3.98193	9.39012
1656.25000	2.48147	2.37120	5.63616	9.37405
1660.15625	3.84117	4.51222	4.54665	13.76306
1664.06250	4.95500	4.13246	5.12610	12.75176
1667.96875	6.66461	5.22906	1.90091	7.04047
1671.87500	-1.17471	6.19767	1.17891	4.58605
1675.78125	-3.28132	6.68105	2.70747	9.08862
1679.68750	3.35679	8.45428	2.43477	5.35400
1683.59375	0.58081	4.59200	1.93854	2.05773
1687.50000	-3.70858	2.12406	2.41849	6.69697
1691.40625	1.50821	2.58752	3.22814	16.11313
1695.31250	3.90676	0.92550	3.41524	18.86057
1699.21875	-2.19063	2.30992	2.73028	14.04643
1703.12500	-4.94158	3.42309	1.15159	14.87001
1707.03125	3.91572	3.45300	-0.28859	13.11682
1710.93750	-1.60130	3.83031	-0.75043	9.31398
1714.84375	-9.42229	2.43282	-2.71473	2.80035
1718.75000	2.10532	3.40727	-2.22031	2.35351
1722.65625	5.33487	2.63940	-0.45868	7.28782
1726.56250	-3.88697	1.96066	-3.40234	5.37440
1730.46875	-4.87245	2.67275	-4.71398	1.51375
1734.37500	3.44670	1.93809	-2.78682	0.36823
1738.28125	10.59859	2.07840	-1.53545	6.11975
1742.18750	12.89737	1.83749	-0.87765	4.71263
1746.09375	10.77909	2.47930	-0.88133	2.83893
1750.00000	8.20611	1.12797	-3.82905	4.80350
1753.90625	8.64065	1.05456	-2.84371	1.46483
1757.81250	16.02540	1.95206	0.35506	8.80359
1761.71875	13.73461	1.01708	1.50644	10.37898
1765.62500	3.61302	0.97703	1.63120	7.14995
1769.53125	3.38063	2.01516	1.90277	4.28148
1773.43750	3.31351	1.79869	2.75698	-2.79858
1777.34375	1.04693	-0.59545	2.64806	0.30834
1781.25000	0.61074	-1.03043	1.85926	6.96886
1785.15625	-1.99074	0.67488	3.32711	3.02473
1789.06250	3.61792	3.72051	3.21186	-1.65300
1792.96875	10.40782	6.99199	5.95718	6.89738
1796.87500	6.74571	2.89998	9.37536	5.59014
1800.78125	0.53522	1.33651	4.61382	-1.08161
1804.68750	-1.17236	4.79382	4.60743	-3.86766
1808.59375	-2.76402	5.03307	7.75159	-0.49402
1812.50000	-4.34836	5.35328	5.14564	-3.31145
1816.40625	-6.38400	4.78532	4.01936	-8.41842
1820.31250	2.23667	4.49247	7.75692	-2.08738
1824.21875	10.52699	2.45264	7.48521	-2.62056
1828.12500	12.04520	1.51827	5.44644	3.34499
1832.03125	10.59973	2.12125	7.97816	-2.81654
1835.93750	13.61513	3.45183	5.92315	-6.28734
1839.84375	23.45116	1.58927	5.24617	2.33549
1843.75000	23.46286	2.91734	3.09442	-0.86446
1847.65625	16.62770	4.05294	4.75508	-0.18773
1851.56250	13.32899	2.13111	5.99254	-3.71671
1855.46875	9.10090	0.51362	2.19512	-9.40088
1859.37500	5.35347	0.28394	1.11261	-0.71547
1863.28125	6.23158	0.94797	1.91036	7.46755
1867.18750	5.35625	0.14330	2.45172	6.66075
1871.09375	6.64406	-0.66143	1.20296	-0.37773
1875.00000	0.19507	0.00244	0.89631	3.16462
1878.90625	-2.49674	1.78747	2.20857	6.47614
1882.81250	-2.86447	1.78176	7.15597	1.84607
1886.71875	-12.08175	-0.54288	10.21872	-1.87119
1890.62500	-16.31720	-3.43659	8.91962	-9.72538
1894.53125	-20.78327	-1.30276	8.47506	-6.89704
1898.43750	-15.81837	0.86389	6.92434	4.15042
1902.34375	-0.57926	5.01512	9.56329	7.26975
1906.25000	1.80656	9.64749	12.74210	4.06119
1910.15625	3.26465	6.69845	8.18860	5.71479
1914.06250	-0.67236	5.46441	5.99545	1.88962
1917.96875	-4.80212	5.57450	8.41273	3.57040
1921.87500	2.22879	3.39492	9.93859	6.02358
1925.78125	4.73571	2.10347	7.60219	-1.30068
1929.68750	4.54200	2.74568	4.24659	0.01519
1933.59375	5.30086	1.77065	4.33789	-3.53945
1937.50000	5.15553	-1.40461	5.06476	-2.53871
1941.40625	5.17439	1.75614	7.47659	1.34071
1945.31250	-0.45016	1.80422	7.28753	-1.00471
1949.21875	-0.80204	0.82049	7.97054	-3.44420
1953.12500	-4.90340	3.33151	8.33843	-0.23943
1957.03125	-2.07824	2.49353	4.53860	4.33322
1960.93750	2.22760	0.90523	7.01307	2.09110
1964.84375	-3.25030	1.89761	7.76660	0.54509
1968.75000	-3.49817	1.72684	3.24099	1.79676
1972.65625	-0.68598	2.89547	2.28317	-2.33266
1976.56250	3.29559	3.57208	2.40439	-10.89640
1980.46875	1.86147	2.45491	2.50531	-10.66299
1984.37500	-5.25093	2.78448	-1.84133	-16.36819
1988.28125	-2.73463	0.62728	0.12879	-7.61515
1992.18750	-8.66198	-3.96912	7.12464	5.87898
1996.09375	-16.61914	-7.03074	7.93217	3.72234
2000.00000	-10.82492	-6.89042	5.63983	8.20371
2003.90625	-5.62067	-6.41625	4.65255	9.52679
2007.81250	-7.76968	-3.28667	4.27238	7.82805
2011.71875	-16.36047	-2.75680	5.53658	7.46047
2015.62500	-13.49407	-1.91317	7.02160	6.25611
2019.53125	-0.77328	-1.34164	3.52464	-5.38194
2023.43750	-1.11160	-1.12731	3.07149	-5.95871
2027.34375	0.34668	-3.16757	5.19308	-3.42579
2031.25000	-2.44313	-6.76407	3.96533	-6.05812
2035.15625	-10.72341	-5.65106	4.91307	-1.30938
2039.06250	0.99130	-4.66956	7.04106	-1.87103
2042.96875	3.46605	-5.92863	5.90546	-4.37875
2046.87500	-6.97706	-5.06219	3.29117	-1.86404
2050.78125	-6.81324	-6.32146	0.79801	-4.05806
2054.68750	-2.69094	-7.36335	6.04053	1.14423
2058.59375	-0.29625	-4.78428	5.71491	7.43965
2062.50000	2.09123	-2.68916	0.66321	4.61468
2066.40625	2.51239	-1.72044	-0.22706	-3.17349
2070.31250	3.55930	-1.02686	0.46564	-1.04416
2074.21875	4.53349	-1.00379	1.54135	-4.94452
2078.12500	5.02720	-1.68317	-0.45108	-8.09092
2082.03125	1.63468	-1.88525	-2.98476	-7.57179
2085.93750	5.46622	-2.41201	-2.54347	-14.17550
2089.84375	12.14744	-0.95445	-1.46549	-4.66780
2093.75000	8.90935	2.55064	-4.55380	-0.66335
2097.65625	8.48885	0.60705	-4.20178	-7.78838
2101.56250	14.60511	1.31797	-2.21773	-11.91640
2105.46875	3.92184	1.72466	-2.04865	-12.68034
2109.37500	2.02530	2.75813	-2.17690	-9.68219
2113.28125	11.21759	2.09204	-2.17076	-5.37573
2117.18750	6.04612	0.07417	-1.10231	-4.16730
2121.09375	3.94947	0.87688	2.96498	-4.38297
2125.00000	13.61903	-0.19198	-0.35667	-3.09164
2128.90625	25.57530	0.43854	-2.87968	4.07160
2132.81250	14.65818	0.84510	-2.59095	-9.43162
2136.71875	7.35245	1.15311	-2.43230	-17.40086
2140.62500	8.76456	-1.19333	1.68536	-5.92180
2144.53125	3.15465	-5.34389	-2.30433	-3.51343
2148.43750	2.61922	-3.88634	-9.21709	-3.68333
2152.34375	-1.34043	-1.99561	-10.64931	-10.02763
2156.25000	-0.90834	-1.79484	-13.02428	-5.20876
2160.15625	3.67489	-2.47420	-13.71077	2.00061
2164.06250	-12.53716	-3.25686	-13.93718	-2.23431
2167.96875	-12.03631	-0.95143	-17.16235	0.11284
2171.87500	-13.83166	-3.60911	-17.88432	-3.95348
2175.78125	-23.19102	-3.12569	-17.16158	-6.30086
2179.68750	-12.52356	3.07985	-15.01668	3.26105
2183.59375	-19.32881	2.44103	-9.87192	6.41149
2187.50000	-21.60352	2.79364	-10.19780	1.38015
2191.40625	-17.59553	2.45127	-14.22326	-3.70942
2195.31250	-18.42038	3.60975	-12.02150	-2.97686
2199.21875	-18.47392	4.18834	-8.67715	-0.13552
2203.12500	-15.18091	-0.33949	-7.83825	3.91134
2207.03125	-10.35296	-0.30953	-7.26375	2.56098
2210.93750	-10.22903	0.06779	-7.32264	-1.24197
2214.84375	-6.36520	0.28206	-6.86933	6.74972
2218.75000	-0.47876	3.67410	-5.97201	10.73496
2222.65625	-4.90512	0.89150	-2.59864	6.80456
2226.56250	-2.03920	-0.99610	1.71043	7.71139
2230.46875	3.01897	-1.08994	-1.61589	9.49144
2234.37500	-1.95887	-2.63050	-1.30043	4.31627
2238.28125	-0.44828	-0.87850	-1.66080	-1.21457
2242.18750	10.71469	1.29809	-5.43523	-0.60733
2246.09375	12.62555	-0.07480	-2.61832	-2.88422
2250.00000	6.02315	-3.03786	-0.73087	-0.51700
2253.90625	8.06930	-1.90251	-0.14849	-1.03540
2257.81250	12.63345	-1.81093	1.03563	3.07965
2261.71875	6.31323	-3.14891	-1.43932	6.26651
2265.62500	-3.00262	-3.59188	-3.73215	6.26071
2269.53125	-5.24974	-2.15095	-2.65476	5.80961
2273.43750	-7.33156	-1.96451	-1.39764	-4.09112
2277.34375	-6.77766	-5.16454	-4.32708	-1.38727
2281.25000	-10.84018	-5.59955	-4.30999	4.87011
2285.15625	-11.82984	-4.70016	-2.03619	6.96975
2289.06250	-14.27971	-0.84874	-1.34561	-0.52863
2292.96875	-14.74228	-2.00947	-3.03253	3.58939
2296.87500	-8.33097	-5.29564	-2.83772	14.77286
2300.78125	-11.31775	-3.63568	-3.56992	7.69801
2304.68750	-13.83089	-2.19306	-3.57631	6.12070
2308.59375	-10.58713	0.46369	-0.02921	7.88244
2312.50000	-13.78298	-1.23079	4.21462	5.06490
2316.40625	-10.58018	0.21588	2.28244	2.37540
2320.31250	-8.00329	2.74355	-2.84440	5.48268
2324.21875	-10.99485	1.91248	-0.29560	4.14335
2328.12500	-1.82094	2.58975	0.08322	3.25877
2332.03125	-1.65468	1.98389	-0.20557	4.34961
2335.93750	0.55478	2.50862	1.76883	5.71351
2339.84375	-0.89141	3.46654	1.89772	6.68023
2343.75000	-0.87974	2.37697	0.14895	-1.35532
2347.65625	3.56692	1.90086	-1.81675	-1.48494
2351.56250	0.67107	1.59078	-2.59391	3.04422
2355.46875	-2.34831	3.19665	-0.75027	-0.22292
2359.37500	3.97746	2.16109	-0.22102	2.82113
2363.28125	7.67594	2.01928	-3.04970	-0.27827
2367.18750	5.59177	-3.21764	-5.32893	-5.51764
2371.09375	9.29722	-5.63409	-5.36892	-8.12420
2375.00000	9.29519	-0.94091	-0.43750	-1.76170
2378.90625	10.63270	0.03821	0.06889	9.60809
2382.81250	12.27967	1.64425	-1.02765	10.21582
2386.71875	12.32981	0.93130	-0.38243	6.90119
2390.62500	13.33243	-1.55949	-3.29328	8.31420
2394.53125	11.68677	0.17136	-1.32021	8.32168
2398.43750	11.41351	-0.07954	0.75538	4.46051
2402.34375	10.13226	0.44523	-3.45540	5.56502
2406.25000	14.12969	3.06287	-6.32048	10.41480
2410.15625	13.17009	2.93430	-3.62125	5.21828
2414.06250	5.20368	2.90901	-4.60559	-7.47164
2417.96875	5.50597	3.42200	-4.20296	-4.58240
2421.87500	-1.16300	1.24234	-1.46833	3.91442
2425.78125	-10.74423	-1.66074	-3.40180	1.42493
2429.68750	-9.32656	-1.42147	-4.33989	7.17260
2433.59375	-15.41786	0.42399	-3.03981	5.63222
2437.50000	-15.56359	-1.54250	-3.11884	1.79737
2441.40625	-6.27761	-1.60514	-1.11000	4.06460
2445.31250	-2.63501	-0.75111	0.31262	3.73329
2449.21875	3.05680	-0.92895	-0.61612	7.33713
2453.12500	-3.05943	-0.02959	0.55765	-1.54645
2457.03125	-8.29312	0.34121	-0.01880	7.05492
2460.93750	0.44462	4.39398	-0.36487	22.94403
2464.84375	-1.81032	4.98348	0.79159	13.74187
2468.75000	-3.67031	2.39515	-0.10773	10.96359
2472.65625	-7.70839	1.95211	0.14320	11.66878
2476.56250	-21.45616	0.61410	4.29372	6.73090
2480.46875	-21.27910	1.91460	4.79748	0.51689
2484.37500	-20.33345	5.06476	4.07711	5.28738
2488.28125	-25.47332	0.08705	5.64422	10.81647
2492.18750	-27.77480	-0.48006	2.96978	2.95475
2496.09375	-26.46520	2.90531	0.15092	-2.42573
2500.00000	-28.32721	-0.17778	2.29083	4.06981
2503.90625	-30.77921	-1.71828	2.91529	6.19823
2507.81250	-22.85538	-1.00617	0.92335	6.51364
2511.71875	-22.17915	0.32961	3.39636	4.13104
2515.62500	-21.73074	0.77039	2.06083	-0.29708
2519.53125	-20.29239	-0.26988	-3.04784	14.25487
2523.43750	-26.27209	0.34732	-0.27758	10.85716
2527.34375	-26.42587	-0.88706	-1.37948	-7.15971
2531.25000	-20.75436	-2.06604	-4.62192	-3.74842
2535.15625	-20.57330	-1.75888	-3.67422	1.00010
2539.06250	-16.51449	-1.58324	-3.96387	3.25864
2542.96875	-9.20471	-0.02175	-1.47309	6.39166
2546.87500	-2.72489	0.03876	-3.28155	8.90626
2550.78125	-2.15828	1.19705	-5.77472	2.68283
2554.68750	-4.48298	4.18440	-4.56151	2.24406
2558.59375	-1.68537	4.34588	-2.87254	9.34531
2562.50000	1.91107	2.00884	-0.26861	4.50580
2566.40625	-1.69682	-1.05181	2.06444	1.15001
2570.31250	-1.85846	0.04467	3.56295	0.45891
2574.21875	1.53370	2.88814	-0.19671	0.99108
2578.12500	3.23658	3.82034	-2.59219	7.11248
2582.03125	3.47096	2.00647	-1.09669	5.61745
2585.93750	-3.57596	2.68835	-2.67014	-1.79163
2589.84375	1.89715	2.13108	-0.38345	3.68729
2593.75000	3.49496	0.80075	1.36328	3.66287
2597.65625	5.08988	1.67755	2.92402	-0.23821
2601.56250	6.37159	1.17953	2.49040	-2.75413
2605.46875	13.41788	2.79482	2.65938	-3.11482
2609.37500	23.60969	4.23096	4.94865	3.91294
2613.28125	23.53503	2.35593	1.32839	-0.64488
2617.18750	23.19907	0.33780	4.41139	-2.25687
2621.09375	17.07341	-0.06847	6.06104	-8.91935
2625.00000	11.83464	0.87699	-0.48410	-5.21032
2628.90625	13.31480	-0.50728	-1.39550	3.56458
2632.81250	11.26211	-0.50385	2.51958	4.56676
2636.71875	4.76224	1.01272	0.66354	1.02974
2640.62500	-10.34582	-2.54277	-2.47158	-7.23490
2644.53125	-3.46503	-2.26125	-1.22321	-5.22960
2648.43750	7.28151	-2.01265	-0.07740	-0.96740
2652.34375	0.50119	-5.36020	0.90798	10.81993
2656.25000	-3.09629	-2.74205	2.56230	5.56519
2660.15625	-6.57193	-4.63040	2.27869	3.50690
2664.06250	-12.71104	-6.21916	1.24643	11.35970
2667.96875	-10.59881	-3.91391	1.64769	3.63335
2671.87500	-7.55932	-3.34835	-0.68595	-0.03043
2675.78125	-8.05443	1.16419	-0.76912	9.30675
2679.68750	-5.04295	0.51977	-1.04181	7.18330
2683.59375	-3.78989	-4.14846	-2.34387	5.09520
2687.50000	-4.45319	-0.97553	-1.86385	10.94254
2691.40625	-0.04255	1.50245	-0.24830	6.25560
2695.31250	6.38511	-0.15970	-0.46406	7.39070
2699.21875	3.51091	0.01597	2.88031	4.59061
2703.12500	2.77441	-1.28843	3.31639	3.80188
2707.03125	10.82564	-0.85556	-3.36182	7.28631
2710.93750	13.36699	3.14805	-0.19718	3.08004
2714.84375	11.99248	5.37692	2.67380	5.02736
2718.75000	6.19369	0.71027	3.16825	-1.86684
2722.65625	9.42265	-0.05762	1.70658	-9.42397
2726.56250	19.94391	-0.33354	0.37464	2.76452
2730.46875	19.76383	-2.84491	-0.53406	9.37931
2734.37500	8.74195	-3.57957	-3.44199	-0.22848
2738.28125	11.86416	-1.82753	-3.39939	-3.74514
2742.18750	10.93916	0.75203	-1.53270	3.30859
2746.09375	8.41765	-0.21793	-1.93918	0.22545
2750.00000	20.34988	0.04246	-0.05173	-0.63118
2753.90625	13.12850	0.37194	2.54540	8.52030
2757.81250	6.41048	-0.74527	3.72949	11.42614
2761.71875	6.94011	-0.47155	5.28390	6.15103
2765.62500	2.86243	1.50305	7.02039	0.50373
2769.53125	-1.39940	3.34690	6.48606	0.05224
2773.43750	-4.68999	1.92160	6.53440	2.23896
2777.34375	4.32534	3.15383	6.42557	8.56873
2781.25000	2.27737	4.33051	7.65143	7.97589
2785.15625	-5.56220	4.02111	8.31348	4.43407
2789.06250	-6.40048	4.24616	7.39235	8.21731
2792.96875	-4.84856	3.08538	8.12306	10.72317
2796.87500	-4.48132	1.81384	10.73545	-1.86668
2800.78125	-3.43907	1.86212	9.19746	-4.50968
2804.68750	-4.74351	1.29006	9.19110	8.01515
2808.59375	-3.51456	4.34980	9.51472	11.38817
2812.50000	-0.26375	6.68465	8.92344	10.98782
2816.40625	-6.32855	2.08746	8.60304	0.64225
2820.31250	-3.34869	-0.62302	7.50550	1.73462
2824.21875	-6.74316	-0.24527	5.62206	2.00671
2828.12500	-15.29802	0.43198	4.38920	-3.31026
2832.03125	-0.22320	2.24367	3.69749	1.40679
2835.93750	-3.25152	1.55955	2.44836	-1.25863
2839.84375	-6.30901	1.71161	0.96553	-4.72425
2843.75000	-3.47646	3.84549	1.23144	-5.91002
2847.65625	-6.28206	1.75763	0.47458	-6.03969
2851.56250	-7.56575	-1.77589	0.50337	-5.13695
2855.46875	-11.79362	0.23293	-0.47343	-3.16613
2859.37500	-11.51151	-2.01141	-1.15297	-8.18093
2863.28125	-11.03618	-2.55618	-1.56392	-7.65418
2867.18750	-7.47923	-2.15209	-0.61951	7.25253
2871.09375	-6.99717	-4.56858	0.95231	-0.59252
2875.00000	-6.99932	-3.09879	1.85450	-2.28903
2878.90625	-1.63263	-2.92556	1.95812	4.64802
2882.81250	-6.43282	-2.12539	0.45874	0.01701
2886.71875	-3.15957	-1.22667	-0.50760	-2.08952
2890.62500	3.08075	-0.49410	0.20802	-1.48328
2894.53125	1.03169	1.63977	2.18117	-5.90897
2898.43750	-4.88315	-3.04335	2.24228	-4.13013
2902.34375	-11.80596	-4.93612	1.65792	0.19679
2906.25000	-5.39148	-2.72129	2.41931	1.01626
2910.15625	-3.93405	-3.65566	2.29806	2.66860
2914.06250	-3.43957	-3.27800	2.11959	1.25973
2917.96875	-0.31721	-0.34742	0.91056	5.75968
2921.87500	-3.36023	-4.54163	4.45108	7.40567
2925.78125	-0.04805	-7.04182	4.12932	2.49774
2929.68750	13.45722	-1.56444	-2.04685	-0.21690
2933.59375	9.78332	0.28106	0.86502	-3.36976
2937.50000	3.99658	-2.89416	2.80065	-5.59350
2941.40625	4.82101	-4.56857	0.37723	-3.32680
2945.31250	-2.41549	-2.90866	-0.21475	1.17650
2949.21875	-4.37941	-3.89236	0.46822	3.97394
2953.12500	-2.43710	-7.82825	4.05955	-0.07500
2957.03125	-7.67075	-4.63689	2.67722	0.06438
2960.93750	-0.94761	-5.82221	-2.10107	-0.56698
2964.84375	4.45320	-8.05329	1.06993	-7.35192
2968.75000	4.20509	-2.18015	1.78238	5.58385
2972.65625	3.39074	-0.20566	0.82454	5.08008
2976.56250	1.73114	-0.73788	4.57203	-1.87273
2980.46875	3.92318	-0.24331	3.06106	3.59805
2984.37500	-6.01000	-0.31667	3.95239	0.71259
2988.28125	-1.88212	-2.87680	5.11655	-3.83173
2992.18750	10.72519	-4.24978	1.63616	4.02072
2996.09375	10.42361	-4.89379	-0.77980	1.05765
