 	TP9	AF7	AF8	TP10	
-1000.00000	51.87690	-1.62997	-0.10374	63.15627
-996.09375	57.01189	-1.57067	-0.86403	62.79026
-992.18750	56.40665	0.71517	-3.42544	55.70551
-988.28125	52.78181	0.83983	-1.00914	57.14654
-984.37500	54.37753	4.14021	1.55253	62.72069
-980.46875	51.14231	-0.50364	2.72076	50.92293
-976.56250	39.28285	-3.67389	2.27900	43.19668
-972.65625	36.19127	1.55002	-1.86629	40.09980
-968.75000	41.31609	2.16296	-0.95853	37.31103
-964.84375	39.54828	2.17978	0.43596	34.73289
-960.93750	32.71567	2.64820	-2.90317	36.24650
-957.03125	44.65728	6.30301	-1.42250	45.15253
-953.12500	56.72692	5.99505	0.08625	47.21476
-949.21875	51.10611	3.07977	-1.32259	39.95130
-945.31250	48.77246	1.84479	-1.08183	40.77855
-941.40625	46.13742	-1.44041	-1.26135	35.61603
-937.50000	42.91242	-0.64881	0.12121	36.40722
-933.59375	35.83365	0.35045	0.01599	36.37468
-929.68750	33.81535	3.18525	-2.10205	31.65400
-925.78125	34.49684	3.53705	-2.59978	33.71447
-921.87500	36.18627	1.33483	-0.01004	33.28707
-917.96875	36.46046	2.46953	0.86773	33.46069
-914.06250	30.74410	3.55432	-0.86654	27.33968
-910.15625	24.91880	2.07434	1.94071	27.76162
-906.25000	25.32504	0.00220	5.95334	31.27411
-902.34375	24.60081	1.70754	6.08796	28.02258
-898.43750	24.89017	3.57247	3.63890	25.00735
-894.53125	21.32629	-0.51005	5.49892	20.52501
-890.62500	11.94371	1.35676	4.76151	22.66525
-886.71875	13.19614	2.52037	-2.01779	22.58764
-882.81250	25.06074	3.30480	-2.30901	17.78241
-878.90625	29.54521	4.67694	-2.04021	19.88525
-875.00000	29.75270	3.46941	-1.43525	26.41465
-871.09375	22.71105	3.85107	-0.89231	20.02259
-867.18750	22.68932	0.21022	-1.13029	17.74144
-863.28125	26.66783	-0.72291	0.58512	24.70471
-859.37500	20.99774	0.14416	0.35120	17.25953
-855.46875	22.18654	1.79419	2.10567	17.20948
-851.56250	21.37957	6.33219	3.11134	14.22359
-847.65625	26.00585	5.96338	2.16708	15.94731
-843.75000	28.19574	3.32413	3.88978	21.77416
-839.84375	27.43707	2.46736	1.94946	19.11440
-835.93750	30.06295	4.94198	0.00642	12.65167
-832.03125	27.31007	3.96374	2.26772	6.90948
-828.12500	28.79383	0.03376	1.42603	6.75047
-824.21875	32.44967	0.94000	-2.06694	9.37853
-820.31250	27.08822	0.36646	1.54617	10.10711
-816.40625	21.95776	3.24415	4.35697	16.76458
-812.50000	16.34711	6.41493	2.21872	16.64256
-808.59375	23.00434	4.98315	2.68921	16.76891
-804.68750	23.29908	5.42101	0.84485	14.90636
-800.78125	10.26244	2.70812	-0.05275	9.54644
-796.87500	14.79526	1.13506	2.66816	15.03213
-792.96875	13.08874	4.41811	2.96555	9.19859
-789.06250	13.48477	4.28928	3.53804	8.96032
-785.15625	22.89416	5.08123	2.55033	12.56375
-781.25000	18.03921	7.88234	1.98785	11.75982
-777.34375	14.21490	4.25793	3.00070	19.12454
-773.43750	11.91271	2.40514	0.48041	14.81911
-769.53125	6.29372	3.59081	3.16594	10.75403
-765.62500	3.42492	4.75469	5.06203	10.00557
-761.71875	1.24229	7.42918	2.83224	7.85364
-757.81250	3.28982	6.16805	4.14720	14.11579
-753.90625	-0.86294	6.82290	5.64383	12.97351
-750.00000	-4.19299	7.72052	7.21304	9.28759
-746.09375	0.74613	1.61905	5.55746	13.27870
-742.18750	4.57579	0.54373	4.89716	14.31823
-738.28125	3.36635	2.83843	8.12364	15.69653
-734.37500	-3.46656	3.16614	9.19009	12.13579
-730.46875	-5.46856	4.58834	6.00886	5.39751
-726.56250	-5.29321	1.71635	2.02014	9.09317
-722.65625	-8.64775	0.52335	0.12314	9.77120
-718.75000	-7.32486	1.12089	2.44056	8.93233
-714.84375	-5.15333	2.71747	3.06247	4.25649
-710.93750	-15.64596	4.66828	3.17989	1.53295
-707.03125	-13.48422	0.61211	2.50681	7.13119
-703.12500	-9.03293	2.93635	-1.82068	5.06780
-699.21875	-14.69341	1.82397	-0.00717	3.46564
-695.31250	-13.16495	-0.16291	3.78308	8.27818
-691.40625	-11.73791	5.94451	3.96434	5.78389
-687.50000	-8.10937	4.75162	3.79229	6.20022
-683.59375	-10.29731	0.12770	4.30213	9.45494
-679.68750	-15.12810	3.33852	5.21315	6.92171
-675.78125	-8.15328	7.42064	8.53309	6.87465
-671.87500	-2.18616	8.01285	6.34800	2.46578
-667.96875	-0.04203	6.87980	3.86017	3.90259
-664.06250	-2.78643	7.40842	9.62544	9.21648
-660.15625	-13.88336	3.24900	14.07264	11.21097
-656.25000	-12.27420	-1.92994	12.07635	9.30914
-652.34375	-5.10214	-2.82775	8.72000	11.35075
-648.43750	-2.57016	-2.67635	9.55911	17.58837
-644.53125	0.99459	-2.62135	8.50669	9.98170
-640.62500	3.52818	-1.66594	8.84286	12.67551
-636.71875	3.88827	-1.61904	8.77408	14.76667
-632.81250	1.69482	-1.19298	6.64944	3.45353
-628.90625	4.06100	-0.14590	6.78530	4.17002
-625.00000	1.03359	-1.75720	6.18201	9.32444
-621.09375	-5.62365	-3.34599	7.65541	8.05956
-617.18750	-10.43627	-4.13572	9.10389	13.56288
-613.28125	-2.72912	-4.40965	5.77840	14.25404
-609.37500	5.76221	-0.84286	6.01402	12.43069
-605.46875	5.37985	1.13516	5.47007	18.52356
-601.56250	7.39631	-1.78942	2.45144	17.07600
-597.65625	10.02340	-0.21017	3.39744	14.14226
-593.75000	9.84889	2.02776	4.89981	11.53773
-589.84375	9.80237	1.67734	5.23012	6.54071
-585.93750	10.40063	-0.39271	2.74259	5.74956
-582.03125	17.18347	2.19891	3.30354	10.68467
-578.12500	14.89460	1.29528	5.35567	12.05130
-574.21875	6.80721	-1.62405	4.01520	5.79568
-570.31250	18.61628	2.57745	3.62714	3.05135
-566.40625	23.74749	5.74528	2.42976	3.64544
-562.50000	19.68863	1.77017	1.74916	7.39267
-558.59375	21.49355	-0.82577	1.28030	12.10038
-554.68750	22.81120	1.96138	1.11160	6.70904
-550.78125	22.95487	0.24367	-0.00372	4.00927
-546.87500	29.70479	3.83296	2.91803	9.80450
-542.96875	38.66479	9.41599	11.88968	15.63696
-539.06250	43.10473	9.94939	12.93052	17.48578
-535.15625	43.36631	9.56194	9.48771	17.10469
-531.25000	46.61029	11.59762	8.44017	8.64005
-527.34375	49.62958	12.80610	9.44366	9.33295
-523.43750	44.67989	12.24294	10.75688	18.87564
-519.53125	40.62958	13.47651	11.69939	20.11943
-515.62500	39.87300	12.71720	12.62549	18.44952
-511.71875	36.81865	10.44724	10.42479	12.54213
-507.81250	27.92235	10.09832	13.94664	9.50269
-503.90625	20.79403	11.45975	12.45167	13.46477
-500.00000	30.97489	13.78718	7.66063	13.12066
-496.09375	28.85719	10.21991	7.30321	10.74048
-492.18750	20.19317	6.86458	7.56222	6.87971
-488.28125	24.62691	9.80954	10.78431	8.72423
-484.37500	17.35810	6.25993	7.70492	3.82272
-480.46875	11.30224	4.43637	6.45547	2.09881
-476.56250	8.30713	6.50402	8.02835	14.51964
-472.65625	1.58915	4.47499	5.09191	8.19991
-468.75000	8.72854	6.29652	6.40256	0.57653
-464.84375	2.93133	5.10433	9.00583	6.46051
-460.93750	-3.90132	2.75204	7.68127	9.98933
-457.03125	4.41380	7.21254	6.34135	8.82269
-453.12500	2.78385	8.51615	7.44709	5.64733
-449.21875	0.38644	9.22711	9.66463	4.42828
-445.31250	2.88792	7.99193	8.29356	3.64432
-441.40625	0.65569	5.91534	6.50221	3.31746
-437.50000	-2.56933	2.67746	7.07887	3.70620
-433.59375	2.43974	4.07946	5.76485	12.13575
-429.68750	10.09174	6.91399	7.27305	12.65356
-425.78125	2.71461	5.25093	4.35762	-3.82033
-421.87500	-6.47526	6.27192	-1.91716	-11.50008
-417.96875	1.45449	10.22696	0.16929	-5.28197
-414.06250	2.18492	10.10277	2.46423	-4.55268
-410.15625	2.00044	5.39915	-1.17549	-0.10091
-406.25000	6.43584	5.74442	-2.80402	6.23252
-402.34375	4.09976	4.62905	-0.65486	5.39905
-398.43750	7.61232	3.27032	0.11949	4.39893
-394.53125	9.68930	2.81395	1.57642	4.75221
-390.62500	5.94762	1.86003	0.43593	3.66947
-386.71875	9.61749	2.21760	-1.91128	6.41280
-382.81250	8.18529	3.40479	-0.99385	12.08433
-378.90625	7.83463	4.77677	-0.72525	12.17311
-375.00000	10.05692	7.59840	2.70013	11.04750
-371.09375	-1.01384	5.96528	3.24291	2.64152
-367.18750	-2.64705	3.53313	0.99008	6.40521
-363.28125	-0.27978	5.42040	1.49654	16.99589
-359.37500	-3.12872	2.66104	2.47113	11.56642
-355.46875	-0.32743	3.90806	1.80783	9.50286
-351.56250	-3.95402	1.99898	-2.42483	5.71256
-347.65625	-9.40005	0.01832	-3.36926	2.19976
-343.75000	-10.02970	1.40819	-2.04966	3.19283
-339.84375	-1.92274	1.76010	2.05372	10.20491
-335.93750	-2.92221	1.41406	3.33390	12.60823
-332.03125	-12.52382	-2.38495	2.37152	3.24113
-328.12500	-5.39792	-0.67410	5.15601	3.08372
-324.21875	3.90000	2.64965	0.45402	6.92198
-320.31250	4.58343	2.47881	0.44058	6.04012
-316.40625	1.87136	2.13287	3.25122	4.23732
-312.50000	-0.11224	1.67713	-0.49893	1.29593
-308.59375	5.33692	5.48324	-2.84899	1.42337
-304.68750	4.42349	6.72675	-3.88763	3.18813
-300.78125	3.47511	4.81949	-0.75613	6.69354
-296.87500	3.97899	2.03737	-0.04995	4.12138
-292.96875	3.07846	-1.52964	-2.57326	2.72065
-289.06250	1.05695	-1.65867	-1.59797	0.06531
-285.15625	1.60198	1.55072	-3.79463	0.84864
-281.25000	6.82021	1.93398	-5.16305	5.28320
-277.34375	10.24840	-2.89947	-4.55323	4.99244
-273.43750	5.93122	-1.52902	-5.05900	-9.38626
-269.53125	2.32644	2.47695	-2.77647	-11.83977
-265.62500	9.12740	5.25234	-0.88047	8.36392
-261.71875	15.80852	3.89738	-0.69281	7.82346
-257.81250	19.46711	-1.79607	1.02503	2.80324
-253.90625	21.54951	1.74920	0.36539	6.63964
-250.00000	21.39584	6.72649	-1.21420	7.79032
-246.09375	17.65019	5.88505	-1.49766	7.19128
-242.18750	15.17410	5.98275	1.63516	2.18394
-238.28125	15.47321	7.69686	4.00475	0.99378
-234.37500	14.62103	7.40611	1.91796	4.72617
-230.46875	9.07774	6.04008	1.25257	8.41270
-226.56250	13.27020	6.35720	1.42037	6.95147
-222.65625	6.03772	3.89992	0.04517	-5.99070
-218.75000	-1.27659	3.95996	1.50944	-5.42091
-214.84375	-1.11028	2.16640	1.84901	0.96824
-210.93750	-6.15795	-1.50147	2.09488	-2.33072
-207.03125	-11.38282	1.60525	2.32493	-3.99079
-203.12500	-13.56216	0.22024	-0.72546	-9.80116
-199.21875	-10.63759	1.42791	-0.57497	-8.83369
-195.31250	-11.92635	4.56488	2.17496	-3.80729
-191.40625	-12.20734	2.63402	2.92376	-1.84351
-187.50000	-7.15863	1.70051	5.24313	3.77977
-183.59375	-11.81490	-1.42898	3.35187	2.80925
-179.68750	-13.42269	-1.50861	1.37947	-8.05843
-175.78125	-6.52945	0.09634	-1.93786	-6.76419
-171.87500	-7.44157	2.72996	-5.93154	7.08636
-167.96875	-8.71392	7.84971	-0.70609	4.48133
-164.06250	-6.47005	6.60894	-0.21477	-2.03471
-160.15625	-10.04445	3.61453	-2.69923	-8.76172
-156.25000	-11.90198	2.05854	-2.83163	-6.27906
-152.34375	-7.15321	1.20205	-0.69824	-4.92147
-148.43750	-10.00630	0.71011	-0.21337	-9.12781
-144.53125	-18.90352	0.96450	-1.75609	-15.49466
-140.62500	-9.38030	3.90629	-1.52769	-13.38994
-136.71875	-1.43991	2.39421	-2.51908	-3.15138
-132.81250	-1.65285	2.88395	0.08905	0.44395
-128.90625	-4.58731	2.03776	-0.93621	-1.57470
-125.00000	-8.03485	-1.84176	-3.69118	-4.95614
-121.09375	-14.26470	-3.04855	-3.16374	-9.88587
-117.18750	-9.78549	-1.71582	-1.80417	-5.43761
-113.28125	-1.79818	-1.49348	-0.74876	-2.16969
-109.37500	-4.53952	-1.86966	-2.47367	-1.44770
-105.46875	-2.48887	0.20440	1.23086	4.98358
-101.56250	-3.35831	0.88437	4.48098	2.92735
-97.65625	0.54038	3.02714	-0.28191	3.78290
-93.75000	0.49010	4.99202	-0.79326	14.26478
-89.84375	-5.42282	2.68511	0.41112	15.45299
-85.93750	-5.90715	2.67037	2.12938	11.48949
-82.03125	-8.51063	2.81351	3.27528	4.46704
-78.12500	-10.34931	0.91095	0.43826	3.54973
-74.21875	-11.28802	2.99900	1.97131	7.06435
-70.31250	-13.27088	4.82034	3.68750	7.24861
-66.40625	-19.91487	6.36084	4.24046	3.26925
-62.50000	-28.53245	4.75525	4.90380	-0.46530
-58.59375	-19.48764	5.23434	4.38718	3.52057
-54.68750	-16.96701	5.82338	3.51668	5.66772
-50.78125	-28.47433	3.72737	0.50433	2.57648
-46.87500	-22.36220	1.60403	-0.49669	2.88142
-42.96875	-21.53956	2.27883	0.90474	-3.84395
-39.06250	-26.07175	4.31468	1.09056	-5.58884
-35.15625	-24.58735	6.21262	3.44157	4.05239
-31.25000	-23.21581	5.44774	5.36651	9.52643
-27.34375	-18.09226	2.90383	4.03324	5.08769
-23.43750	-25.83078	1.83256	4.57433	-2.07412
-19.53125	-34.53952	4.19853	4.65281	2.79401
-15.62500	-27.68506	1.34644	-1.07260	-2.19626
-11.71875	-28.50365	-4.52626	-0.66408	-6.11773
-7.81250	-21.21256	-2.63539	2.51704	-2.19511
-3.90625	-19.26515	1.00000	1.00360	-1.22900
0.00000	-18.30602	2.87380	6.61399	4.06615
3.90625	-9.32281	2.91067	6.89900	10.30495
7.81250	-10.87649	1.60541	0.54421	5.23785
11.71875	-11.17616	-1.71916	-1.01796	-0.82589
15.62500	-5.89242	-0.62130	1.07024	1.08139
19.53125	-5.99072	3.96942	4.15463	4.64642
23.43750	-8.16900	1.23596	3.18235	8.12094
27.34375	0.27188	-1.54356	3.75313	9.77985
31.25000	3.95946	1.21820	1.08155	12.43234
35.15625	-2.65404	2.20722	1.95216	11.28024
39.06250	-4.05354	1.04124	6.94585	14.57813
42.96875	3.99164	-0.85539	3.89675	23.48974
46.87500	14.22932	-2.28960	1.71041	26.07570
50.78125	12.51338	-4.30190	1.56134	17.04876
54.68750	11.38447	-3.81119	0.42467	11.61843
58.59375	12.06835	-5.50541	-2.33741	14.89190
62.50000	7.42258	-6.18238	-4.65538	10.07353
66.40625	6.03482	-5.87223	-6.38906	13.05789
70.31250	9.65735	-8.20895	-8.84754	12.64265
74.21875	5.98763	-6.99219	-7.54357	8.52700
78.12500	-1.96457	-10.43042	-7.57778	1.12274
82.03125	-5.52704	-14.34011	-9.17551	2.51845
85.93750	-8.57637	-13.90393	-10.06837	6.21355
89.84375	-4.19576	-8.08781	-10.80610	2.86701
93.75000	-0.72588	-12.17163	-11.07532	0.78702
97.65625	-1.44466	-20.58128	-12.80450	-2.58523
101.56250	1.40910	-18.47631	-14.09395	1.21816
105.46875	2.24857	-18.72945	-16.57928	1.54121
109.37500	0.38194	-18.44662	-15.19471	-4.18977
113.28125	0.09813	-15.72466	-9.76981	0.48028
117.18750	0.31194	-14.60153	-8.34736	2.52615
121.09375	0.42681	-11.73958	-10.54424	1.72455
125.00000	-0.15411	-7.05311	-8.99678	6.71784
128.90625	-3.99675	-6.24821	-5.89656	15.67704
132.81250	4.01555	-4.35636	-6.04613	10.01993
136.71875	1.66990	-6.59230	-7.10019	8.76661
140.62500	-5.66155	-4.60325	-4.97108	16.10322
144.53125	-0.86193	-1.84103	-6.65961	16.52168
148.43750	-1.20088	-4.93741	-9.10258	13.74249
152.34375	-7.91978	-4.66142	-8.77063	12.08070
156.25000	-7.46640	-2.19288	-9.06366	12.88033
160.15625	-2.76223	-1.89946	-9.86382	8.46806
164.06250	-0.26336	0.13104	-10.77476	3.56632
167.96875	-4.10692	2.40664	-7.88986	13.40836
171.87500	-4.68608	2.69866	-6.26020	15.53338
175.78125	-4.15072	-0.59689	-7.79186	6.37652
179.68750	-4.98895	-1.20830	-6.28315	3.77336
183.59375	-3.18096	-0.33001	-3.61118	17.42163
187.50000	-3.83177	-2.75252	0.56210	23.16915
191.40625	-2.40154	-2.82751	1.48313	19.58438
195.31250	-3.71467	0.21107	-0.46546	17.03252
199.21875	-0.67020	5.93474	4.96594	20.52480
203.12500	2.88672	9.26806	8.78895	22.63555
207.03125	4.07745	11.01213	7.79185	22.50926
210.93750	0.95261	10.18630	5.99574	23.44648
214.84375	-7.38292	5.06610	4.85490	18.63863
218.75000	-14.39671	0.19110	6.55779	16.38641
222.65625	-6.62758	4.75089	6.28075	23.64400
226.56250	1.91573	5.42036	2.51760	18.31348
230.46875	-0.65850	4.26444	3.24637	12.23520
234.37500	-2.67862	7.11761	2.92921	21.65653
238.28125	-0.65208	6.94755	2.52204	17.92115
242.18750	2.53232	7.47536	3.77454	11.17696
246.09375	0.98726	5.85577	0.05124	10.20992
250.00000	-1.58418	1.16259	-0.72266	12.56953
253.90625	4.74335	4.35025	-0.60341	22.44704
257.81250	1.86429	4.04481	2.12631	20.26068
261.71875	-1.05986	6.56457	6.91322	9.40069
265.62500	-6.34405	7.48244	6.84090	4.26919
269.53125	-10.27536	2.89277	6.98119	3.12117
273.43750	-6.88857	4.82142	7.14881	2.46655
277.34375	-11.30037	7.60198	4.16173	0.40417
281.25000	-9.75002	7.25880	5.22286	-1.03999
285.15625	-8.37471	1.83866	4.75634	0.11168
289.06250	-10.19871	-2.23246	0.56973	6.48374
292.96875	-6.96195	-1.14064	-0.40918	8.85365
296.87500	-7.12650	2.30932	-1.04217	3.84980
300.78125	-1.78429	0.29339	-0.48900	6.02662
304.68750	-2.26720	-3.82265	-1.36567	9.03896
308.59375	-7.78626	-0.91860	-1.42287	14.62970
312.50000	-7.57264	0.96818	-0.71535	12.59799
316.40625	-9.40822	3.07666	-1.80093	3.16660
320.31250	-8.19536	5.81734	1.46462	7.20801
324.21875	-4.12247	2.18401	2.17646	14.14401
328.12500	-3.82577	2.80280	2.61480	7.04286
332.03125	-6.30682	3.49010	3.81078	9.27362
335.93750	-12.52441	2.24917	5.51074	6.38461
339.84375	-13.68106	3.28400	5.44371	-0.74471
343.75000	-12.71800	1.72785	1.28178	7.37965
347.65625	-15.62469	1.67701	-0.61430	5.51440
351.56250	-13.64230	-0.02393	0.67626	2.11459
355.46875	-10.45128	1.43906	3.16267	-1.83391
359.37500	-10.19518	4.78356	2.58502	-0.53441
363.28125	-6.68672	5.28590	4.01103	7.69026
367.18750	-3.67585	4.96958	5.00718	4.03367
371.09375	-11.04221	3.31735	1.96704	4.03039
375.00000	-14.08642	1.45226	1.62944	4.27625
378.90625	-9.03377	0.64825	1.75374	-2.66722
382.81250	-7.77752	2.78667	0.69557	3.79669
386.71875	-9.45998	1.80005	1.75071	9.08037
390.62500	-9.38012	1.42369	1.23444	3.35668
394.53125	-10.55212	5.10932	0.90936	-0.68699
398.43750	-15.85305	3.77448	2.14464	1.69038
402.34375	-13.16234	1.48481	2.21662	2.54734
406.25000	-10.79414	1.43475	0.89911	-2.28064
410.15625	-10.66213	1.54516	2.50625	7.37050
414.06250	-3.89284	2.73894	2.20955	15.49635
417.96875	-1.66027	9.32862	0.93762	7.66943
421.87500	-5.51271	11.05219	0.92088	6.75346
425.78125	-2.01848	8.30467	-1.17261	13.49288
429.68750	0.83455	6.49936	1.34931	16.49890
433.59375	-5.00291	5.21904	1.90207	19.77345
437.50000	-5.56128	7.23954	0.55054	15.23426
441.40625	-6.58915	6.50964	1.24257	7.53621
445.31250	-11.72380	3.47203	-2.85147	8.07250
449.21875	-11.94880	5.00210	-0.22296	11.83175
453.12500	-13.08925	5.69905	2.40223	13.74908
457.03125	-19.51923	1.53847	-1.03159	0.17442
460.93750	-18.00738	4.37998	-0.44296	0.44467
464.84375	-18.13464	4.66593	1.10218	11.29504
468.75000	-15.15152	3.90092	1.41529	7.90484
472.65625	-10.02820	6.19196	5.32001	7.89850
476.56250	-21.39334	6.32938	5.05527	8.39248
480.46875	-13.58225	7.88925	3.52199	14.46944
484.37500	-3.50474	4.63409	3.03455	13.10547
488.28125	-11.57643	3.59639	2.63716	8.78098
492.18750	-8.71800	4.68125	2.99769	11.49466
496.09375	-12.00907	1.86960	1.48417	7.22242
500.00000	-12.66201	0.92277	-0.56122	3.65287
503.90625	-11.33491	1.76534	-0.27630	11.90618
507.81250	-12.48609	1.26581	1.02448	10.06228
511.71875	-7.54824	2.77630	3.89439	8.02747
515.62500	-9.11473	5.88858	6.38550	14.76970
519.53125	-12.43692	4.83819	7.45520	11.88759
523.43750	-13.40694	2.91049	6.88582	12.54136
527.34375	-16.24866	1.33956	4.23309	13.39413
531.25000	-18.60556	2.89243	1.96437	5.57014
535.15625	-24.01090	5.89589	3.23792	2.00007
539.06250	-27.02265	6.34152	4.20227	-1.55206
542.96875	-23.41034	8.07115	5.98827	1.71839
546.87500	-27.27582	4.62208	5.81655	0.27479
550.78125	-29.79815	2.60964	2.84697	-1.90262
554.68750	-26.49547	2.69732	2.51610	-0.48328
558.59375	-27.42392	0.60000	1.76859	-4.46282
562.50000	-24.81759	-0.48003	2.27105	-6.86377
566.40625	-27.81774	-0.57293	1.74616	-5.89436
570.31250	-29.43407	1.11953	2.10825	-2.68354
574.21875	-28.67226	1.53031	1.80056	-8.00817
578.12500	-36.62518	0.10661	-1.05420	-12.18932
582.03125	-36.96519	-1.38562	-1.44314	-9.58523
585.93750	-30.74810	-2.96429	-0.72428	-14.35212
589.84375	-28.78605	-3.59526	-1.46196	-14.07283
593.75000	-25.72031	-2.44118	-1.73110	-3.66261
597.65625	-26.84338	-0.77778	0.16623	-3.40923
601.56250	-22.78224	-4.71695	1.69737	-6.05353
605.46875	-15.09445	-6.17907	2.03266	-2.50806
609.37500	-17.36563	-1.86705	2.20852	-1.79306
613.28125	-16.84517	-1.96565	1.99247	-5.18267
617.18750	-13.81248	-1.24551	1.40031	-4.34656
621.09375	-17.72850	-0.80116	3.63572	-8.37272
625.00000	-18.71388	-1.35283	5.18321	-13.85656
628.90625	-17.72278	2.67550	3.04532	-4.89834
632.81250	-23.81436	1.74676	-0.32762	-1.28878
636.71875	-20.52020	-0.08629	0.63290	-2.54272
640.62500	-18.58525	-0.51489	1.15030	-6.48875
644.53125	-23.45696	-5.81132	-2.14995	-6.47355
648.43750	-20.97622	-2.86386	-0.96658	-1.19437
652.34375	-20.04015	-0.57334	0.97714	-0.84164
656.25000	-21.60198	-1.73123	1.08693	-7.69765
660.15625	-17.70414	-1.43791	0.68963	-7.27450
664.06250	-14.80258	-0.61620	0.58441	2.73248
667.96875	-13.40819	-1.16116	1.05156	1.69591
671.87500	-13.98739	-0.86931	-0.13943	3.01571
675.78125	-12.24307	1.87896	1.95514	-0.09636
679.68750	-7.43990	-0.34428	0.64311	-6.72786
683.59375	-9.66059	-0.67496	-1.52029	-6.37518
687.50000	-9.10186	-1.08294	-0.97359	-4.65564
691.40625	0.38785	0.05069	-2.47040	-1.38910
695.31250	-6.16224	1.88019	-0.38993	-3.53650
699.21875	-10.36941	-0.05203	0.60897	-1.65430
703.12500	-6.40860	1.66935	1.20826	5.69602
707.03125	-6.02274	-0.61621	4.24026	5.57136
710.93750	-1.08785	-3.45694	5.66732	5.70422
714.84375	-0.96097	2.30182	2.10873	2.91237
718.75000	1.69652	2.66474	2.60263	12.34650
722.65625	12.28693	-0.02847	3.53421	25.24646
726.56250	15.59285	-0.56796	2.99430	23.94636
730.46875	19.06321	-3.33581	5.73758	29.95701
734.37500	23.89344	-5.31793	4.61447	34.54411
738.28125	34.38204	-5.48816	2.19254	33.22729
742.18750	41.59617	-6.57220	2.23606	42.60122
746.09375	42.06608	-9.40077	-0.27856	46.87311
750.00000	51.17990	-4.82669	0.96208	48.83059
753.90625	50.25495	-4.45963	1.08126	56.69420
757.81250	45.36147	-10.00331	-0.62132	56.52316
761.71875	48.07854	-9.90126	0.13632	56.54289
765.62500	48.83842	-8.17761	0.06396	58.66465
769.53125	47.72765	-8.73813	1.41303	55.90536
773.43750	46.27934	-7.21261	1.58066	56.05707
777.34375	43.07640	-6.04384	1.81701	53.59217
781.25000	42.61202	-5.17828	6.50457	53.76009
785.15625	41.97261	-5.76337	6.03810	55.71793
789.06250	40.14840	-7.81988	5.47792	54.43451
792.96875	35.72934	-8.33988	3.69312	48.74606
796.87500	31.53543	-8.91930	4.26894	49.38343
800.78125	34.45992	-7.71196	4.01628	51.56052
804.68750	32.76812	-6.58996	4.75128	47.32037
808.59375	28.05472	-4.49184	7.51461	43.24093
812.50000	35.52082	-1.39637	4.99866	48.05913
816.40625	35.69969	-1.70560	1.49539	45.07474
820.31250	28.85369	-6.62068	2.34327	38.23720
824.21875	32.12044	-4.61303	3.86091	41.94982
828.12500	31.20801	0.84079	1.47868	35.65446
832.03125	33.56167	-0.48669	0.25698	35.46770
835.93750	34.59637	-1.72775	0.74806	35.80213
839.84375	32.63343	0.11283	0.68097	32.70220
843.75000	37.62540	0.16826	0.95130	33.97671
847.65625	33.91240	-2.30023	2.68149	32.51441
851.56250	26.62694	-2.38957	1.95735	30.72643
855.46875	23.37050	0.28211	2.83194	27.98665
859.37500	29.26714	0.00013	3.46309	27.67442
863.28125	34.38679	-2.72108	2.87435	29.85501
867.18750	31.75598	-3.03748	3.06463	27.40703
871.09375	31.23878	-5.49573	1.23326	29.82124
875.00000	35.04378	-6.15213	0.08975	28.85810
878.90625	34.85763	-1.31520	1.01995	23.92899
882.81250	28.86042	-2.80331	-0.84410	25.96035
886.71875	21.53603	-6.20763	-2.60938	23.18496
890.62500	22.82365	-3.36074	-0.70809	16.25183
894.53125	22.85936	0.72763	-1.03312	22.68356
898.43750	18.76604	0.19848	0.60509	30.29819
902.34375	21.85841	-0.47959	-0.12873	26.31910
906.25000	27.85166	1.08196	-0.23744	30.75751
910.15625	18.71484	-0.41950	4.99605	29.93153
914.06250	-3.93116	-6.07564	6.31112	13.88054
917.96875	-6.93807	-3.51524	8.26263	8.47034
921.87500	0.49024	-1.79174	6.63424	11.98582
925.78125	-3.26948	-4.53927	-1.10026	11.87450
929.68750	-2.83520	-1.91237	-0.19008	12.86504
933.59375	1.39944	-1.98394	0.36276	14.52704
937.50000	-1.98062	-1.57521	1.83183	11.19581
941.40625	-0.59218	0.91819	2.92681	7.52623
945.31250	6.35993	2.31275	2.05629	12.09102
949.21875	12.17779	8.27499	6.29663	13.83481
953.12500	12.24495	8.16594	8.11608	20.18353
957.03125	9.84303	6.01990	6.69692	22.32220
960.93750	7.72723	9.26427	5.27103	16.95049
964.84375	2.36066	4.71507	7.21910	16.92091
968.75000	3.32802	0.32365	6.32343	13.93285
972.65625	-1.21992	0.60010	5.39300	11.50821
976.56250	-4.12436	-0.87419	4.32237	12.40449
980.46875	3.28308	1.49155	5.20658	18.88388
984.37500	-8.80130	0.65400	7.13667	2.61110
988.28125	-29.36436	1.63095	2.70993	-22.26314
992.18750	-30.53562	5.53629	1.86159	-23.98183
996.09375	-44.70618	7.15687	3.57144	-39.13325
1000.00000	-59.05906	4.59825	-1.69740	-51.56713
1003.90625	-52.49392	2.21731	-4.23309	-40.89613
1007.81250	-55.65977	1.71773	-1.32069	-45.56014
1011.71875	-47.49849	4.43687	-0.86840	-37.52115
1015.62500	-35.76814	2.31099	1.21967	-29.56956
1019.53125	-33.44918	-0.35131	3.09510	-28.01882
1023.43750	-21.52514	2.55602	0.51096	-14.87352
1027.34375	-19.12847	1.79087	1.08160	-18.04927
1031.25000	-19.47041	7.77580	0.42447	-12.57571
1035.15625	-18.02552	7.55575	-0.71966	-12.11552
1039.06250	-16.60456	3.56897	-0.15841	-19.29314
1042.96875	-15.00640	6.91013	-0.79014	-13.20120
1046.87500	-20.48310	4.66972	-0.96192	-17.06148
1050.78125	-17.76697	3.06008	-0.70817	-18.83513
1054.68750	-12.44910	2.74466	-1.03924	-16.60899
1058.59375	-12.57121	1.05012	-1.38391	-20.99040
1062.50000	-11.97908	-0.03003	-4.10500	-20.97283
1066.40625	-13.77004	2.29452	-2.61530	-16.77902
1070.31250	-11.75949	5.19564	0.97004	-11.95549
1074.21875	-14.62363	1.57698	-2.15835	-12.04110
1078.12500	-18.54684	-0.65272	-1.38682	-16.22134
1082.03125	-16.06584	-0.13049	0.64175	-13.21349
1085.93750	-17.10110	-0.09750	2.56931	-12.74141
1089.84375	-11.51239	0.88308	4.24913	-13.26720
1093.75000	-15.69905	0.82825	3.17396	-8.90018
1097.65625	-20.04516	-0.73186	3.05652	-9.85488
1101.56250	-1.88117	0.16395	2.97579	-4.03698
1105.46875	2.18053	1.52220	5.72858	-3.31126
1109.37500	-3.71671	4.22239	6.30730	-9.04243
1113.28125	0.02747	6.54127	3.67358	-4.77560
1117.18750	-1.37167	3.23197	5.49895	-2.72997
1121.09375	0.75657	4.48202	3.70498	0.49742
1125.00000	5.41259	4.73606	4.44655	1.86404
1128.90625	4.38947	3.92911	7.94954	0.74982
1132.81250	2.73047	3.40314	6.18827	0.73368
1136.71875	1.18979	3.18171	6.74574	1.49504
1140.62500	1.91620	0.73830	8.06886	1.57895
1144.53125	3.49165	3.09742	7.99194	2.40050
1148.43750	7.98732	5.64179	9.17520	7.27733
1152.34375	6.50604	2.29113	7.89533	9.24238
1156.25000	0.10931	3.14778	6.39332	-2.44829
1160.15625	2.39567	7.06744	5.59304	-4.03927
1164.06250	-0.34366	6.27742	6.69648	8.38584
1167.96875	-2.57549	2.91185	7.96938	3.72334
1171.87500	-0.73701	3.60657	9.19589	1.01432
1175.78125	-2.21602	5.14594	10.08153	1.93204
1179.68750	0.57244	6.14607	8.36649	0.53912
1183.59375	3.18678	3.80066	7.00882	0.89227
1187.50000	4.14836	2.98966	6.74955	1.00044
1191.40625	4.77361	2.51143	6.46142	4.26734
1195.31250	5.07317	0.71451	4.10955	-0.70019
1199.21875	9.73034	2.81153	5.10836	-0.42930
1203.12500	14.09410	1.71237	7.72224	7.32436
1207.03125	9.64472	0.23258	6.32191	6.39412
1210.93750	10.55016	-0.19065	5.33133	-0.32248
1214.84375	15.91510	0.32990	4.99604	-4.32264
1218.75000	13.33449	2.70736	4.28109	-1.73795
1222.65625	15.46331	1.22281	6.01840	-0.52253
1226.56250	19.57509	0.28020	5.07541	3.81887
1230.46875	21.83656	1.94445	6.20687	6.60660
1234.37500	18.20526	1.57396	7.50123	2.73260
1238.28125	17.81455	3.82114	7.49679	3.83376
1242.18750	19.38751	4.34868	8.74899	8.77590
1246.09375	18.24554	1.92297	6.23427	6.19834
1250.00000	21.71814	0.85588	4.65430	4.52981
1253.90625	19.98694	0.01403	7.19090	5.14097
1257.81250	19.52542	0.91716	7.09994	-0.67083
1261.71875	13.78062	-0.99556	6.64865	2.97555
1265.62500	10.10787	-2.89837	6.57617	3.88883
1269.53125	18.26414	0.97320	3.08992	-3.70540
1273.43750	15.60671	0.88693	3.25738	0.87883
1277.34375	15.22391	0.04095	4.70235	-5.21206
1281.25000	17.57981	2.11521	4.55458	-9.47608
1285.15625	16.53713	1.53004	6.50554	-0.26525
1289.06250	18.74203	1.08515	6.34810	5.70443
1292.96875	17.94912	1.77392	5.36899	4.44859
1296.87500	14.56074	1.19434	4.73585	-2.56939
1300.78125	12.64977	-1.62768	3.27427	0.41396
1304.68750	10.95766	1.91176	1.18862	3.02389
1308.59375	9.87043	2.80099	2.74298	0.15354
1312.50000	8.47183	0.25529	5.46491	4.16621
1316.40625	7.84450	1.55770	5.18498	2.39089
1320.31250	6.23630	0.67179	4.42105	2.00056
1324.21875	6.68213	-1.75296	6.74443	5.31052
1328.12500	10.60463	-1.53740	5.16795	3.04478
1332.03125	7.71997	2.37309	3.54324	0.44081
1335.93750	5.93395	1.53486	6.45180	-5.67135
1339.84375	4.77666	0.55470	8.39923	-7.96512
1343.75000	4.53032	-1.40461	11.08696	-3.46682
1347.65625	-0.39175	1.36482	8.78775	-12.58450
1351.56250	-18.55647	-0.33634	7.66052	-22.02790
1355.46875	-39.54203	-6.12635	10.14675	-32.82601
1359.37500	-53.79212	-5.19965	16.41878	-49.65798
1363.28125	-80.10117	-12.75612	25.09731	-77.69686
1367.18750	-127.05443	-13.87857	26.49636	-132.12259
1371.09375	-151.74751	-13.51639	25.06778	-163.95712
1375.00000	-187.42987	-18.20219	30.37105	-187.08113
1378.90625	-211.38904	-10.54488	32.10695	-208.93297
1382.81250	-210.13364	-1.55692	27.42225	-218.98915
1386.71875	-226.32262	5.51478	24.44805	-246.74586
1390.62500	-232.28792	9.97330	24.33457	-251.66397
1394.53125	-228.22307	13.65866	24.81524	-249.66406
1398.43750	-231.91364	13.93526	25.24459	-252.92822
1402.34375	-224.38910	11.24246	23.70482	-235.95453
1406.25000	-215.17253	12.40097	24.40190	-235.94800
1410.15625	-206.58040	16.13750	22.78545	-228.31209
1414.06250	-192.55969	12.89883	15.23593	-198.02554
1417.96875	-171.79378	12.63856	14.36675	-190.54164
1421.87500	-157.51581	20.80884	15.55869	-172.92328
1425.78125	-141.53198	19.67297	15.07676	-157.31999
1429.68750	-126.59225	16.25575	15.58390	-141.42062
1433.59375	-109.06091	8.12545	11.30140	-120.41750
1437.50000	-91.08559	3.69888	6.32336	-109.64565
1441.40625	-88.08526	10.22145	7.82108	-87.93005
1445.31250	-65.01567	3.96026	7.35322	-69.26199
1449.21875	-37.84212	-2.16554	1.52009	-56.23532
1453.12500	-32.53637	6.99278	-1.49591	-38.60361
1457.03125	-20.83506	14.51695	-2.51235	-23.16702
1460.93750	-2.40071	8.89669	-0.71504	-8.79387
1464.84375	12.78286	-2.09956	-4.81124	15.35355
1468.75000	23.42134	1.56738	-5.30424	24.05173
1472.65625	31.76784	5.06701	-2.20559	28.07527
1476.56250	40.14610	0.36895	-6.50000	43.47825
1480.46875	53.19520	1.52556	-8.83942	53.18231
1484.37500	59.24340	-0.11813	-10.93890	56.65434
1488.28125	57.21568	-6.79717	-10.93362	60.79220
1492.18750	60.07416	-3.69798	-9.36459	67.93899
1496.09375	61.61835	1.95162	-12.08719	67.29411
1500.00000	68.62121	1.00450	-11.31231	69.76949
1503.90625	73.17201	1.44385	-9.81892	77.62064
1507.81250	71.21511	1.74995	-11.33888	81.41869
1511.71875	77.76495	0.03671	-8.87218	86.63761
1515.62500	74.58688	-2.08939	-8.79885	93.78378
1519.53125	74.89127	1.29213	-9.34115	93.32016
1523.43750	77.54773	0.97590	-8.29903	94.78074
1527.34375	73.49731	-1.80415	-8.13151	88.78456
1531.25000	70.73757	0.15136	-7.17703	85.39378
1535.15625	70.16758	1.13987	-4.29207	89.88338
1539.06250	79.64677	0.37640	-4.53680	86.33211
1542.96875	72.78300	0.09100	-7.18329	85.57409
1546.87500	67.30593	0.67101	-8.56402	78.89331
1550.78125	76.06572	-0.13293	-9.51923	78.32841
1554.68750	74.93629	0.35733	-6.22402	81.36024
1558.59375	73.20197	3.09493	-6.97172	68.11414
1562.50000	73.79366	2.01454	-7.67829	72.56380
1566.40625	72.80820	-0.09327	-3.36827	82.39854
1570.31250	74.81828	1.19593	-4.61819	79.16338
1574.21875	77.59480	2.81520	-6.13492	77.86885
1578.12500	67.62731	-0.62347	-4.55765	69.25631
1582.03125	61.64640	-3.32481	-6.55850	64.20548
1585.93750	64.64005	-2.48621	-9.06333	63.06561
1589.84375	64.18448	-3.52037	-6.98070	58.51041
1593.75000	66.44440	-2.76953	-7.25017	55.62469
1597.65625	63.30675	-3.92686	-6.15897	54.66993
1601.56250	64.14451	-4.64285	-3.82222	56.86135
1605.46875	55.31215	-4.49352	-2.27838	55.16944
1609.37500	57.47329	-4.21108	-0.49103	52.66174
1613.28125	68.06709	-3.50405	-3.12488	49.67578
1617.18750	63.84714	-5.20181	-4.92606	47.69224
1621.09375	59.52823	-4.75774	-6.31731	49.71074
1625.00000	53.70775	-6.51850	-7.18760	45.43633
1628.90625	52.28129	-7.72856	-6.10226	41.90451
1632.81250	49.01023	-4.62827	-5.84905	43.09718
1636.71875	41.42531	-3.23815	-3.27697	47.08210
1640.62500	45.37485	-2.86114	-0.74512	44.74843
1644.53125	49.77042	-2.91976	-3.23973	39.52615
1648.43750	52.25113	-0.77848	-1.65362	38.76197
1652.34375	47.94897	-2.51751	-1.32191	36.29482
1656.25000	45.58120	-3.67568	-2.42116	35.48344
1660.15625	44.64373	-3.78555	-1.60982	36.71303
1664.06250	41.09816	-4.57588	-2.92407	32.21508
1667.96875	38.06012	-1.49478	0.76624	35.61140
1671.87500	33.04847	-2.81491	1.58968	34.11129
1675.78125	30.36030	-2.48450	-2.76280	21.32959
1679.68750	33.14845	-1.48465	-2.86627	16.31038
1683.59375	26.89807	-2.62143	-2.20939	24.72213
1687.50000	25.44180	-1.41797	4.78402	28.85976
1691.40625	30.49891	0.92419	6.51045	22.45644
1695.31250	27.97771	1.14173	0.93498	31.18859
1699.21875	25.78469	0.41799	0.32195	33.47418
1703.12500	27.32747	0.52739	3.33860	31.15469
1707.03125	22.47486	2.27083	4.35576	26.19526
1710.93750	8.47151	3.45918	1.35041	19.47878
1714.84375	12.62732	5.99413	2.62672	21.11984
1718.75000	26.96927	4.34211	4.32917	21.28703
1722.65625	23.05368	5.27498	0.42533	14.44385
1726.56250	20.71809	7.95861	1.09398	13.54726
1730.46875	17.33817	3.98164	1.41944	19.96136
1734.37500	10.88598	2.80514	-0.50979	21.72842
1738.28125	10.49494	3.44041	-2.52907	15.97975
1742.18750	10.85863	4.37068	-4.09747	14.47493
1746.09375	6.49270	3.95938	-2.98590	19.15001
1750.00000	3.92100	5.71265	-1.74546	19.89896
1753.90625	-1.03384	4.87055	-3.23821	16.88378
1757.81250	-7.13670	1.34120	-6.55278	10.66907
1761.71875	-6.43488	3.86056	-4.18367	11.09202
1765.62500	-8.49604	2.36039	-2.64451	17.24346
1769.53125	-9.20440	-0.21505	-4.11626	14.88738
1773.43750	-11.45914	4.13077	-4.35183	8.59251
1777.34375	-13.45383	5.70221	-4.92167	7.33670
1781.25000	-9.88936	6.16447	-3.86084	10.72839
1785.15625	-12.14103	4.77319	-1.10416	10.26894
1789.06250	-9.13054	3.11929	-1.26175	8.98588
1792.96875	-18.78798	3.80786	-0.62924	8.93884
1796.87500	-18.14714	5.64568	0.75215	8.36783
1800.78125	-2.73216	8.06154	-0.30664	15.38046
1804.68750	-6.43898	4.34808	-1.58656	7.11137
1808.59375	-13.57022	4.02830	-0.43521	1.42060
1812.50000	-8.92492	6.72056	1.07785	15.10378
1816.40625	-5.52294	6.81401	1.20073	14.13458
1820.31250	-11.96632	7.94257	1.24256	10.11808
1824.21875	-15.14684	5.11476	-0.86635	10.20484
1828.12500	-14.85058	2.91257	-0.83125	1.89551
1832.03125	-15.31759	1.58479	1.17035	2.51521
1835.93750	-11.05953	0.74635	-5.18866	6.87950
1839.84375	-9.79907	0.57201	-16.94097	2.57137
1843.75000	-12.86579	1.43312	-20.29727	8.27876
1847.65625	-10.93785	0.97904	-18.16436	5.60831
1851.56250	-5.73258	-0.72232	-16.87412	7.04433
1855.46875	-5.76565	0.33740	-13.58219	13.16963
1859.37500	-12.35997	0.86101	-14.16007	1.97904
1863.28125	-11.67263	-2.26334	-15.15198	-3.89824
1867.18750	-10.27414	-2.17710	-12.54433	2.51888
1871.09375	-14.41785	-1.81506	-13.16712	8.56010
1875.00000	-9.40425	-4.08344	-9.87860	7.59762
1878.90625	-11.60521	-5.69366	-8.14277	3.07217
1882.81250	-7.52933	-7.18203	-9.20123	4.70137
1886.71875	-1.96011	-4.13969	-10.96674	2.32958
1890.62500	-5.91071	-2.50187	-10.27446	0.23225
1894.53125	-1.04008	-1.63715	-6.57039	1.02360
1898.43750	0.10445	-4.98709	-8.55882	-6.67246
1902.34375	-1.23572	-6.47125	-9.69577	-0.98065
1906.25000	1.13084	-3.29823	-6.58133	3.86124
1910.15625	-2.76823	-1.57638	-6.18323	2.22987
1914.06250	1.17882	-0.38298	-7.28603	2.69958
1917.96875	4.61832	-2.65804	-7.34944	4.13959
1921.87500	4.39033	-4.15828	-6.96353	8.86418
1925.78125	5.46525	-0.86209	-4.22218	13.58847
1929.68750	8.31656	-1.86186	-0.89470	12.96771
1933.59375	9.32727	-4.35124	-0.34222	8.98906
1937.50000	9.57319	-1.92818	-2.09695	5.65832
1941.40625	11.76723	-2.65840	-3.41986	7.63038
1945.31250	1.79604	-2.06991	-5.09665	4.94314
1949.21875	1.97283	2.28037	-4.08013	5.88195
1953.12500	6.47236	-1.85820	-4.27572	10.61996
1957.03125	-4.79376	-1.18399	-6.09816	7.52175
1960.93750	0.34351	2.46305	-5.50987	7.79230
1964.84375	7.87103	-0.87771	-3.96509	6.55519
1968.75000	-0.83164	-2.04614	-2.84651	5.58303
1972.65625	-0.54417	-3.38181	-3.37437	11.62124
1976.56250	-4.65723	-4.05070	-4.84832	7.28071
1980.46875	-0.07024	-0.87949	-2.35277	3.68808
1984.37500	4.36569	-2.92623	-1.63180	3.53369
1988.28125	4.75505	0.46786	-3.64127	2.03057
1992.18750	3.58376	3.56695	-4.08697	9.17738
1996.09375	-0.51353	-1.25977	-3.98917	12.15882
2000.00000	0.04195	-1.40121	-3.21440	15.84299
2003.90625	-3.86926	1.05269	-2.12403	17.24735
2007.81250	-4.21483	3.37325	-0.42070	9.76344
2011.71875	-6.12703	1.25695	-1.17760	0.87992
2015.62500	-8.49956	0.74247	-5.93966	2.78810
2019.53125	-1.34578	0.49749	-1.64692	11.99492
2023.43750	-2.31599	4.21042	0.60378	7.00867
2027.34375	-6.36674	7.07130	-3.25815	3.02733
2031.25000	2.55815	1.77388	-4.31847	10.51574
2035.15625	13.67277	1.15054	-1.43360	8.55858
2039.06250	12.67539	4.41617	0.73906	7.42510
2042.96875	15.07864	9.36869	0.10708	16.33756
2046.87500	7.98944	1.88994	-4.49723	6.03055
2050.78125	1.43749	-6.16692	-11.49652	-4.60747
2054.68750	1.91940	-6.07979	-10.61902	-3.59009
2058.59375	0.99063	-6.96878	-9.75523	-3.13635
2062.50000	2.38783	-4.82583	-8.44723	-0.70113
2066.40625	2.20788	-3.71041	-9.37547	-6.17762
2070.31250	1.39706	-6.85357	-10.62554	-4.98039
2074.21875	-0.66197	-10.87553	-11.33657	-0.23085
2078.12500	-10.22700	-10.28508	-10.16234	-2.39644
2082.03125	-5.32924	-5.73385	-8.93997	-1.00027
2085.93750	-3.94760	-5.70128	-12.25080	-5.36347
2089.84375	-6.82110	-6.33270	-11.78009	-4.27753
2093.75000	-8.99389	-4.77612	-10.03497	-1.52214
2097.65625	-9.71431	-3.91901	-11.76444	-3.68560
2101.56250	-6.05660	-3.82935	-9.02492	-2.29993
2105.46875	-8.44255	-3.68022	-6.27246	-5.60350
2109.37500	-6.28185	-3.39787	-6.09703	-2.06732
2113.28125	-7.77657	-1.48225	-8.32810	-1.02401
2117.18750	-6.75883	0.04329	-8.92064	-4.61930
2121.09375	-7.04870	-1.52746	-6.68565	-2.60046
2125.00000	-8.84014	-3.28837	-10.37667	-2.84527
2128.90625	-3.41694	-1.67810	-13.32086	-2.34753
2132.81250	-3.46470	-2.20434	-7.82978	6.90403
2136.71875	-13.46736	-5.24663	0.38314	5.24824
2140.62500	-15.15902	-4.86983	1.70598	3.31785
2144.53125	-13.58405	-6.54043	-1.99763	8.16912
2148.43750	-9.89474	-6.81686	-4.03811	6.59940
2152.34375	-8.55595	-5.33261	-5.31830	7.35597
2156.25000	-12.53571	-2.46168	-5.61188	2.51545
2160.15625	-12.26459	1.05460	-6.41247	1.73057
2164.06250	-18.63083	-4.16808	-6.51806	-3.57301
2167.96875	-26.50416	-5.51939	-8.06592	-3.80293
2171.87500	-20.63685	-3.21329	-10.06314	3.15865
2175.78125	-13.25179	-6.10650	-6.76016	1.65908
2179.68750	-12.47838	-7.12137	-7.66971	7.11617
2183.59375	-13.08785	-6.64663	-9.83353	9.88708
2187.50000	-15.75298	-7.45795	-10.89893	6.36922
2191.40625	-14.72520	-7.13060	-9.17264	8.02480
2195.31250	-9.99382	-10.13672	-5.07787	15.14555
2199.21875	-17.02200	-11.66650	-7.30279	11.38741
2203.12500	-19.91147	-7.12507	-7.91263	1.41251
2207.03125	-17.51150	-2.96414	-4.47807	-0.32329
2210.93750	-14.59179	-2.17899	-6.27479	1.82495
2214.84375	-13.25652	-0.04711	-9.43090	5.88372
2218.75000	-16.64345	-2.10221	-6.92271	3.23068
2222.65625	-14.91790	-5.19887	-7.60329	1.62580
2226.56250	-15.64180	-1.30661	-11.77006	10.39968
2230.46875	-19.42459	-3.67201	-11.44474	8.35248
2234.37500	-14.99776	-8.47518	-11.76235	4.47876
2238.28125	-19.01521	-9.85468	-11.36421	5.17728
2242.18750	-17.44266	-4.08941	-9.30643	6.09035
2246.09375	-8.10884	0.73724	-4.56869	4.72182
2250.00000	-10.27762	-3.15073	-4.13430	2.24763
2253.90625	-14.02362	-5.20178	-7.23898	6.88838
2257.81250	-12.47073	-5.10487	-7.33024	2.68866
2261.71875	-12.97768	-5.80913	-8.58763	-2.12621
2265.62500	-19.06821	-7.30936	-7.85453	3.62261
2269.53125	-16.95608	-6.66151	-6.10298	5.29621
2273.43750	-15.18149	-9.16572	-5.93580	6.65729
2277.34375	-22.41441	-8.80325	-8.11748	3.38716
2281.25000	-18.85010	-6.32648	-8.66851	5.16735
2285.15625	-21.50476	-5.70325	-5.50912	7.12580
2289.06250	-22.92660	-4.93973	-3.24926	-3.02147
2292.96875	-20.09338	-7.07189	-3.82572	-3.47117
2296.87500	-21.87030	-5.63713	-5.26501	4.01673
2300.78125	-23.78149	-6.84780	-5.11521	4.17981
2304.68750	-23.05632	-6.93514	-3.57483	1.55193
2308.59375	-18.09985	-2.82286	-2.42367	1.90538
2312.50000	-14.66356	-5.77180	-1.31375	5.51552
2316.40625	-21.73799	-5.27564	-2.80277	-1.49760
2320.31250	-19.31713	-2.93837	-4.37292	0.12703
2324.21875	-12.02169	-2.94582	-4.06442	9.88427
2328.12500	-4.07007	3.31334	-5.64120	3.58961
2332.03125	-3.32848	4.40302	-6.86330	-4.65506
2335.93750	-11.96449	2.75862	-7.98432	-4.31996
2339.84375	-9.49558	0.97230	-10.06648	-1.77826
2343.75000	-10.95100	1.02733	-4.55854	-2.51766
2347.65625	-13.45562	1.78181	-3.23170	-5.99397
2351.56250	-12.68282	-3.54607	-5.56797	-9.39311
2355.46875	-12.71618	-4.50117	-5.09673	-8.10294
2359.37500	-12.46103	-3.17189	-4.46607	-3.57935
2363.28125	-11.37115	-5.49059	-2.23464	-1.39807
2367.18750	-15.61399	-7.41922	-1.23891	-4.24831
2371.09375	-10.49059	-7.46029	-1.86189	-10.29497
2375.00000	-8.29772	-5.69948	-1.39404	-6.42225
2378.90625	-7.67843	-3.28056	-1.67303	-2.08322
2382.81250	-4.81161	-1.54563	-1.92582	-3.67756
2386.71875	-6.49535	-4.54745	-2.88567	-4.84066
2390.62500	-4.80517	-4.92436	-3.40239	1.92651
2394.53125	-3.15823	-2.04522	-4.53364	0.30030
2398.43750	0.40360	-0.15717	-3.70169	-1.35181
2402.34375	-1.33965	0.77605	-2.42125	9.57818
2406.25000	-12.67281	-0.08041	-4.14207	-0.48820
2410.15625	-13.75142	-0.37349	-2.93815	-0.50762
2414.06250	-4.96926	-1.59778	-2.02625	-0.84352
2417.96875	-7.17078	0.15628	-0.88080	-11.08829
2421.87500	-10.62220	-0.53824	-2.10662	-0.72236
2425.78125	-11.56192	-2.48035	-5.00624	1.58456
2429.68750	-14.75456	-0.65968	-2.48459	4.59052
2433.59375	-8.10282	0.47713	-0.72335	9.47672
2437.50000	1.81343	-0.32336	-1.67216	5.34043
2441.40625	-6.06586	-1.45670	-3.39802	4.89522
2445.31250	-12.00776	-1.67429	-3.46312	6.64060
2449.21875	-4.98129	-3.77108	-2.04368	1.93869
2453.12500	-0.88488	-2.67178	-2.64229	7.88583
2457.03125	-6.10721	-0.38603	-2.45016	5.59386
2460.93750	-7.01397	-2.38032	-1.86189	-6.22308
2464.84375	-10.76851	-1.69195	0.48863	3.01628
2468.75000	-5.36872	-0.03997	0.80131	9.70017
2472.65625	0.15655	0.63886	0.67633	7.27712
2476.56250	0.07259	2.79034	1.21690	4.54855
2480.46875	5.46524	0.32032	-0.71987	5.38833
2484.37500	1.84223	-1.32370	-0.80489	1.20474
2488.28125	-1.39509	-0.34732	-1.20286	-3.52163
2492.18750	8.71536	3.55744	1.17186	-0.80687
2496.09375	7.84124	2.75988	1.26951	0.96606
2500.00000	4.36711	-2.21693	-1.58219	-7.43742
2503.90625	5.29077	-3.38959	-0.49202	-8.04732
2507.81250	6.15371	-0.26329	-0.40052	1.39210
2511.71875	12.70280	2.45537	2.46884	5.80553
2515.62500	11.53886	0.32906	2.94466	6.10230
2519.53125	4.99274	-2.33367	-1.62722	3.62436
2523.43750	7.24573	-4.66489	0.62331	0.25012
2527.34375	3.19479	-4.22171	3.61109	-6.14850
2531.25000	1.64331	-1.86362	4.56527	-5.50961
2535.15625	3.08745	-0.47246	0.19721	-11.49569
2539.06250	1.28404	-0.83332	0.75805	-16.25522
2542.96875	-1.55088	-0.31307	-0.67993	-12.98329
2546.87500	-2.99898	1.87833	-1.65797	-26.51336
2550.78125	10.19275	3.49168	2.22168	-19.42187
2554.68750	17.52468	5.59335	0.27846	-9.13648
2558.59375	8.94054	8.33064	0.73918	-11.09954
2562.50000	1.07078	4.83253	2.44985	-13.90152
2566.40625	1.69719	4.33616	0.31263	-21.39158
2570.31250	1.69290	9.25138	2.68871	-19.38736
2574.21875	-10.03572	3.61758	10.43889	-22.69516
2578.12500	-22.82333	0.98444	16.85097	-31.70929
2582.03125	-37.66822	1.50619	22.10242	-42.39971
2585.93750	-62.07322	-5.31126	27.25292	-59.25235
2589.84375	-81.86891	-9.97222	27.72344	-83.14673
2593.75000	-98.94917	-10.43061	25.43907	-98.52200
2597.65625	-116.18892	-14.40890	30.15628	-108.33986
2601.56250	-126.23003	-19.15463	29.26919	-119.84684
2605.46875	-135.86812	-14.57349	24.36584	-134.83444
2609.37500	-133.30397	-9.05332	22.92937	-142.57935
2613.28125	-124.72488	-7.54079	22.30982	-132.26776
2617.18750	-118.46870	-4.80669	19.70247	-130.22141
2621.09375	-97.00011	0.06918	17.50507	-125.38168
2625.00000	-79.45079	4.75497	17.03742	-102.65922
2628.90625	-65.56612	5.55918	16.51068	-88.86460
2632.81250	-50.30271	4.62980	16.76364	-72.76326
2636.71875	-38.54735	3.19908	15.30605	-57.89904
2640.62500	-26.13665	2.36692	13.40533	-43.30940
2644.53125	-18.11516	1.90497	11.31337	-31.20556
2648.43750	-6.36760	0.82252	9.67574	-19.07587
2652.34375	3.43227	3.11241	6.78372	-7.03747
2656.25000	5.89902	2.35676	6.08715	-3.81955
2660.15625	17.04889	-2.99155	6.89818	3.05116
2664.06250	28.00821	-2.17045	5.18080	9.02946
2667.96875	31.01350	0.50736	0.40936	12.82857
2671.87500	40.50664	2.00745	-2.79679	27.44556
2675.78125	43.45884	0.72575	-1.91152	38.43653
2679.68750	44.63461	1.32239	-2.82110	35.83483
2683.59375	52.48600	1.79706	-4.58209	39.00850
2687.50000	57.47590	0.17966	-6.85639	50.80163
2691.40625	63.33813	2.92445	-4.72737	56.48609
2695.31250	63.23380	3.94751	-4.25912	55.14499
2699.21875	63.45771	3.22350	-5.67830	53.40123
2703.12500	66.20880	4.94430	-5.07944	55.51392
2707.03125	62.56434	5.07576	-4.86839	52.56913
2710.93750	60.64834	1.83150	-4.24765	49.47897
2714.84375	59.96836	-2.08069	-5.79209	49.91114
2718.75000	64.63951	0.29625	-6.50752	56.12233
2722.65625	64.75278	0.01999	-4.77062	55.72606
2726.56250	59.59623	-1.32596	-3.69935	55.63525
2730.46875	63.87142	-0.46809	-3.37422	55.60259
2734.37500	64.67145	1.57849	-2.88614	54.95214
2738.28125	65.89160	0.60172	-1.27934	54.84459
2742.18750	61.41973	-2.90055	-2.04220	51.72817
2746.09375	56.65047	-2.10331	-5.36320	46.73309
2750.00000	56.89870	0.05256	-4.52604	44.66167
2753.90625	54.76388	-1.19277	-5.61612	46.88472
2757.81250	55.51031	-0.69305	-3.69281	48.32584
2761.71875	57.82336	0.61718	-0.92111	45.92845
2765.62500	56.16451	1.53432	-2.60568	41.20090
2769.53125	50.62047	-1.44432	-2.46596	36.42749
2773.43750	51.18578	-2.33694	-1.09011	41.81779
2777.34375	48.78760	1.24877	-3.67487	42.97982
2781.25000	48.72511	1.30784	-6.64365	36.70141
2785.15625	42.04067	3.54263	-6.70785	38.25684
2789.06250	40.21551	5.51482	-4.85103	32.54174
2792.96875	45.46584	5.80011	-3.81594	27.65984
2796.87500	41.67386	1.59368	-4.44952	28.29779
2800.78125	44.19456	3.60632	-5.10569	27.65499
2804.68750	43.71065	5.13061	-7.99764	24.22139
2808.59375	41.81689	4.00469	-8.45839	25.38072
2812.50000	43.23813	4.27900	-6.94558	26.97613
2816.40625	43.01315	5.98381	-7.62887	25.20127
2820.31250	46.64250	5.90326	-4.76679	22.79667
2824.21875	45.47616	4.68680	-3.24965	20.86895
2828.12500	34.48967	5.70772	-5.22951	14.17145
2832.03125	34.42498	4.37961	-3.22826	15.59711
2835.93750	37.47355	2.73503	-3.14068	20.76744
2839.84375	31.88347	1.75440	-4.41712	20.48874
2843.75000	27.20430	-0.20535	-1.72980	21.36108
2847.65625	23.49051	0.14602	-2.01479	17.88482
2851.56250	26.68050	0.86198	-3.94824	14.88868
2855.46875	25.43794	1.11544	-5.89474	23.83461
2859.37500	16.82827	4.45921	-3.24959	23.12025
2863.28125	14.29140	2.94626	0.19042	20.86932
2867.18750	20.12140	1.42040	0.38017	17.21323
2871.09375	13.55953	-1.84422	-2.66058	9.55492
2875.00000	15.34904	-2.90414	-4.61052	9.80122
2878.90625	17.17673	-3.70886	0.34837	7.69337
2882.81250	10.77577	-7.61514	1.30417	7.71074
2886.71875	7.07693	-6.99086	1.95582	5.74184
2890.62500	-0.50076	-4.95039	-0.97864	7.27090
2894.53125	-4.49511	-6.10075	-2.51303	17.32971
2898.43750	9.13979	-4.61584	2.75095	8.42494
2902.34375	6.99325	-6.10042	2.01659	5.25244
2906.25000	-1.92276	-8.56876	0.69843	6.46813
2910.15625	1.02760	-6.84729	1.09621	6.04576
2914.06250	-0.26380	-5.65424	-1.61859	4.50109
2917.96875	-0.45089	-5.91504	-2.08526	10.37358
2921.87500	3.35023	-6.20685	-2.10262	14.29261
2925.78125	1.20146	-8.14912	-1.37623	10.95851
2929.68750	1.63489	-6.32877	0.33922	9.53212
2933.59375	1.03368	-5.99804	2.50306	13.20956
2937.50000	0.47353	-10.42516	3.97147	15.52026
2941.40625	4.27904	-9.54408	3.45411	15.47807
2945.31250	2.36629	-6.13541	1.77699	13.59706
2949.21875	-1.88941	-7.42655	1.18148	11.31281
2953.12500	-0.61358	-8.34202	0.98556	15.64826
2957.03125	3.83441	-4.44467	0.77450	19.80329
2960.93750	4.94227	-2.40981	0.15376	15.23924
2964.84375	6.82869	0.69599	0.89234	12.39094
2968.75000	7.79628	-0.87568	1.20480	12.62823
2972.65625	4.86025	-3.01761	0.67666	13.02612
2976.56250	3.56774	-1.67217	0.41121	9.89505
2980.46875	6.14013	0.28986	-0.31701	9.92938
2984.37500	2.11445	0.66028	-1.61100	7.76099
2988.28125	1.29502	1.23349	-0.39733	5.45272
2992.18750	-0.27919	2.72049	2.38009	8.57080
2996.09375	-0.34731	1.51981	0.46290	11.14991
