 	TP9	AF7	AF8	TP10	
-1000.00000	-21.30946	0.71707	4.34024	12.35655
-996.09375	-23.38751	1.65926	5.45583	9.33140
-992.18750	-25.41967	0.78239	6.20548	-0.59614
-988.28125	-27.14494	-2.48587	8.01155	-4.37414
-984.37500	-18.83016	0.37489	5.10573	-4.72755
-980.46875	-20.09477	0.30608	4.31002	-4.47368
-976.56250	-19.85350	-1.66429	2.92092	-4.73767
-972.65625	-8.55249	0.31680	3.33127	-1.86591
-968.75000	-19.83370	1.19526	2.84982	3.47925
-964.84375	-19.54542	0.47116	3.19147	7.14393
-960.93750	-11.36378	1.11881	4.69936	-0.12109
-957.03125	-12.63703	1.86717	3.20946	-6.72004
-953.12500	-10.44526	2.25738	0.84536	-0.54615
-949.21875	-13.66705	2.84870	-0.71304	-0.23518
-945.31250	-14.35079	4.19646	-0.32866	4.41679
-941.40625	-12.45741	1.94640	-1.34138	8.88648
-937.50000	-9.41965	0.16788	0.28002	3.35690
-933.59375	-10.55162	2.57638	1.16679	4.15740
-929.68750	-14.26276	2.87646	2.55949	5.45397
-925.78125	-6.45142	-1.74814	5.42200	6.05286
-921.87500	1.19203	-3.65880	4.72247	3.60834
-917.96875	2.26354	0.08933	6.22279	4.91753
-914.06250	0.38938	1.27541	8.32659	6.99245
-910.15625	1.77070	-0.33397	5.01071	2.83458
-906.25000	12.63495	0.36403	5.53277	-2.02452
-902.34375	8.22124	-0.78903	4.75854	11.44484
-898.43750	7.47788	-1.59018	0.08751	16.87494
-894.53125	11.89149	-2.04638	0.97131	7.94143
-890.62500	5.03867	-2.75342	1.80462	6.82834
-886.71875	1.42957	0.45766	2.01565	3.98418
-882.81250	-4.67028	-1.13042	4.00397	5.00151
-878.90625	-4.68152	0.77172	5.24589	6.56812
-875.00000	-4.66703	4.70085	2.87592	-0.26930
-871.09375	-11.29247	-0.35295	1.40219	-1.09042
-867.18750	-2.57072	0.14219	0.10634	-2.08471
-863.28125	1.60171	2.16543	3.26354	3.62758
-859.37500	-5.22817	1.13232	6.38838	3.38996
-855.46875	-4.98006	1.37299	6.38718	0.06668
-851.56250	-4.49804	1.63016	5.81812	3.26017
-847.65625	-3.36914	1.02781	5.44348	2.35962
-843.75000	0.04509	0.63553	1.32683	3.70900
-839.84375	7.02421	5.13377	2.30742	10.14259
-835.93750	4.08336	3.28363	5.46334	8.11838
-832.03125	0.04706	-2.44463	1.35285	7.39066
-828.12500	-0.13401	-0.11100	2.31048	-8.04161
-824.21875	3.56099	0.32186	1.01253	-9.64715
-820.31250	12.71353	-0.92365	1.46544	5.85794
-816.40625	9.20462	-1.25050	2.52448	-1.12187
-812.50000	8.79610	0.71990	2.10957	5.25493
-808.59375	8.36952	5.18557	3.59903	6.62618
-804.68750	-1.13613	1.22232	6.75096	5.48275
-800.78125	-5.50442	-6.56304	10.31027	5.03002
-796.87500	-2.13062	-3.36233	7.24347	6.56870
-792.96875	0.79913	-2.17134	5.26891	14.97922
-789.06250	4.03464	-1.61844	7.69579	10.52544
-785.15625	3.29405	0.91728	8.46671	6.81287
-781.25000	2.31784	0.70607	9.50161	7.65098
-777.34375	3.89858	0.57627	7.93800	-1.07117
-773.43750	4.25981	-0.64094	7.60887	2.30445
-769.53125	3.80868	-0.78045	7.34652	5.28790
-765.62500	7.19904	-0.19244	6.15761	2.82784
-761.71875	10.38099	-1.27770	7.90389	4.44828
-757.81250	10.34387	-0.31165	4.61023	0.91325
-753.90625	14.33858	2.89551	1.07232	1.46598
-750.00000	11.74367	2.86358	4.16166	9.86836
-746.09375	-3.10042	2.32323	7.47671	7.25249
-742.18750	6.58835	-1.63606	7.93434	6.70387
-738.28125	14.76146	-1.99517	8.54434	10.48198
-734.37500	5.23883	3.20161	5.00173	-2.05826
-730.46875	2.47532	1.65759	0.15494	4.94078
-726.56250	6.26449	0.40348	1.54255	14.47235
-722.65625	7.05253	0.03302	2.74238	8.78042
-718.75000	2.21791	-1.24938	1.20769	3.83844
-714.84375	5.96026	1.08537	-0.34421	2.99452
-710.93750	9.06213	1.64541	-0.24183	3.81298
-707.03125	0.26353	1.29900	4.46995	-4.09329
-703.12500	2.90830	1.31069	5.22088	-3.81995
-699.21875	3.71387	3.13606	4.36024	-4.53350
-695.31250	4.80193	5.41369	3.57138	-12.40870
-691.40625	3.31276	1.21592	3.37374	0.04491
-687.50000	-3.35008	0.17287	5.37722	4.36604
-683.59375	-0.20217	3.00146	4.89181	-0.86644
-679.68750	-0.92202	3.10334	2.28882	2.67237
-675.78125	-4.70282	2.48882	3.45404	5.70003
-671.87500	-8.71860	4.39847	4.95792	3.71257
-667.96875	-6.96843	5.48449	5.47080	0.79183
-664.06250	-6.30190	3.49155	5.78313	-0.47698
-660.15625	-10.50253	2.27933	3.05352	-2.36295
-656.25000	-0.81626	3.59500	0.11239	-2.74164
-652.34375	-0.02783	5.55285	1.28805	-0.09346
-648.43750	-2.90956	5.95012	2.73410	-3.10574
-644.53125	-1.68095	4.79357	1.04292	-1.42475
-640.62500	-5.30311	3.08211	-0.19483	1.70314
-636.71875	1.53053	5.10803	0.80143	0.92108
-632.81250	11.66077	4.68040	-1.18850	2.32154
-628.90625	13.68782	2.77719	-2.43194	-8.10933
-625.00000	19.31529	4.08507	-0.46639	-5.30114
-621.09375	17.48008	4.30262	0.60283	2.36995
-617.18750	18.83258	7.43286	-0.11749	6.99083
-613.28125	23.92840	8.22912	1.15603	10.54606
-609.37500	23.50638	4.02300	2.05891	-2.10994
-605.46875	27.28849	5.79599	1.65565	-1.60694
-601.56250	28.01612	5.53770	4.23780	-1.97986
-597.65625	26.08220	2.10977	2.59620	-8.33192
-593.75000	30.72747	5.72443	-4.57085	-7.26354
-589.84375	19.72006	3.64278	-3.94128	-2.41486
-585.93750	17.02083	-0.55206	-0.24899	-2.40522
-582.03125	11.79069	0.74286	1.44230	-4.49785
-578.12500	5.12297	2.43740	0.88602	-6.79444
-574.21875	11.50227	2.40638	-0.63814	-9.21808
-570.31250	1.54496	1.63606	-3.91324	-8.20294
-566.40625	-1.79489	0.75304	-4.57096	-11.69928
-562.50000	-4.20578	2.00498	-5.36650	-12.43495
-558.59375	-2.97215	-0.85010	-4.44001	-4.53875
-554.68750	0.08773	-3.73774	-1.54963	-0.17180
-550.78125	-5.21318	-1.99745	-0.67837	1.08685
-546.87500	-8.58596	-2.37879	0.37206	-3.67505
-542.96875	-8.69410	-2.36214	0.33042	-9.66775
-539.06250	-11.92867	-1.30448	0.31951	-3.19919
-535.15625	-12.79887	0.18794	-0.85605	1.72236
-531.25000	-12.62763	2.81558	-2.29561	-2.33896
-527.34375	-14.20757	4.55591	0.87809	-6.10753
-523.43750	-13.76206	5.77194	1.60848	-3.03614
-519.53125	-16.13059	3.08985	1.86920	-4.81067
-515.62500	-18.31137	-0.31996	3.45940	-6.37996
-511.71875	-14.64267	0.76419	4.12900	-1.55349
-507.81250	-15.00771	3.02039	2.18297	2.38458
-503.90625	-10.54005	3.43843	4.10743	11.09938
-500.00000	-4.31800	3.46912	5.44864	8.74104
-496.09375	-2.76978	2.79950	3.34065	4.10426
-492.18750	-2.38438	0.31078	4.09017	7.47353
-488.28125	-6.12442	-0.94289	6.70200	7.32196
-484.37500	0.17564	1.91769	9.03411	9.78900
-480.46875	1.90087	6.63600	9.64094	-1.02706
-476.56250	-1.05745	11.40477	6.92283	-6.42264
-472.65625	8.51329	11.74231	2.68294	6.45195
-468.75000	11.92219	7.87449	2.57757	5.34488
-464.84375	4.81473	6.16473	6.74533	-1.64547
-460.93750	-4.75099	6.60211	3.98217	-7.54550
-457.03125	-3.23066	4.83932	1.59510	-12.00293
-453.12500	1.77309	1.21597	4.24613	-6.72292
-449.21875	5.84222	2.71700	6.25489	-0.67691
-445.31250	12.73400	5.05622	5.61332	-2.56610
-441.40625	-3.06239	3.36148	3.97691	1.08025
-437.50000	-2.49303	3.51457	4.32914	-3.84934
-433.59375	14.55619	2.35960	3.38112	-0.36660
-429.68750	13.49532	-0.03546	4.68357	-4.18663
-425.78125	10.42061	0.32792	4.48476	-6.83635
-421.87500	1.30662	0.94379	-1.25380	9.12431
-417.96875	0.32483	-1.02858	-2.60216	-0.12147
-414.06250	8.58666	-0.94241	-3.94017	-4.70520
-410.15625	11.94091	1.63022	-2.13715	0.07824
-406.25000	8.76928	-0.76979	3.35782	-5.56832
-402.34375	3.10228	-2.66567	4.40715	-8.80561
-398.43750	6.00320	-0.32645	3.77005	1.57058
-394.53125	14.88869	1.38433	4.44499	3.62089
-390.62500	19.33558	1.66861	1.10340	-2.77000
-386.71875	17.06500	0.55150	0.61913	0.45622
-382.81250	11.98103	0.18801	2.02154	2.88907
-378.90625	7.26059	-0.01790	2.49506	-2.02661
-375.00000	10.89076	-0.32846	3.55655	3.23944
-371.09375	14.34545	-1.12990	2.71974	7.02822
-367.18750	10.34580	-0.14284	-0.10695	7.23277
-363.28125	12.21861	0.23689	0.45297	9.55470
-359.37500	10.91950	1.10795	3.64713	2.75915
-355.46875	13.91000	5.20358	1.45466	2.19135
-351.56250	19.95907	6.93402	-0.51167	3.29750
-347.65625	16.84107	7.21838	0.77487	0.68711
-343.75000	7.43737	10.37391	-1.10537	0.31709
-339.84375	2.04538	9.09704	-0.02500	-4.24284
-335.93750	3.38428	8.31244	4.58806	-5.99078
-332.03125	2.75149	8.93703	5.10864	-12.33913
-328.12500	-4.92586	7.32111	1.65103	-9.07901
-324.21875	0.45653	8.83900	-0.23730	7.41879
-320.31250	1.16168	9.04206	1.95543	3.94082
-316.40625	-2.16791	10.61212	4.49693	2.84565
-312.50000	6.25427	10.11732	6.28438	6.05967
-308.59375	1.07890	6.60992	4.53444	6.57100
-304.68750	-5.09447	8.12139	3.45863	6.69631
-300.78125	-4.64959	9.40570	3.54514	4.72625
-296.87500	2.87531	9.68752	3.60078	-0.33573
-292.96875	5.09434	6.44616	2.21030	1.68402
-289.06250	1.84231	7.50028	2.57407	3.74579
-285.15625	-1.55291	9.02498	1.11651	-4.25197
-281.25000	-0.90516	6.56257	2.32712	-2.30628
-277.34375	-6.08626	6.34717	2.70742	-0.25043
-273.43750	-13.21092	2.75974	0.14023	-1.69435
-269.53125	-13.48715	1.93192	-0.20204	1.81210
-265.62500	-13.48646	3.48910	-1.62441	2.79797
-261.71875	-15.02384	2.52763	-2.50464	4.18520
-257.81250	-11.75063	2.20510	2.62430	2.26793
-253.90625	-11.99122	3.08853	5.71581	6.79850
-250.00000	-9.42527	5.21431	1.84570	4.42094
-246.09375	-1.79712	6.82252	2.08363	1.67763
-242.18750	-2.29781	8.98587	2.74938	8.07362
-238.28125	-15.75546	8.14277	1.74141	3.16125
-234.37500	-17.43769	4.21045	0.80689	6.60332
-230.46875	-12.13757	6.46692	-0.14768	-2.10561
-226.56250	-17.64019	6.53206	0.15112	-7.99207
-222.65625	-16.33118	2.96991	3.18048	6.12976
-218.75000	-17.72486	1.59836	2.07527	-0.01591
-214.84375	-13.43734	2.09809	-0.48252	-1.08406
-210.93750	-7.49743	3.67414	1.87587	6.42770
-207.03125	-9.82291	2.21226	-0.97691	2.82650
-203.12500	-11.19958	1.40224	-3.62977	-1.24466
-199.21875	-17.28259	-0.50292	-4.83441	-10.11102
-195.31250	-27.79997	-0.82869	-4.59759	-11.84800
-191.40625	-28.92599	0.05898	-0.54539	-1.39169
-187.50000	-24.65941	-0.49823	0.30932	3.13520
-183.59375	-25.18775	0.25254	-3.57963	3.68196
-179.68750	-26.14080	1.03474	-2.86928	-4.18273
-175.78125	-16.61852	0.67020	-2.67228	-6.36781
-171.87500	-13.95068	0.45596	-2.97951	-2.58457
-167.96875	-16.19151	0.81551	-2.03586	-2.20283
-164.06250	-5.91773	-1.28654	-0.69970	0.76958
-160.15625	-7.65944	-3.45749	-0.08701	-3.61039
-156.25000	-6.09868	-2.26747	1.26598	1.23085
-152.34375	6.01625	-5.20796	-0.59093	6.48335
-148.43750	0.29582	-7.14550	-3.17911	1.34587
-144.53125	9.54319	-2.81351	-2.64708	4.53425
-140.62500	11.94698	-3.50190	-2.53076	7.29917
-136.71875	1.72753	-6.01235	-4.86878	3.26752
-132.81250	6.00644	-8.06769	-7.07883	5.26740
-128.90625	1.46013	-9.47473	-5.53952	8.16868
-125.00000	-0.96072	-10.37423	-1.76767	5.32035
-121.09375	3.24081	-9.17115	-0.52980	6.36684
-117.18750	6.03215	-5.72727	-0.92834	0.52142
-113.28125	6.98039	-8.12281	0.12169	-0.59164
-109.37500	6.66844	-8.99512	-0.65670	6.60690
-105.46875	9.31965	-4.22745	-2.89823	0.32496
-101.56250	10.12106	-5.95910	-1.33654	-1.58695
-97.65625	4.77815	-7.85640	-1.81898	-3.40870
-93.75000	6.52686	-6.58079	-1.55226	-1.42695
-89.84375	6.27835	-4.49927	-1.42559	-4.52274
-85.93750	1.31358	-4.52181	-2.01107	-8.01301
-82.03125	1.54389	-5.95346	-2.53338	-0.45601
-78.12500	-13.34242	-5.95049	-3.50976	-8.55148
-74.21875	-13.88929	-4.64904	-3.23488	-14.57340
-70.31250	-5.32686	-5.65916	-1.40009	-11.49874
-66.40625	-7.63811	-6.02164	-2.33158	-7.58344
-62.50000	2.87753	-4.31927	-1.30027	-0.72475
-58.59375	1.20320	-2.82784	-0.35798	-3.25142
-54.68750	-0.68206	-2.72882	-0.89551	-6.60076
-50.78125	-2.33590	-4.82029	0.62793	-6.64597
-46.87500	-8.65222	-5.10331	-1.04107	-4.00241
-42.96875	-10.46847	-3.07195	-1.26411	-4.00842
-39.06250	-8.02246	-3.32140	0.38506	-4.05635
-35.15625	-1.80693	-2.83262	0.63209	-0.49161
-31.25000	-3.66364	0.83744	0.62852	4.41166
-27.34375	-3.31771	-2.97760	2.66409	6.78744
-23.43750	-0.62525	-6.24116	2.81196	8.23070
-19.53125	-5.58706	-2.59392	1.54072	1.90313
-15.62500	-7.60227	0.68293	3.76726	2.52858
-11.71875	-7.67640	0.83733	7.46624	12.02010
-7.81250	-6.11416	2.36751	6.76780	4.26677
-3.90625	1.37958	1.88590	5.68918	1.34763
0.00000	-0.78314	-2.65865	3.91645	2.51611
3.90625	-1.96397	-0.23884	3.27379	-1.18760
7.81250	-0.65699	0.82013	4.21799	6.51875
11.71875	-2.51021	0.85621	4.82118	10.22213
15.62500	-6.06556	1.56389	6.55983	5.97410
19.53125	-11.36512	-0.69373	5.49799	-7.47822
23.43750	-13.11462	0.44877	2.37689	-11.66502
27.34375	-13.21419	-0.01954	2.16635	-4.83439
31.25000	-7.38759	0.14199	4.88146	-2.71788
35.15625	2.02521	2.05867	5.01986	-2.05245
39.06250	5.35331	4.10780	5.88313	-4.72886
42.96875	8.08250	2.34513	10.74885	-4.75391
46.87500	8.65409	-0.06945	10.17646	-0.68246
50.78125	6.67922	1.43158	2.11202	1.73727
54.68750	3.49776	3.77081	0.66462	-3.37534
58.59375	3.41567	5.70248	3.86336	-3.35513
62.50000	-4.47655	1.42327	5.02141	-7.07589
66.40625	-2.73876	-0.13454	4.87927	-8.02531
70.31250	5.87053	1.09669	6.58478	-6.60715
74.21875	2.39281	1.05709	7.59467	-4.82466
78.12500	0.53147	1.67297	5.88541	-1.75782
82.03125	-2.06230	1.31217	5.34291	2.69585
85.93750	6.19923	1.80124	6.42249	-1.88810
89.84375	3.91212	2.35916	5.00204	-5.56658
93.75000	3.15774	1.57076	1.63254	5.30665
97.65625	11.99581	1.68957	3.48763	8.51590
101.56250	7.24066	-0.00049	4.86518	-1.25490
105.46875	8.06727	0.09854	4.33129	-3.23433
109.37500	14.12567	0.78578	0.58673	6.08888
113.28125	14.27251	-0.33139	0.50537	4.88259
117.18750	11.60593	2.12569	1.50478	3.28588
121.09375	10.91475	1.51685	1.57528	-1.62989
125.00000	19.78314	-3.62882	3.84558	0.41274
128.90625	18.40269	-2.41558	3.41170	5.00734
132.81250	11.58263	-0.62261	1.79371	2.79435
136.71875	7.41152	-4.67512	-2.07864	-0.52467
140.62500	6.11248	-5.41579	-2.51088	-0.87320
144.53125	5.87962	-2.93195	-1.07707	4.20007
148.43750	11.52592	-3.21616	-1.02897	7.72394
152.34375	16.06377	-2.52885	1.86918	2.69610
156.25000	13.91295	-5.01444	2.00345	4.34091
160.15625	8.92403	-6.69419	2.68079	1.79580
164.06250	9.86013	0.57988	2.45864	-1.96656
167.96875	12.85395	-0.00430	-0.64723	-1.06192
171.87500	7.19145	-2.82902	-0.88151	3.81011
175.78125	12.17111	-0.90822	-1.56113	6.20566
179.68750	13.27944	-1.51099	-1.78606	3.93687
183.59375	13.97933	-2.35852	-2.06517	1.23030
187.50000	17.56663	-3.65915	-1.08362	2.83294
191.40625	11.18267	-3.54013	-0.01303	3.74752
195.31250	9.03877	-0.81992	-1.08896	0.24672
199.21875	10.28976	-0.34139	-3.01713	-2.93187
203.12500	7.74170	-0.05962	-3.36456	-3.56133
207.03125	10.36392	1.13127	0.48300	0.47334
210.93750	4.69458	0.57366	-0.76495	2.13244
214.84375	0.49368	-3.13979	-3.02854	-1.03007
218.75000	3.15620	-2.37880	-2.62396	-2.30767
222.65625	3.21324	1.43500	0.17381	-4.28094
226.56250	4.14717	-0.54070	-0.78174	-0.48660
230.46875	-7.41098	1.04905	-3.94458	-2.21814
234.37500	-13.85714	1.39729	-2.14362	-7.67907
238.28125	-5.32124	1.24162	-3.02383	2.57269
242.18750	-7.68904	1.72485	-3.53607	2.26723
246.09375	-9.13854	0.19057	0.76423	3.57449
250.00000	-12.21353	0.30162	2.13212	2.40589
253.90625	-13.85275	-1.71651	3.98169	0.06565
257.81250	-21.60611	-1.16502	3.43862	0.82090
261.71875	-23.37859	1.61823	0.81891	-0.86779
265.62500	-10.95816	0.50633	3.10774	0.96270
269.53125	-10.89596	0.74808	0.54131	-4.52262
273.43750	-9.54866	1.21612	0.03416	-1.14157
277.34375	-9.04539	-1.54030	3.46630	3.31008
281.25000	-5.60374	-0.09139	4.77860	-2.43255
285.15625	5.53369	0.00532	5.84712	6.57261
289.06250	7.04145	-0.43341	4.98192	0.78769
292.96875	1.08958	0.92508	2.53189	-8.45442
296.87500	1.32465	1.32372	3.50526	-2.04933
300.78125	-1.13196	3.04483	5.12095	0.36636
304.68750	2.05024	3.12186	4.55177	-5.80288
308.59375	-4.71675	-0.42280	3.76864	-12.67254
312.50000	-10.92637	1.03453	5.02624	-8.95157
316.40625	-2.59027	1.78521	3.95765	-3.16665
320.31250	-3.94616	0.14971	2.25028	-2.56982
324.21875	-0.87066	-0.61785	2.85013	-4.35197
328.12500	1.39434	-2.84675	4.55742	-3.79215
332.03125	-0.04052	0.33317	7.11272	-3.81328
335.93750	-4.27205	0.64867	4.82237	-2.04946
339.84375	-4.80476	-0.71651	1.40564	-0.78828
343.75000	-4.45275	-2.34708	4.77322	0.42666
347.65625	0.81226	-3.67600	1.70731	-0.36464
351.56250	9.59728	-1.18136	-1.68688	0.13909
355.46875	7.56242	1.53873	2.06850	0.10406
359.37500	2.71334	0.44728	1.78181	-4.78653
363.28125	-0.25344	-0.04863	3.87588	-4.38587
367.18750	0.39905	1.11936	2.47160	-6.01233
371.09375	2.29954	1.32392	-0.01838	-8.75197
375.00000	1.49047	2.84194	4.15628	4.11418
378.90625	2.06571	3.64206	4.99117	6.77261
382.81250	-0.78399	1.04191	3.78665	-1.49032
386.71875	-2.25323	1.46671	3.22488	-5.02090
390.62500	-12.23559	-1.42029	2.04342	-7.49262
394.53125	-14.41969	-3.50254	2.21939	-1.68648
398.43750	-3.94805	0.80969	3.37799	-1.58361
402.34375	-6.87353	-1.89346	0.07491	-12.26973
406.25000	-3.91614	-0.61800	-0.86719	-6.25854
410.15625	-1.34412	1.06057	2.88571	-3.31018
414.06250	0.54091	-2.18544	1.09128	-7.20315
417.96875	-0.43766	-2.81131	4.19526	-8.51037
421.87500	-1.62440	-4.01714	3.21876	-8.14401
425.78125	4.67864	-3.11870	-0.53581	-5.70408
429.68750	6.39138	-0.90544	-0.31279	-5.44943
433.59375	3.67742	-2.07388	-0.84149	-10.39807
437.50000	5.32888	-3.59499	-1.82489	-19.65613
441.40625	-1.58334	-1.70062	-3.30033	-16.54111
445.31250	0.15807	0.81600	-4.24097	-6.59308
449.21875	3.33992	-1.67843	-5.94108	-3.41423
453.12500	-0.96124	-2.36444	-2.77512	-4.79913
457.03125	3.26689	-0.73607	-1.78942	-12.05700
460.93750	7.72804	-0.17976	-0.94631	-9.68646
464.84375	9.51183	3.12942	-1.10230	-10.15017
468.75000	11.28197	4.38184	0.90867	-12.49871
472.65625	12.43429	5.40187	4.15289	-10.52525
476.56250	10.29200	4.15284	-2.95200	-9.08133
480.46875	4.92759	3.36772	-3.01454	-13.39358
484.37500	15.00053	4.62984	-3.20579	-12.36475
488.28125	15.32951	3.97831	-7.16259	-5.69332
492.18750	10.44499	3.49373	-3.02604	-11.43173
496.09375	19.14769	6.63836	-0.88137	-14.75350
500.00000	16.17921	5.31717	-1.04244	-8.34669
503.90625	17.01299	2.49885	0.73241	-1.57397
507.81250	24.76686	3.55768	-0.74110	0.49157
511.71875	17.27256	3.19068	-1.74974	-8.29571
515.62500	16.94055	3.09248	2.00346	1.96181
519.53125	10.02903	2.44643	4.56781	5.83552
523.43750	1.02659	0.76823	-0.56804	-0.76903
527.34375	9.38841	1.91158	-1.18169	-2.80292
531.25000	10.78265	2.87893	3.54797	-0.28363
535.15625	13.34541	1.16906	0.46287	0.78456
539.06250	11.83820	-0.40821	-0.68868	-3.10075
542.96875	7.71740	-1.36520	2.56521	-7.55818
546.87500	6.27408	1.05534	3.60437	-7.51629
550.78125	2.68732	1.34751	-0.83377	-11.94650
554.68750	4.74375	-0.74562	-2.28130	-11.82112
558.59375	5.87024	-0.02282	0.51446	-12.20402
562.50000	0.39532	1.33898	-1.14807	-16.32785
566.40625	2.93872	2.60163	-1.29028	-10.02473
570.31250	-0.94293	0.60942	-0.79363	-8.60682
574.21875	-1.60035	0.97281	-0.58962	-9.24203
578.12500	-1.04439	-0.02304	0.11868	-7.38406
582.03125	-1.62370	0.82504	-0.42393	-6.55691
585.93750	1.39953	3.32874	-1.76201	-8.72346
589.84375	-1.29072	3.48381	-3.18246	-2.73164
593.75000	-1.64242	2.69544	-4.94032	3.30637
597.65625	-4.89246	0.79956	-4.29405	-0.73732
601.56250	-12.06539	-0.08462	0.70979	-10.91128
605.46875	-9.62726	1.22318	-1.03292	-6.04097
609.37500	-9.61306	3.11925	-3.97171	-5.58233
613.28125	-7.85474	-0.01255	-2.84439	-11.62385
617.18750	-2.46288	-0.37598	-3.45676	-5.16212
621.09375	0.87496	1.83566	-1.37165	-2.42240
625.00000	3.69892	0.71926	-2.32483	-0.78284
628.90625	2.31802	-0.08219	-4.37053	0.18528
632.81250	4.36200	2.11365	-1.95930	2.00146
636.71875	1.39918	2.09039	-2.20537	2.71159
640.62500	-0.70623	3.76727	-3.44356	-3.27810
644.53125	1.88091	3.83353	-2.41275	-2.23422
648.43750	1.07971	0.32576	-2.36464	-2.33678
652.34375	-0.42705	-1.00166	-3.09286	-4.94716
656.25000	-1.77260	-1.87556	-1.34680	-5.71992
660.15625	-7.16500	0.47390	1.34520	-9.47381
664.06250	-7.03522	1.30100	0.72011	-5.58049
667.96875	-1.22138	-1.70088	0.03175	-3.46716
671.87500	-1.64619	-0.89925	2.21501	-2.62436
675.78125	0.10965	2.63329	1.53541	-3.04940
679.68750	2.42639	4.85100	2.51928	-2.49787
683.59375	-3.72386	3.19760	4.65779	0.43645
687.50000	-7.38972	1.09113	6.44517	0.83024
691.40625	-8.93885	3.62769	7.91867	2.14773
695.31250	0.60191	5.94500	9.66331	7.10833
699.21875	-4.19135	4.00584	10.55556	0.30333
703.12500	-13.18657	-0.14462	3.76128	-3.54956
707.03125	-2.50604	1.44913	0.35611	3.30568
710.93750	5.12099	3.71206	1.92868	-1.07912
714.84375	11.39611	2.41615	3.29155	0.59385
718.75000	11.23786	0.75952	2.08447	8.98679
722.65625	5.65365	0.14115	0.04707	2.98426
726.56250	3.36384	0.98590	0.70322	-1.68282
730.46875	-2.55373	1.76966	-1.25081	-4.22006
734.37500	-3.35921	2.52084	0.55024	0.39236
738.28125	-4.89696	3.17100	4.90809	0.97394
742.18750	-1.22128	0.43074	2.78417	-1.34613
746.09375	4.58169	-4.32697	0.63760	7.21402
750.00000	-2.12012	-7.84238	3.21433	6.04548
753.90625	-9.80365	-7.04004	7.88447	0.48177
757.81250	-14.73687	-6.89150	7.74431	0.02815
761.71875	-22.95655	-10.15227	2.70702	-3.27234
765.62500	-18.99786	-10.45834	1.36948	-1.44177
769.53125	-13.29493	-11.02251	2.83244	-9.34460
773.43750	-15.57423	-8.94279	6.75756	-6.76928
777.34375	-13.45946	-4.84943	7.36924	4.53217
781.25000	-14.04738	-5.41521	4.24934	2.01309
785.15625	-11.77456	-6.93024	4.10907	-1.06958
789.06250	-6.23759	-6.16019	6.06452	-3.22803
792.96875	-10.17489	-6.81639	5.22627	-4.00853
796.87500	-13.56628	-8.43250	3.37922	-2.84148
800.78125	-2.32330	-6.30853	5.39793	1.99190
804.68750	4.08239	-2.20218	6.44051	7.91068
808.59375	6.17995	-1.71757	4.44862	11.92020
812.50000	8.02904	-1.06611	3.28866	12.01494
816.40625	5.08329	-1.52422	3.02604	5.71197
820.31250	-0.70475	-3.15974	2.52745	-3.36145
824.21875	-0.44976	-1.10684	1.51561	0.09451
828.12500	-3.01992	1.90231	0.80532	3.07187
832.03125	-5.66357	-0.15592	1.34589	4.25962
835.93750	2.19286	0.15953	1.07027	-2.03517
839.84375	0.85426	0.40609	0.87702	-5.60914
843.75000	-2.41998	-2.83619	2.22988	4.87326
847.65625	2.84518	-2.15047	2.38741	13.34938
851.56250	4.78048	0.34406	4.23134	9.82381
855.46875	6.37213	-1.36808	4.36036	14.62395
859.37500	12.40226	-4.47423	5.28248	23.83582
863.28125	17.89705	0.26792	4.95895	29.07160
867.18750	20.16140	0.62998	3.95759	23.41579
871.09375	18.83851	-3.59770	5.49680	23.49667
875.00000	24.07346	-0.87098	3.62747	44.82432
878.90625	25.85752	-0.07090	2.04478	40.63297
882.81250	22.20203	-1.05930	4.46660	34.78767
886.71875	24.76202	-0.23155	3.50174	36.89822
890.62500	17.60010	-1.90984	0.30556	34.02357
894.53125	18.63942	-1.97744	1.28738	27.33886
898.43750	24.67878	-0.88874	3.25182	27.44174
902.34375	23.36492	1.24313	3.57505	28.44056
906.25000	27.53099	2.51859	4.24457	25.99006
910.15625	28.08823	-0.23513	4.37105	28.13246
914.06250	29.16737	-0.25772	5.39710	33.50673
917.96875	31.00938	1.53398	5.68044	34.21408
921.87500	35.86658	-0.47780	4.70389	28.53632
925.78125	36.12561	0.82356	4.97858	22.11178
929.68750	27.36226	2.63382	4.79852	22.36621
933.59375	17.39547	-1.75811	5.88150	20.23789
937.50000	12.59993	-5.29403	4.09213	19.03836
941.40625	12.53750	-3.39963	1.00488	12.48290
945.31250	15.08477	-4.91242	3.28753	16.38684
949.21875	19.47522	-3.78051	6.82546	21.58019
953.12500	22.02379	-3.66067	7.57381	13.74834
957.03125	27.05777	-6.46466	6.54473	16.56367
960.93750	19.83378	-5.50544	7.38785	10.06964
964.84375	13.55879	-5.41974	9.64935	11.62042
968.75000	21.77559	-3.76445	5.61639	17.33033
972.65625	20.91284	-0.72981	4.83136	12.85680
976.56250	23.60545	2.05036	9.41131	19.13581
980.46875	23.07587	2.47396	10.15453	22.07623
984.37500	22.67236	2.52720	7.54564	16.65808
988.28125	18.97170	0.26387	6.81218	14.06209
992.18750	10.86344	-2.63830	6.91949	10.33832
996.09375	13.11886	-4.73185	7.04943	2.58427
1000.00000	6.92657	-4.84436	2.85901	-6.32032
1003.90625	6.14823	-2.02177	-0.20139	-1.56231
1007.81250	13.09583	1.45457	1.54854	6.54717
1011.71875	12.85376	2.69926	4.56920	5.81842
1015.62500	14.93885	1.39215	5.50185	5.59969
1019.53125	16.08547	1.14901	2.02224	5.84703
1023.43750	16.75283	-0.52925	4.54200	1.66009
1027.34375	19.87595	-2.60944	3.92832	1.64073
1031.25000	3.13771	-4.86564	0.19638	2.95115
1035.15625	6.50575	-3.35212	2.34933	2.81037
1039.06250	15.07118	-3.72073	1.60071	1.34251
1042.96875	8.53224	-6.28946	0.82523	4.13768
1046.87500	7.89424	-4.27194	0.25267	-0.25282
1050.78125	2.29217	-5.99451	-0.55920	-5.48907
1054.68750	-1.69602	-8.08768	-1.20089	0.68004
1058.59375	-5.00240	-10.18541	-1.62863	-7.35865
1062.50000	-9.26916	-8.01784	-0.87359	-10.67684
1066.40625	-4.30871	-4.33770	-1.82176	3.68483
1070.31250	1.07650	-4.71833	-1.72811	5.90853
1074.21875	-4.01367	-2.34042	-0.71822	2.85549
1078.12500	-5.87580	-1.32177	-1.62171	1.89282
1082.03125	-6.05270	-4.50314	1.46200	0.70514
1085.93750	-6.25349	-6.83474	1.73561	3.37361
1089.84375	-14.18238	-3.85933	0.31505	7.75354
1093.75000	-12.51980	-5.05069	0.16889	2.91224
1097.65625	-10.12926	-10.57307	-1.60251	-3.95206
1101.56250	-18.91445	-8.63685	-1.43386	0.78239
1105.46875	-21.71498	-5.31449	-2.77372	2.42907
1109.37500	-22.10427	-8.25369	-2.48912	-5.57411
1113.28125	-14.30252	-7.75928	-0.95893	-6.37770
1117.18750	-13.34353	-7.31694	-1.16841	-3.13948
1121.09375	-9.20030	-3.09073	-3.91859	0.80894
1125.00000	0.07017	-4.61011	-0.03671	10.10398
1128.90625	-11.38429	-8.23213	4.76741	-6.65698
1132.81250	-21.42853	-2.41001	5.16397	-18.13764
1136.71875	-20.36224	-4.85089	4.91789	-20.65100
1140.62500	-20.85611	-6.39760	4.08262	-21.80564
1144.53125	-23.50724	-5.52556	0.68112	-20.35893
1148.43750	-28.74081	-4.60108	-3.70308	-34.56426
1152.34375	-27.82999	-2.30222	-5.23722	-42.41292
1156.25000	-25.54934	-2.37030	-3.89420	-34.72431
1160.15625	-30.94186	-2.03565	-4.42568	-40.09010
1164.06250	-32.82694	-5.23794	-3.84209	-40.22639
1167.96875	-24.99873	-8.64279	-2.51585	-34.08392
1171.87500	-16.15646	-8.64713	-3.95898	-34.85309
1175.78125	-16.41559	-6.72649	-6.65331	-37.29300
1179.68750	-18.53136	-7.73237	-2.04311	-36.74161
1183.59375	-19.44379	-7.37127	1.30406	-29.77813
1187.50000	-15.05137	-7.46326	-1.34091	-23.34057
1191.40625	-15.39199	-9.35909	0.93837	-18.39685
1195.31250	-15.52181	-9.05657	0.26526	-16.25690
1199.21875	-20.31546	-8.98116	0.35154	-17.01812
1203.12500	-23.67008	-8.29658	3.22750	-18.45371
1207.03125	-17.42223	-10.32934	3.85152	-16.43382
1210.93750	-16.24249	-9.27531	3.00636	-14.37200
1214.84375	-16.41481	-7.34780	4.77199	-15.92276
1218.75000	-15.76760	-5.78109	1.95310	-14.78283
1222.65625	-7.24964	-6.39959	-1.29323	-14.33864
1226.56250	-10.34561	-6.36076	-0.23426	-11.35031
1230.46875	-16.26334	-4.36826	0.22914	-22.75226
1234.37500	-5.78699	-4.82596	0.41838	-18.54291
1238.28125	-4.10134	-4.57878	-2.07370	1.37912
1242.18750	-3.64905	-2.48395	1.04036	-2.95571
1246.09375	0.13910	-2.00367	2.52001	-8.09539
1250.00000	-5.35399	-2.69856	2.27606	-4.83180
1253.90625	-10.62004	-3.91090	1.30510	-5.56041
1257.81250	-7.09186	-4.16534	1.56777	-8.02876
1261.71875	-6.04436	-0.97925	2.17139	-3.27072
1265.62500	0.33160	-1.28526	-0.37507	-4.66368
1269.53125	1.60197	-4.26701	-0.92684	-9.34319
1273.43750	2.94869	-4.20198	0.17763	-6.76794
1277.34375	-0.17494	-5.34670	0.78922	-4.33103
1281.25000	-7.61293	-5.91249	0.08682	-14.90880
1285.15625	-4.53460	-7.02458	-3.27703	-14.36513
1289.06250	-3.83314	-3.83698	-4.14220	-8.46503
1292.96875	-2.12983	-1.67259	-5.78639	-12.06610
1296.87500	-1.89525	-1.27401	-5.61887	-14.52551
1300.78125	-4.35234	-1.16469	-6.42080	-14.52731
1304.68750	-5.60273	-3.10230	-4.97537	-12.63795
1308.59375	-18.01122	-9.06463	-3.34092	-16.68713
1312.50000	-13.74495	-9.62200	-4.09808	-12.96609
1316.40625	-13.87066	-6.45378	-0.33154	-13.22510
1320.31250	-25.70313	-8.49221	-3.24776	-23.91021
1324.21875	-22.62801	-10.46862	-7.08022	-18.43961
1328.12500	-19.15462	-9.07124	-4.97008	-11.43299
1332.03125	-24.21636	-7.50311	-6.84713	-9.84240
1335.93750	-26.03075	-7.18768	-7.52578	-11.70509
1339.84375	-27.36976	-7.74702	-8.52496	-19.30846
1343.75000	-27.42100	-7.36304	-6.36628	-14.46716
1347.65625	-28.20024	-5.46860	-2.17940	-5.18524
1351.56250	-29.08587	-3.77997	0.87331	-0.24934
1355.46875	-22.25648	-5.89513	2.61396	1.73039
1359.37500	-19.45026	-5.37503	-0.09026	-2.35446
1363.28125	-13.55310	-1.03585	-0.41382	-0.34227
1367.18750	-2.82780	-1.07676	-1.81813	7.29862
1371.09375	-1.73365	-0.06646	0.12404	4.55890
1375.00000	-3.75208	1.85440	-0.93942	3.72525
1378.90625	-23.72679	1.44561	-4.53682	-4.49556
1382.81250	-16.50369	1.66589	-3.32375	-6.31162
1386.71875	-2.66206	-4.35624	-2.67682	0.63400
1390.62500	-15.86832	-6.03459	-1.84369	-11.10509
1394.53125	-13.62059	-4.49056	-3.27947	-5.70196
1398.43750	-14.02854	-6.22240	-2.92676	-1.97283
1402.34375	-18.16329	-3.28471	-2.60355	-2.98867
1406.25000	-17.62400	-1.20350	-3.14284	1.00782
1410.15625	-15.45540	0.07190	0.20710	-0.07318
1414.06250	-13.57089	1.66093	-1.18445	-3.56339
1417.96875	-14.54994	-0.57679	-4.12459	1.17323
1421.87500	-10.90202	-1.78285	-4.29527	9.19514
1425.78125	-9.83761	-0.48160	-4.02068	8.81444
1429.68750	-11.34877	0.52274	0.23149	5.44262
1433.59375	-13.66026	0.56296	2.52323	2.10565
1437.50000	-20.06796	-0.55534	0.33087	-0.30254
1441.40625	-23.35428	-0.67575	-1.14462	2.00660
1445.31250	-16.37526	-0.57689	1.94388	7.11941
1449.21875	-32.93747	-2.26556	-2.17386	1.83669
1453.12500	-35.22441	-3.75753	-6.66365	-4.78627
1457.03125	-11.65601	-2.12932	-3.26050	3.67011
1460.93750	-14.85087	-0.76727	0.40303	1.20545
1464.84375	-15.48506	1.33306	-2.57354	-0.06415
1468.75000	-12.90932	2.58532	-4.59192	-8.85974
1472.65625	-15.78671	2.79936	-2.55650	-4.06581
1476.56250	-13.09417	1.14729	-2.81177	17.12171
1480.46875	-9.19157	-0.44380	-1.66563	9.18302
1484.37500	-5.56586	1.22112	-1.45400	-0.66730
1488.28125	-7.65480	-0.23634	-5.00808	-3.26328
1492.18750	-7.30159	-0.72102	-6.10961	-0.94301
1496.09375	-1.41983	0.00589	-4.77088	0.57029
1500.00000	1.65517	-0.10662	-2.91737	-4.30503
1503.90625	6.11487	0.29843	-2.75430	-0.35288
1507.81250	6.21265	0.55132	-2.21325	1.71259
1511.71875	7.58229	1.79593	-1.61022	-3.04540
1515.62500	3.62340	2.10052	-0.67765	-1.65242
1519.53125	-1.27396	3.06614	0.27498	0.60957
1523.43750	7.04903	5.41721	-0.02573	-1.15980
1527.34375	1.30770	6.56037	-1.84822	-4.40256
1531.25000	-8.98369	8.33345	2.07551	-2.28620
1535.15625	4.05464	6.62353	7.85477	-3.63568
1539.06250	11.81417	4.24025	7.10620	-1.88002
1542.96875	2.85752	5.70074	6.73356	2.12402
1546.87500	-1.00402	4.89768	7.36974	-4.28105
1550.78125	-1.77098	3.17502	7.76663	-11.12899
1554.68750	-8.57968	1.88766	8.73659	-21.88288
1558.59375	-13.49784	-1.01612	10.72640	-26.69821
1562.50000	-12.52649	1.15134	13.49604	-22.36067
1566.40625	-29.32434	0.39915	14.56244	-45.06860
1570.31250	-51.33852	-1.99623	18.28242	-65.40902
1574.21875	-58.44348	0.38155	19.29218	-66.44733
1578.12500	-68.76733	1.40018	17.17988	-82.72132
1582.03125	-86.67326	0.23336	14.21963	-98.81741
1585.93750	-102.18547	1.52809	17.31371	-103.40170
1589.84375	-105.27930	6.51806	13.87845	-111.91558
1593.75000	-98.78173	7.74413	5.67369	-116.75690
1597.65625	-93.16785	9.87740	6.31982	-109.51859
1601.56250	-103.96780	9.79884	10.51772	-112.84283
1605.46875	-103.94798	9.09180	9.17782	-106.76382
1609.37500	-89.42887	12.19643	4.22428	-91.39689
1613.28125	-86.46243	10.27321	5.35154	-90.99168
1617.18750	-78.65374	9.50664	5.94787	-80.09777
1621.09375	-72.49598	9.70346	3.60062	-65.67318
1625.00000	-60.40517	6.97515	1.84139	-59.19867
1628.90625	-52.11623	7.78532	1.40733	-54.20144
1632.81250	-42.82003	8.77219	3.41558	-45.93852
1636.71875	-32.08362	7.94291	1.15472	-40.79626
1640.62500	-29.75716	8.41084	0.72235	-27.44547
1644.53125	-23.14111	8.07401	2.55893	-15.92553
1648.43750	-8.63132	3.76030	-0.61646	-11.19305
1652.34375	-2.07977	1.62683	-2.55349	-6.55073
1656.25000	5.03587	1.15574	-4.03102	-5.71191
1660.15625	18.17780	-0.52427	-3.35368	3.83072
1664.06250	31.60373	2.31729	-4.38186	12.15603
1667.96875	41.44628	2.13574	-4.26435	11.44875
1671.87500	48.27353	0.11669	-0.06645	15.91772
1675.78125	54.86381	-1.18620	0.86565	22.34228
1679.68750	69.67066	1.83715	0.23770	26.92299
1683.59375	67.95187	4.61584	1.16737	29.45419
1687.50000	58.64431	2.50917	-2.28344	26.62429
1691.40625	59.51202	4.23966	-4.03352	23.91222
1695.31250	57.77003	2.93045	-5.10948	22.02280
1699.21875	50.15549	2.19994	-5.82899	26.90258
1703.12500	48.41215	3.69037	-0.93834	31.51089
1707.03125	49.82445	3.67230	0.89452	19.02522
1710.93750	53.42142	3.92045	-0.75651	25.51921
1714.84375	57.68099	2.62439	-0.60255	43.71189
1718.75000	47.44870	1.37056	-0.19796	37.19603
1722.65625	46.69893	6.79593	-0.22080	34.41672
1726.56250	56.09343	6.02885	0.43526	36.19614
1730.46875	51.38409	2.78320	1.30167	23.98826
1734.37500	42.92249	3.13137	-0.12082	19.73596
1738.28125	46.21949	0.96088	-1.40408	26.36119
1742.18750	47.47730	0.23520	-1.51345	26.05560
1746.09375	44.01242	1.11841	0.36919	24.94519
1750.00000	43.75710	3.64693	0.12526	24.58227
1753.90625	48.56406	4.85209	-4.06917	27.47994
1757.81250	50.88328	6.61232	-3.40357	25.81737
1761.71875	51.93048	6.97784	0.02054	24.93434
1765.62500	56.29155	5.46284	1.10044	27.57060
1769.53125	51.11485	3.68976	-2.67477	15.63828
1773.43750	48.43217	2.14300	-6.00247	15.79583
1777.34375	43.69658	-1.41944	-2.97333	12.59167
1781.25000	35.85535	-3.59702	-1.66109	7.25187
1785.15625	37.72464	-1.08285	-1.39847	17.86875
1789.06250	31.97893	-2.73049	-2.26370	16.11306
1792.96875	32.07023	-2.17797	-3.90794	16.94421
1796.87500	38.75148	-0.16775	-2.93458	22.94629
1800.78125	32.66770	-3.68486	-2.52769	17.30333
1804.68750	29.40228	-3.20502	-4.30570	7.50771
1808.59375	19.41105	-1.10876	-5.89468	9.50233
1812.50000	13.60365	-1.66620	-3.42837	11.61160
1816.40625	18.31275	-2.52737	-0.46770	11.35250
1820.31250	15.74733	-0.13370	0.64533	16.78446
1824.21875	11.97220	-2.91604	1.24508	17.82272
1828.12500	12.22181	-5.54804	-4.70340	15.56188
1832.03125	1.92171	-2.77117	-3.75999	15.94357
1835.93750	-4.32527	-3.66462	-0.81234	15.69252
1839.84375	3.60274	-3.41825	-4.22917	12.11836
1843.75000	6.77463	-0.21377	-5.69690	10.10971
1847.65625	8.00971	-1.94579	-5.13649	7.30356
1851.56250	6.31795	-3.07771	-2.48672	5.38952
1855.46875	5.89431	0.04520	-0.34318	12.20424
1859.37500	1.44776	0.56530	1.78764	6.10468
1863.28125	2.91270	-0.73659	-0.14769	3.28173
1867.18750	11.22038	-0.37461	-2.35794	12.13129
1871.09375	20.37321	-3.39362	-1.22171	17.85313
1875.00000	27.21928	0.94465	-2.68822	18.63122
1878.90625	27.39110	2.14753	-4.27103	6.78401
1882.81250	21.31758	-1.25861	-3.46093	2.55028
1886.71875	21.45953	0.37483	0.81234	10.30165
1890.62500	36.45841	2.72580	-2.78682	5.81516
1894.53125	42.33247	2.65803	-6.23731	3.15970
1898.43750	31.44826	0.92612	-6.69051	5.27700
1902.34375	24.89596	-5.00073	-6.77029	0.63469
1906.25000	25.43511	-3.72538	-6.50373	1.81048
1910.15625	21.15668	1.17638	-5.97444	-0.07669
1914.06250	17.40008	0.34774	-2.53089	4.49152
1917.96875	12.79448	0.93044	-5.47096	12.45154
1921.87500	9.59246	1.33605	-8.86517	8.38545
1925.78125	10.65669	-0.98923	-8.59062	6.39294
1929.68750	7.93658	0.82088	-7.56188	8.25900
1933.59375	4.41617	1.66684	-4.06146	13.38332
1937.50000	4.85825	0.95136	-2.62752	4.12503
1941.40625	5.19827	-1.58667	-3.29727	2.00167
1945.31250	4.52165	-5.11426	-0.61177	12.75528
1949.21875	-1.96747	-2.77369	1.31433	9.88999
1953.12500	-5.86638	-1.04229	0.85381	5.28142
1957.03125	-2.84763	-2.23462	1.03345	7.69377
1960.93750	-9.26631	-2.08140	3.08523	2.00545
1964.84375	-2.24509	0.42187	-0.29434	3.15320
1968.75000	5.16546	3.28578	-4.32740	7.25132
1972.65625	-3.35328	0.67926	-4.70969	6.40414
1976.56250	-2.27279	-0.97286	-4.56206	5.02745
1980.46875	-2.39977	2.67409	-2.20718	3.53556
1984.37500	-6.02717	2.32428	0.82483	1.34081
1988.28125	-10.13113	1.67259	4.12055	4.78871
1992.18750	-13.40466	3.20252	3.42186	7.51177
1996.09375	-11.55258	1.91477	2.34288	0.96636
2000.00000	-8.07490	1.80225	0.97286	7.77602
2003.90625	-0.79498	3.01311	-0.47590	10.92212
2007.81250	0.10833	2.46008	-0.33778	4.12305
2011.71875	-4.96928	2.09294	1.07102	6.21485
2015.62500	-0.86990	-2.03475	-0.41405	9.62249
2019.53125	-3.34997	-3.08380	-2.28200	-1.41222
2023.43750	-6.71223	-2.34452	-4.19456	1.65357
2027.34375	-7.21583	-4.42476	-4.40537	8.88700
2031.25000	-11.86660	-4.66633	-4.10812	6.97395
2035.15625	-9.70775	-3.55572	-4.77583	2.80383
2039.06250	-8.79837	-2.71552	-3.91279	-0.67866
2042.96875	-0.02647	-2.06083	-2.27080	-0.30110
2046.87500	8.19952	0.35955	-1.23171	-1.87105
2050.78125	1.38827	1.86041	-1.23783	-7.10739
2054.68750	-4.61488	0.97599	0.94087	-3.75873
2058.59375	-6.30989	0.08699	1.72185	-2.93305
2062.50000	-3.32424	-1.77476	-0.74670	-9.47465
2066.40625	0.02411	2.71121	0.72272	0.45475
2070.31250	3.39415	3.13637	1.21915	2.67840
2074.21875	7.57094	-0.52974	0.61717	1.63995
2078.12500	6.11139	0.08599	0.11651	-0.53155
2082.03125	12.38099	0.93382	-0.42620	0.29546
2085.93750	7.74768	-0.59189	-0.15270	2.56100
2089.84375	-0.98744	-2.85458	-2.78208	-2.32643
2093.75000	1.48059	1.19206	-4.54009	3.71156
2097.65625	3.46789	3.32540	-3.89398	2.48850
2101.56250	13.62021	2.84398	-0.90496	4.80551
2105.46875	15.65468	2.13702	-0.23030	10.07892
2109.37500	16.07121	2.82416	-3.16929	8.12015
2113.28125	18.63497	1.70685	0.37549	2.88479
2117.18750	7.10332	2.55211	0.16582	-3.14385
2121.09375	0.77063	3.15185	-5.80788	3.22279
2125.00000	2.78862	1.22942	-6.76128	-1.18112
2128.90625	-1.00993	3.65123	-8.40427	-6.25637
2132.81250	-5.41286	3.02640	-7.20191	-6.05140
2136.71875	-7.97270	-1.02632	-5.03052	-0.50543
2140.62500	-6.04885	0.24746	-3.04534	6.80219
2144.53125	-3.05894	0.71642	-4.02927	8.24958
2148.43750	-6.68071	2.04366	-3.98125	6.53579
2152.34375	-6.97868	1.92487	-3.90369	5.94062
2156.25000	-8.72709	-1.36678	-6.99300	7.98882
2160.15625	-6.46390	2.99717	-4.70404	4.63832
2164.06250	-3.11094	5.83871	-3.71763	8.53199
2167.96875	-7.77365	2.43371	-4.40605	8.63111
2171.87500	-13.83987	-0.39129	-3.02877	2.22137
2175.78125	-19.33728	-0.88833	-6.52898	6.22879
2179.68750	-15.40936	-0.28266	-6.75401	3.15417
2183.59375	-15.91919	0.07841	-0.98925	5.28280
2187.50000	-9.10944	0.79213	0.39506	9.30311
2191.40625	-9.04738	0.91078	-2.56374	6.59139
2195.31250	-12.40092	2.01903	-1.22214	11.95520
2199.21875	-7.92750	2.90014	-0.73287	7.97081
2203.12500	-16.11769	2.37575	-4.70674	3.71501
2207.03125	-18.73469	3.16338	-5.29150	5.73505
2210.93750	-17.95835	2.60553	-1.70440	0.54430
2214.84375	-19.33985	0.10049	2.47883	-3.82689
2218.75000	-20.30482	-1.15349	-1.95181	-2.28392
2222.65625	-22.26360	-2.98100	-6.40685	-4.25718
2226.56250	-19.31608	-4.95704	-1.31855	-0.86579
2230.46875	-19.99639	-2.56176	1.15953	8.68474
2234.37500	-15.16162	3.02440	2.15465	12.89408
2238.28125	-19.92351	-0.75792	2.08014	5.01395
2242.18750	-25.51587	-3.09553	-0.84973	3.90250
2246.09375	-27.36947	-1.00369	5.06220	6.82137
2250.00000	-19.56647	-2.50463	5.62419	2.83217
2253.90625	-10.73059	0.71501	1.83266	-0.71707
2257.81250	-16.47045	3.68380	2.90114	2.05260
2261.71875	-19.85585	-0.38302	4.71355	8.01943
2265.62500	-12.67468	-0.28644	6.19637	-1.02937
2269.53125	-5.76376	0.35800	4.43577	1.14084
2273.43750	-5.62627	0.01995	4.73439	9.35693
2277.34375	0.91980	-0.31911	7.36061	2.12342
2281.25000	8.38958	-0.48212	8.26987	-2.41055
2285.15625	21.13770	0.82317	7.72660	-0.25530
2289.06250	22.64445	0.78721	8.07013	2.01835
2292.96875	22.33258	3.75718	8.44054	10.90794
2296.87500	29.81928	4.15559	9.81680	10.06019
2300.78125	33.80851	6.27937	10.62650	4.01436
2304.68750	44.24240	5.95327	9.25138	15.17108
2308.59375	43.11535	6.43766	9.67698	17.16576
2312.50000	31.66666	9.10354	8.91978	9.60461
2316.40625	19.45228	7.83929	7.04532	14.58364
2320.31250	9.63367	5.80061	6.14365	15.98623
2324.21875	7.87291	5.43571	5.53464	10.98055
2328.12500	0.86942	8.04168	6.03304	12.74909
2332.03125	-5.40168	3.16274	8.58812	12.32497
2335.93750	0.03602	3.88089	7.10356	10.05928
2339.84375	-6.94464	2.91845	3.28379	11.72323
2343.75000	-11.83166	-1.12986	3.42778	17.37025
2347.65625	-4.55288	5.19665	2.37648	11.74361
2351.56250	-8.25955	5.67642	2.60858	9.02367
2355.46875	-9.08642	2.75534	1.52863	11.80895
2359.37500	-18.77148	2.46952	1.24185	13.36502
2363.28125	-25.36550	3.58509	2.12709	10.94491
2367.18750	-14.64061	4.75288	0.31976	9.72110
2371.09375	-19.99367	3.74848	2.26186	8.99582
2375.00000	-18.78897	1.63990	3.61593	10.98259
2378.90625	-11.36478	3.64855	0.82433	9.61152
2382.81250	-12.60357	4.27161	1.23150	12.63048
2386.71875	-15.68551	0.66694	3.08719	14.33787
2390.62500	-23.25111	-0.20568	3.11447	0.58397
2394.53125	-18.18321	-0.27345	4.09630	-0.45988
2398.43750	-10.93585	-1.19958	3.24018	9.71604
2402.34375	-16.27975	-3.50014	4.36920	8.29720
2406.25000	-16.54684	-2.62785	2.62114	5.44355
2410.15625	-21.63158	-2.56131	-1.68467	3.55633
2414.06250	-20.55340	-3.38999	-3.07622	6.10990
2417.96875	-12.26556	-1.19560	-3.59874	7.62280
2421.87500	-19.90016	-3.20761	1.87156	0.33296
2425.78125	-27.70075	-5.93577	-0.67436	0.75766
2429.68750	-25.98899	-2.91690	-6.89843	-1.00297
2433.59375	-19.03360	-2.47383	-4.20383	-7.16109
2437.50000	-22.21831	-4.80101	-3.57567	-6.34637
2441.40625	-24.29626	-3.30980	-1.42488	-4.03773
2445.31250	-15.70582	-0.79343	-0.75400	1.07467
2449.21875	-10.91304	3.56175	-2.45422	2.23846
2453.12500	-7.96228	3.27846	1.11455	3.67370
2457.03125	-10.58463	0.07141	2.50299	5.27990
2460.93750	-12.97391	3.04503	0.12255	8.05284
2464.84375	-10.78792	0.31010	-4.06285	7.99157
2468.75000	-9.82432	-2.46706	-3.66366	2.82195
2472.65625	-10.28453	-1.04433	-2.03125	4.79497
2476.56250	-14.03914	1.73572	-0.67479	9.86490
2480.46875	-14.97201	2.15935	0.87422	16.43137
2484.37500	-12.55544	1.00392	-0.52592	27.53313
2488.28125	-7.39212	3.57590	-0.05063	27.75736
2492.18750	-9.85984	2.68842	1.66828	27.25688
2496.09375	-14.05180	-1.82251	3.40989	31.59050
2500.00000	-8.15673	-3.14366	4.05454	26.71505
2503.90625	-2.48865	-2.33564	4.21756	27.84644
2507.81250	11.30824	-0.47096	5.16151	36.35860
2511.71875	20.33308	-0.03216	5.76460	38.45022
2515.62500	17.58266	1.07831	6.29421	35.00790
2519.53125	11.87904	0.02930	3.21750	37.26969
2523.43750	19.39573	1.17150	2.51377	39.52955
2527.34375	19.29495	1.10591	3.91469	35.88365
2531.25000	12.62937	-1.95618	3.40622	36.79104
2535.15625	15.99686	1.16900	4.75323	33.02389
2539.06250	10.45923	2.41206	3.19870	24.70608
2542.96875	6.74022	2.26077	0.40849	26.29248
2546.87500	7.71336	0.65185	-0.56701	29.96060
2550.78125	6.94595	-1.07080	0.63571	21.50088
2554.68750	18.67153	-0.74645	1.60563	15.98500
2558.59375	17.37932	0.37906	-0.83684	20.83990
2562.50000	9.88865	1.33776	2.33570	25.17740
2566.40625	12.43102	0.58558	5.01387	20.19830
2570.31250	9.75706	0.60779	6.71918	19.19851
2574.21875	13.12787	-0.64089	7.32603	18.56299
2578.12500	18.51791	-1.63701	2.79603	8.33280
2582.03125	20.35518	0.01670	3.46212	10.77143
2585.93750	27.00368	-0.30037	4.94441	20.28964
2589.84375	25.52120	0.25737	2.31504	20.23721
2593.75000	34.03295	2.69221	1.76586	18.21624
2597.65625	50.92841	3.61660	1.20319	14.17232
2601.56250	52.21595	3.13507	3.38639	18.10087
2605.46875	50.62376	1.62213	3.65814	22.97110
2609.37500	35.72867	1.10035	7.16610	19.40036
2613.28125	26.60706	1.99767	7.48746	12.15009
2617.18750	29.17766	0.42519	2.84558	11.76229
2621.09375	24.05346	0.62202	1.70712	11.27891
2625.00000	19.62427	3.53481	1.55953	14.93350
2628.90625	14.21377	4.74784	3.94590	15.09617
2632.81250	17.06327	2.51123	-0.08987	6.83961
2636.71875	21.35303	1.27900	-2.75370	9.56492
2640.62500	16.82985	3.35856	-0.36566	8.41079
2644.53125	11.35815	1.40989	-0.54387	6.23167
2648.43750	1.28941	3.14002	-0.89884	11.77052
2652.34375	0.58848	4.63286	2.40212	2.31073
2656.25000	8.51025	0.13240	2.93918	9.99990
2660.15625	9.16163	-0.33892	1.60178	20.34891
2664.06250	6.47055	0.08501	1.78235	11.34871
2667.96875	0.59893	-3.72302	3.10853	7.01542
2671.87500	7.42627	-0.10123	2.47122	13.49936
2675.78125	8.37554	1.81920	-2.64078	16.29787
2679.68750	-0.59049	-1.20153	-3.26881	9.99972
2683.59375	3.33165	-1.64648	2.89887	6.08429
2687.50000	6.91764	-4.15629	3.07436	8.08983
2691.40625	-1.48215	-0.41130	-2.30206	10.21312
2695.31250	-6.85074	1.50274	-0.55757	6.71212
2699.21875	-6.00396	0.77197	2.75217	1.51859
2703.12500	-8.95631	1.45629	2.00179	0.08295
2707.03125	-11.17062	0.63210	0.61114	3.31151
2710.93750	-12.40910	0.47702	0.57180	4.16445
2714.84375	-11.37318	-0.41634	0.72574	9.46331
2718.75000	-10.72659	-2.47629	1.13015	10.60300
2722.65625	-7.85035	0.93423	2.71874	5.40592
2726.56250	-9.73820	0.16694	1.35981	4.76764
2730.46875	-12.43322	-1.46716	-1.80340	7.87089
2734.37500	-10.41913	-1.52212	1.20602	6.03600
2738.28125	-13.56950	-3.28980	1.93716	2.58772
2742.18750	-12.31228	-2.00100	-3.00755	1.47602
2746.09375	-14.56900	-3.13264	-4.34857	-0.44063
2750.00000	-13.21324	-3.02191	-2.57801	1.61370
2753.90625	-2.36300	-1.41400	-0.32580	4.51101
2757.81250	-0.44746	-4.48920	-0.46620	3.25103
2761.71875	-3.83315	-3.31803	2.15189	1.15883
2765.62500	-0.27876	-3.22144	2.42587	3.79464
2769.53125	-1.42699	-4.99469	0.66518	4.75555
2773.43750	0.32154	-0.90064	1.36661	1.28614
2777.34375	3.24053	-0.83680	3.18688	0.09585
2781.25000	0.23333	-0.99997	2.08141	2.81388
2785.15625	-7.56886	-1.30647	1.94095	6.58003
2789.06250	-13.71871	-3.76010	5.10492	1.19704
2792.96875	-6.37579	-2.40183	2.65478	1.22120
2796.87500	-1.30748	-1.19756	-1.20710	5.61049
2800.78125	-8.60112	-0.68546	-0.39738	3.19007
2804.68750	-3.80892	1.00313	-0.16088	1.45206
2808.59375	-4.13078	0.27876	1.07050	5.46055
2812.50000	-2.28341	-1.08461	3.53671	4.34553
2816.40625	4.43945	2.08343	4.07971	-3.56996
2820.31250	1.87320	4.47708	3.98387	2.66715
2824.21875	3.73841	1.69462	3.37474	5.71947
2828.12500	6.00194	3.49477	1.45554	0.23473
2832.03125	1.74518	5.46570	2.80184	-2.60744
2835.93750	1.13876	4.16921	6.15244	-2.45594
2839.84375	-3.02153	1.59498	3.94443	-1.19524
2843.75000	-6.69987	0.77012	2.07381	2.03394
2847.65625	-12.71786	-0.15609	5.45468	5.27158
2851.56250	-12.79825	-2.49687	7.70143	-7.52179
2855.46875	-3.14899	-0.17990	2.18924	-5.13947
2859.37500	-2.76084	0.34008	-1.72389	7.69866
2863.28125	-1.69923	0.64984	1.98178	6.48738
2867.18750	-1.04766	1.81753	2.18905	10.09880
2871.09375	-1.16269	0.81310	1.71352	4.94145
2875.00000	0.84787	2.33085	3.06754	1.69016
2878.90625	-2.20416	-0.49572	1.88767	5.15433
2882.81250	-1.02529	-0.67850	3.90655	8.57642
2886.71875	-9.74813	-1.86563	4.55342	6.25467
2890.62500	-14.09015	-7.17044	2.16305	0.15662
2894.53125	-7.81333	-6.43244	3.54770	9.18626
2898.43750	-7.81851	-5.34386	3.90032	7.67755
2902.34375	-8.72987	-2.40628	3.82055	2.22976
2906.25000	-5.77306	-0.72810	3.68403	6.62947
2910.15625	-5.61911	-0.25864	2.19866	4.34004
2914.06250	-6.55491	-1.08732	-0.40182	2.05915
2917.96875	-3.90731	-1.71343	-1.73032	9.21391
2921.87500	-3.48256	0.30391	-3.91585	14.41590
2925.78125	-7.25313	-1.61844	-5.25305	11.21528
2929.68750	-17.22568	-4.64358	-3.01561	-1.02049
2933.59375	-13.49310	-2.58890	-3.14157	0.47809
2937.50000	-7.40980	-0.48398	-3.72230	7.74062
2941.40625	-11.09899	1.81304	-3.18335	5.61788
2945.31250	-7.34339	0.30006	-4.12422	0.65773
2949.21875	-12.62358	1.02879	-5.01862	-4.62467
2953.12500	-16.11934	-2.47799	1.37062	1.24338
2957.03125	-8.66833	-4.87917	3.16199	6.07350
2960.93750	-10.65479	-0.29391	-1.63602	3.20591
2964.84375	-7.25996	2.20924	0.62540	-6.52523
2968.75000	-10.72865	-0.56794	1.83039	-4.44175
2972.65625	-9.17429	-1.56288	1.04526	2.36673
2976.56250	-4.06469	-1.60340	3.20757	-1.83057
2980.46875	-10.23589	-0.77704	2.33902	-0.50205
2984.37500	-12.25181	2.09649	0.93885	3.34692
2988.28125	-13.93843	1.04172	1.81700	4.77999
2992.18750	-11.97415	1.36272	3.13302	8.30874
2996.09375	-4.88424	-0.32804	2.85992	2.56905
