 	TP9	AF7	AF8	TP10	
-1000.00000	30.63208	11.18403	8.95795	26.94425
-996.09375	25.10926	12.39366	7.75053	23.55285
-992.18750	22.61901	11.58878	3.31978	26.64713
-988.28125	21.93357	12.79844	-0.70810	26.06252
-984.37500	24.01242	10.38166	-5.94482	22.75737
-980.46875	26.91171	-2.91416	-9.16692	26.13324
-976.56250	24.19302	2.72767	-6.74793	25.61732
-972.65625	24.55860	24.48679	-9.56684	26.95738
-968.75000	27.80217	23.27899	-16.41512	29.30471
-964.84375	27.76330	18.44472	-9.96678	25.54263
-960.93750	25.59518	24.08649	-1.10086	20.85184
-957.03125	24.57467	24.08745	0.91524	24.95675
-953.12500	27.77977	9.58288	2.52847	28.57795
-949.21875	28.79498	13.20998	2.93301	25.66945
-945.31250	26.98114	20.06058	-1.49763	22.96899
-941.40625	17.40104	11.19698	-1.89903	11.48699
-937.50000	10.53243	9.18314	-7.13567	8.26277
-933.59375	13.35413	7.97518	4.14780	11.77373
-929.68750	24.11974	17.24338	-5.92399	21.62110
-925.78125	25.69527	24.09395	-25.26317	27.53082
-921.87500	18.83592	18.45378	-3.50351	21.79649
-917.96875	17.51523	16.03708	4.55647	17.82944
-914.06250	16.34467	5.56176	-2.29195	15.23240
-910.15625	17.82088	5.15960	-0.67867	17.17765
-906.25000	24.71373	20.06888	-3.49774	22.31081
-902.34375	25.85680	8.38469	-8.33133	21.14314
-898.43750	17.30596	-1.28489	-22.43228	15.36258
-894.53125	12.17700	14.83304	-18.80445	11.96025
-890.62500	7.09120	17.65432	11.01377	9.53501
-886.71875	8.72864	-7.32649	10.61226	14.16586
-882.81250	11.05217	-17.39894	-1.47419	13.94653
-878.90625	5.86283	2.34546	-1.06966	4.47173
-875.00000	8.10772	11.61361	1.75237	7.59910
-871.09375	18.13645	15.64375	0.14220	15.63343
-867.18750	14.41322	9.19772	-5.49744	7.53899
-863.28125	2.61675	4.76629	-10.73420	-2.22089
-859.37500	4.52787	7.18486	-5.49474	3.67448
-855.46875	5.75042	1.54466	1.35650	10.60973
-851.56250	6.64938	-11.34865	4.98437	12.52338
-847.65625	13.57172	-16.58614	-6.69898	13.72614
-843.75000	15.45131	1.94965	-1.86209	12.12173
-839.84375	10.46737	12.02389	9.42161	6.50741
-835.93750	7.52219	3.56320	1.76744	4.46794
-832.03125	14.54884	0.34046	0.15707	7.87534
-828.12500	13.87041	14.04095	-5.07956	6.55129
-824.21875	10.46554	17.66825	-3.06306	9.82674
-820.31250	17.22090	2.76072	5.80326	17.78901
-816.40625	8.98949	-11.74397	4.99907	10.52413
-812.50000	5.98783	-1.66989	12.25335	1.70405
-808.59375	11.29207	5.18082	6.61391	1.34237
-804.68750	1.75722	-10.93542	-10.30769	1.77108
-800.78125	3.82126	-8.11408	-3.45650	6.87905
-796.87500	10.55019	3.97478	1.78302	9.83135
-792.96875	6.36275	10.42264	-1.03592	4.09423
-789.06250	15.11728	14.04995	-7.07825	4.56309
-785.15625	15.11148	7.60384	-5.46502	6.48930
-781.25000	-0.33252	5.99305	7.02735	1.56245
-777.34375	-2.71231	4.38222	10.65526	-1.65198
-773.43750	1.98210	3.57730	9.44794	1.35421
-769.53125	4.80851	5.99589	5.01714	3.73864
-765.62500	11.84475	2.77349	3.00382	2.62753
-761.71875	10.78870	3.58032	3.40811	0.21135
-757.81250	8.27768	3.58124	3.40942	-2.98624
-753.90625	6.15183	-0.04413	5.82826	-0.06145
-750.00000	-6.32187	5.59775	4.21804	-6.35001
-746.09375	-4.01132	6.80745	4.21952	-9.80837
-742.18750	-8.35966	1.57025	4.22086	-11.29102
-738.28125	-26.60084	2.37696	2.20752	-29.64420
-734.37500	-28.66867	3.98969	-0.61171	-39.63599
-730.46875	-35.58640	2.37900	-3.02793	-41.80338
-726.56250	-52.60035	-2.05221	-5.84715	-54.98745
-722.65625	-59.80473	-4.87167	-9.06949	-66.80395
-718.75000	-69.08149	-8.09420	-7.45657	-71.16632
-714.84375	-82.32851	1.97994	-7.85823	-76.26903
-710.93750	-79.34364	8.83069	-17.52747	-81.24899
-707.03125	-65.82142	7.62289	-24.77905	-73.66933
-703.12500	-54.51021	3.59459	-17.92800	-66.00885
-699.21875	-57.52933	-0.43368	-5.83885	-74.78580
-695.31250	-69.40446	8.02882	3.42968	-82.96500
-691.40625	-75.52789	4.80628	3.02792	-84.78021
-687.50000	-70.66324	-4.05730	-7.04400	-77.93009
-683.59375	-66.62435	-6.47384	3.03051	-74.18872
-679.68750	-51.18876	-10.50213	18.74590	-61.06954
-675.78125	-24.95144	-19.76843	-11.87573	-32.32780
-671.87500	-7.60509	6.42315	-25.17125	-14.50605
-667.96875	-5.87080	24.55610	-0.18832	-18.19530
-664.06250	-19.19505	7.23117	6.66271	-31.31310
-660.15625	-15.42261	-2.43817	18.75171	-23.58866
-656.25000	-6.99381	1.18917	11.90301	-10.18782
-652.34375	-2.08255	-5.25665	-2.60132	-2.97707
-648.43750	12.11957	-14.12024	1.02627	8.84648
-644.53125	32.16712	0.78913	-2.19592	24.33584
-640.62500	51.76870	9.25162	-6.22401	44.08609
-636.71875	54.97663	8.84968	4.65633	47.51279
-632.81250	49.43990	11.67115	11.50726	38.06077
-628.90625	50.61013	11.67216	15.53767	44.71401
-625.00000	49.98701	3.61472	16.34472	45.61467
-621.09375	46.81814	-2.83104	9.49612	41.20541
-617.18750	46.52205	0.39348	9.49731	45.67209
-613.28125	48.65811	1.20032	9.90148	52.61016
-609.37500	54.81561	0.79841	1.84397	62.83083
-605.46875	59.24435	0.79942	-3.39288	60.32677
-601.56250	59.56424	-5.24356	-2.98871	55.99433
-597.65625	57.48700	-8.86905	-0.97302	55.19321
-593.75000	60.85563	2.41395	6.28085	57.60225
-589.84375	61.41734	5.23548	6.28216	60.39469
-585.93750	60.34333	2.01320	-4.99861	59.61242
-582.03125	57.35630	3.62604	-5.40036	60.23344
-578.12500	53.61282	5.64181	5.47995	58.73589
-574.21875	51.78990	8.86634	14.74853	51.83296
-570.31250	47.46241	14.91133	11.12342	43.06372
-566.40625	46.43676	15.71826	7.09542	41.06021
-562.50000	47.03129	5.64611	10.32008	41.01496
-558.59375	42.54345	6.05002	7.90361	38.55529
-554.68750	38.79211	8.87144	7.09895	40.14044
-550.78125	33.91823	5.24603	11.12948	36.24051
-546.87500	34.85588	6.05289	12.74249	34.49644
-542.96875	39.85984	7.66555	3.87926	42.24741
-539.06250	36.75683	6.05493	-4.17807	39.36007
-535.15625	31.53510	-0.79382	-0.55040	33.80664
-531.25000	36.51346	-2.40442	2.67427	33.49445
-527.34375	32.45697	4.04349	-0.54796	34.29045
-523.43750	27.77311	1.62690	1.87078	35.31283
-519.53125	27.37487	2.03090	8.72187	26.88356
-515.62500	24.37886	4.85246	3.08192	25.17367
-511.71875	24.23730	0.82427	-9.81086	28.79822
-507.81250	17.49202	-3.60685	-2.15406	24.33967
-503.90625	13.58500	-0.38228	11.54689	22.62335
-500.00000	7.93790	-1.18699	13.15991	18.43548
-496.09375	4.42977	-3.20053	6.71450	14.23801
-492.18750	11.20688	-3.60242	3.08941	18.94393
-488.28125	17.77427	-4.00437	-1.74441	24.00025
-484.37500	25.09126	0.02601	-2.95186	31.57416
-480.46875	22.75245	1.63882	4.70508	29.30875
-476.56250	14.79572	2.44577	-0.12883	20.73413
-472.65625	2.67067	-6.82061	-6.17166	7.97164
-468.75000	11.95854	0.03024	-3.35018	14.34833
-464.84375	26.82831	11.71624	-3.75198	31.13570
-460.93750	3.70791	-0.37054	-0.52727	14.75999
-457.03125	-7.38574	-14.06913	6.32385	3.95642
-453.12500	8.71309	-9.23296	8.74274	10.39794
-449.21875	13.75755	0.03550	1.08825	13.13022
-445.31250	4.28797	-5.60461	-5.76033	9.22066
-441.40625	0.75173	-5.60364	3.10539	2.97638
-437.50000	-0.87894	-6.40839	9.15057	2.16934
-433.59375	-5.71313	-1.16921	7.13706	6.48585
-429.68750	-1.79760	-1.97416	6.33240	9.08003
-425.78125	11.46266	-15.26986	-2.53084	14.18350
-421.87500	16.28811	-11.64236	-8.57368	17.31327
-417.96875	8.52030	1.65541	-2.52848	10.52540
-414.06250	4.52897	7.29748	-0.91552	6.31623
-410.15625	8.01951	9.71605	3.51800	8.66393
-406.25000	3.22738	4.88195	-0.10716	8.15587
-402.34375	-5.70274	-10.83122	5.13217	0.13829
-398.43750	-6.19502	-18.88870	13.59503	-1.21011
-394.53125	6.00212	2.06470	8.76123	9.08711
-390.62500	1.72229	6.09501	-0.10199	1.82665
-386.71875	-11.95144	-11.22999	-3.72712	-4.82438
-382.81250	-7.21011	-14.45239	-3.72595	1.00034
-378.90625	-11.19046	-5.18389	0.30453	-8.07139
-375.00000	-21.83884	-1.95943	5.94678	-12.59935
-371.09375	-13.42135	-2.36120	-3.31933	-4.56466
-367.18750	-5.05620	0.05750	-2.10928	-1.37668
-363.28125	-0.73507	-6.38837	9.97997	1.35458
-359.37500	-5.27051	-17.26649	5.95186	-2.82311
-355.46875	-14.52390	-13.23613	-3.31434	-11.19915
-351.56250	-30.54749	-5.17640	-7.34243	-26.61121
-347.65625	-45.38285	-10.41338	-3.71480	-43.53977
-343.75000	-36.25013	-6.38297	-5.32527	-40.30871
-339.84375	-33.98096	-13.23176	3.54048	-38.26711
-335.93750	-43.77581	-7.99262	-14.59012	-40.30651
-332.03125	-49.64288	8.93156	-35.54117	-42.94326
-328.12500	-67.24435	-5.97577	0.32097	-62.39914
-324.21875	-77.09600	-19.67425	9.18667	-74.83791
-320.31250	-55.43213	0.07050	-15.79383	-61.63750
-316.40625	-66.88702	19.00930	-11.36039	-71.72302
-312.50000	-103.33199	-2.34496	-2.49462	-102.70447
-308.59375	-98.43081	-18.05827	1.93882	-106.28976
-304.68750	-89.43094	-5.16348	14.83387	-98.20558
-300.78125	-80.92028	0.88155	14.83515	-83.42754
-296.87500	-64.11843	12.56766	-4.50432	-64.35825
-292.96875	-37.68339	-1.13079	-11.35296	-40.27876
-289.06250	-40.21110	-1.12972	8.79485	-41.42183
-285.15625	-55.52840	-4.75498	12.82532	-58.43353
-281.25000	-68.55487	-24.49741	14.84115	-71.41908
-277.34375	-67.71140	10.55861	8.79850	-74.63367
-273.43750	-49.31757	7.73915	1.54708	-59.13694
-269.53125	-36.82106	17.81347	21.69485	-42.24713
-265.62500	-23.74127	27.08198	23.30790	-32.47953
-261.71875	-3.44246	16.60689	16.45934	-14.74946
-257.81250	14.59559	23.86080	-0.05943	9.45190
-253.90625	20.93091	19.02676	-12.54895	16.40566
-250.00000	7.24818	8.14885	-0.05680	3.67002
-246.09375	-6.96160	9.76162	14.04726	-10.66768
-242.18750	5.61281	5.33044	17.27205	-6.50965
-238.28125	12.35294	5.73455	18.88491	-1.09030
-234.37500	9.47898	10.16796	15.66264	4.22897
-230.46875	12.63427	19.03353	8.00822	10.52287
-226.56250	23.42214	18.22884	3.17441	21.11143
-222.65625	37.97567	14.20067	-1.65948	38.30558
-218.75000	50.85990	36.36295	-6.09050	50.86600
-214.84375	45.67122	34.75230	6.40161	43.74829
-210.93750	35.35906	18.63624	21.31138	31.51528
-207.03125	38.80770	21.45790	3.58377	35.46828
-203.12500	31.58380	12.19164	-2.05600	32.65218
-199.21875	12.04422	12.99866	14.06246	13.80166
-195.31250	1.37764	11.38815	14.46666	7.63682
-191.40625	5.32717	-7.95140	18.49729	7.43309
-187.50000	21.87663	2.92882	24.13959	16.70050
-183.59375	34.77965	27.91167	4.39728	32.93233
-179.68750	31.27710	22.27173	-11.71866	32.35156
-175.78125	40.59103	21.06389	14.07010	38.52886
-171.87500	38.59628	37.18216	24.95042	35.80087
-167.96875	30.65998	21.46897	11.65501	24.45572
-164.06250	22.97656	6.56167	13.67104	14.96412
-160.15625	19.09299	8.57751	10.85192	9.79453
-156.25000	23.08925	13.41392	-8.08455	15.13638
-152.34375	10.27121	17.04142	8.43684	15.89978
-148.43750	13.59392	12.20739	40.26958	6.36769
-144.53125	8.65964	2.13531	18.10969	4.12768
-140.62500	23.42586	-23.24819	-2.84151	17.83376
-136.71875	30.25978	-10.75623	12.87401	18.43954
-132.81250	15.85823	19.46469	1.19028	11.00177
-128.90625	17.43093	12.61594	-18.55207	7.58131
-125.00000	-1.72744	-1.48554	-10.08928	-0.38296
-121.09375	3.56480	-11.15479	-4.04408	2.05719
-117.18750	7.70049	-1.48326	-5.65452	4.91179
-113.28125	12.65675	0.93546	12.07574	12.65534
-109.37500	39.36340	5.77172	12.07705	26.09901
-105.46875	49.02981	12.21974	10.46654	32.86187
-101.56250	25.97928	8.19155	26.58504	14.42641
-97.65625	2.94927	4.96920	27.79506	-0.07485
-93.75000	20.82286	-0.26779	17.72317	5.96010
-89.84375	47.57477	5.77729	18.12750	15.60196
-85.93750	34.41250	21.49266	8.05554	14.81934
-82.03125	26.99282	19.07605	-7.25451	18.66338
-78.12500	25.26373	19.88293	7.65517	21.59772
-74.21875	35.52837	3.36385	15.31203	19.93257
-70.31250	51.74992	4.97671	7.65752	23.25099
-66.40625	29.77154	18.67750	12.89688	25.67940
-62.50000	23.91891	-4.69128	28.20949	19.99271
-58.59375	35.14506	9.81542	10.88476	17.53268
-54.68750	14.47031	-3.48015	10.88607	12.67055
-50.78125	6.77567	-25.23732	28.21340	7.15860
-46.87500	22.62142	4.98353	22.97661	10.24933
-42.96875	42.93655	35.20442	17.33690	13.16497
-39.06250	41.44512	36.81718	11.69717	19.94782
-35.15625	32.99973	16.67170	4.04276	18.02049
-31.25000	33.54555	11.83760	8.07335	9.64947
-27.34375	25.05644	17.07692	10.49225	8.02760
-23.43750	12.71671	-1.85964	16.13459	3.40862
-19.53125	7.48321	-1.85850	10.09196	2.63473
-15.62500	33.90088	4.58949	4.85519	12.60949
-11.71875	36.57939	-0.24454	8.88578	13.01006
-7.81250	20.56622	7.00937	3.24597	17.01250
-3.90625	22.70268	5.39874	9.29115	16.50443
0.00000	26.72540	16.27894	6.87487	9.49539
3.90625	15.96385	7.41558	4.45857	8.11757
7.81250	22.74040	-2.25370	13.32431	8.39051
11.71875	25.68068	16.28219	5.26698	3.37277
15.62500	21.31196	11.44816	-5.20792	6.91655
19.53125	22.59884	-4.26507	-6.41541	15.12667
23.43750	19.87959	6.61507	-3.59356	14.60984
27.34375	42.40561	19.10700	-3.18945	22.39570
31.25000	39.20164	21.92867	0.43823	20.30975
35.15625	25.86539	13.87115	2.85714	4.45868
39.06250	45.05186	1.38146	-1.17104	2.99031
42.96875	37.98654	1.78555	-1.16982	11.12341
46.87500	26.28245	18.30681	0.84609	7.08781
50.78125	31.32619	-2.24151	4.47373	10.22221
54.68750	29.91471	8.63869	4.07210	14.37069
58.59375	25.16936	21.93651	3.26761	14.57291
62.50000	28.77655	-5.86463	3.67181	16.58601
66.40625	28.77727	-4.25167	11.32873	10.82880
70.31250	27.85750	14.68734	4.48029	12.21391
74.21875	17.34478	19.12067	-0.75647	16.91427
78.12500	16.93206	7.43685	4.48306	15.61156
82.03125	13.19359	9.04966	3.27567	-3.26433
85.93750	20.48454	-0.61964	0.05360	-0.22078
89.84375	35.66042	-5.45375	5.69604	9.78266
93.75000	19.18370	0.18839	0.86208	2.42494
97.65625	33.22095	-1.01929	-11.22449	9.71894
101.56250	39.57864	10.26393	-2.76145	9.57938
105.46875	5.43904	22.35295	3.68697	-4.29913
109.37500	2.77116	13.89253	0.86788	-6.32134
113.28125	24.15272	-8.67038	2.88398	8.38306
117.18750	9.95676	-8.66924	-2.75574	9.77575
121.09375	6.37967	-0.60948	-17.25999	6.74815
125.00000	14.26639	-2.62302	-19.67633	7.45855
128.90625	14.22264	-12.29227	-7.58701	8.64377
132.81250	16.94709	-7.05315	-4.36212	9.41440
136.71875	18.04504	-3.02275	-5.56945	14.16053
140.62500	12.70412	5.84283	-9.19442	18.44465
144.53125	9.09208	-1.40884	-19.66920	14.09818
148.43750	11.20057	-9.46634	-15.23554	10.37130
152.34375	25.77925	-5.83890	-15.23413	12.78336
156.25000	29.27115	1.41503	-12.00933	11.58235
160.15625	10.99102	5.44550	0.88576	9.59490
164.06250	9.25513	11.89348	-7.17140	4.73531
167.96875	19.50551	8.67116	-18.85496	4.51653
171.87500	24.46847	-10.66835	-28.12111	11.65422
175.78125	18.24352	-0.59413	-32.55199	12.10944
179.68750	14.52301	-0.59307	-22.88033	13.62502
183.59375	16.76802	-1.80076	-17.23790	11.19542
187.50000	11.75182	0.61797	-7.96914	12.85144
191.40625	4.16235	-7.43945	-11.19126	7.25158
195.31250	6.31257	-3.00611	-16.83092	4.45686
199.21875	5.15321	0.62131	-3.53290	0.29741
203.12500	1.40574	-3.00388	2.91534	0.02596
207.03125	0.44152	-7.03204	-8.36541	8.39111
210.93750	11.61353	-4.61342	-17.63144	6.03927
214.84375	15.23397	4.25211	-16.42127	4.33891
218.75000	19.93623	-7.43182	-13.19651	5.45578
222.65625	13.92991	-1.78967	-22.46263	-2.59402
226.56250	-7.56626	13.52280	-21.65552	-8.04958
230.46875	-16.02196	-0.17577	-9.96921	-10.09763
234.37500	-10.19490	1.03424	-12.38546	-11.61215
238.28125	-7.22224	3.85584	-9.96649	-5.56729
242.18750	-3.68972	-14.67799	-7.14461	-3.52723
246.09375	4.25726	-21.52682	-8.75496	1.41168
250.00000	-2.57565	-10.64649	-7.94781	1.56956
253.90625	-3.89180	-9.03367	-13.18458	1.73718
257.81250	3.04132	2.24947	-15.19786	0.25398
261.71875	-16.40924	7.89142	-12.37606	-4.80312
265.62500	-4.37487	6.68362	-8.74839	-1.90173
269.53125	13.28575	-4.59733	-13.17931	-1.65202
273.43750	-8.96685	-14.66946	-18.81892	-7.98680
277.34375	-1.66631	-10.23611	-13.98253	-4.89548
281.25000	-7.31708	-4.59402	-9.54903	-13.69052
285.15625	-14.52039	-7.01043	-9.14481	-19.19665
289.06250	-36.51762	1.04926	-7.12886	-33.44447
292.96875	-47.57456	-0.96425	-18.00661	-40.37080
296.87500	-26.59347	-21.51269	-38.95760	-33.51674
300.78125	-45.73019	-25.54094	-18.80971	-48.33812
304.68750	-58.41159	0.65071	-4.70590	-64.17350
308.59375	-60.10329	9.11336	-8.73383	-72.83900
312.50000	-74.17674	-10.22626	-4.30018	-79.68896
316.40625	-73.76465	-7.00176	-5.91060	-77.15703
320.31250	-70.41746	-11.43295	-24.04110	-67.66477
324.21875	-72.38566	-14.25244	-47.00676	-70.35217
328.12500	-84.85666	11.13332	-51.03471	-80.33319
332.03125	-93.59897	27.65463	-20.00781	-86.44058
335.93750	-88.79181	-11.42841	9.00444	-96.73843
339.84375	-96.70480	-21.09763	6.99113	-103.51992
343.75000	-77.80026	-4.97930	-0.66324	-86.49326
347.65625	-59.18994	12.75060	-15.57033	-67.59814
351.56250	-70.77570	13.55751	-11.53958	-69.87761
355.46875	-73.69557	11.54396	-11.94121	-66.07372
359.37500	-48.05058	5.50110	-7.91060	-44.30938
363.28125	-33.56113	-11.01791	12.64016	-37.65987
367.18750	-29.83120	9.53269	19.49134	-35.02471
371.09375	-21.40896	16.38359	5.79295	-24.74594
375.00000	-21.22699	-2.95604	-27.24610	-22.23445
378.90625	-22.38197	-12.22242	-6.29250	-22.21234
382.81250	-8.97918	-6.58030	9.02017	-10.89660
386.71875	1.21487	1.07651	2.97763	-1.94471
390.62500	0.92469	1.07756	5.39657	4.64859
394.53125	5.35254	6.71960	0.96561	8.59044
398.43750	11.31253	1.48264	9.02564	10.30099
402.34375	20.91930	-8.99245	-2.65796	23.19840
406.25000	31.53952	7.93173	-11.92394	38.49994
410.15625	17.59472	10.75338	13.86488	26.78574
414.06250	12.89337	-11.40666	28.37152	26.80835
417.96875	23.60505	-9.79390	19.50860	41.53088
421.87500	27.51631	1.08634	11.85458	36.00309
425.78125	29.72176	-2.94191	10.24442	33.53152
429.68750	30.22863	-8.98479	9.03708	42.08750
433.59375	25.57587	-4.55139	3.80036	41.69490
437.50000	32.61656	5.92593	-0.22758	48.09582
441.40625	36.18660	7.13586	9.84706	50.87348
445.31250	28.40526	11.16621	19.11594	43.19049
449.21875	16.68095	1.89984	-1.43199	35.26059
453.12500	19.22971	-1.32254	-21.17414	35.12763
457.03125	29.06856	8.34887	3.80892	37.23728
460.93750	22.33883	9.96167	23.15096	27.49984
464.84375	16.71374	14.39510	9.85572	25.16938
468.75000	28.13864	10.36691	9.05133	39.76541
472.65625	31.73763	-1.72003	3.41175	38.14371
476.56250	21.81561	5.93671	-2.63075	30.70447
480.46875	16.58218	2.31143	14.29386	27.11037
484.37500	15.19772	-11.79005	11.87771	18.55059
488.28125	19.08532	4.32837	3.82047	23.78678
492.18750	20.39849	17.62615	0.59839	30.61033
496.09375	17.69997	18.43302	0.59993	31.71439
500.00000	14.06721	0.70513	21.15108	23.09390
503.90625	10.55861	-7.35245	20.74982	14.06096
507.81250	16.93246	20.45078	-8.25956	22.79586
511.71875	22.69362	20.85477	-7.45202	31.88111
515.62500	15.10174	1.11216	3.83164	22.93451
519.53125	7.92749	-2.91614	14.30935	14.62498
523.43750	5.20851	3.53175	21.16061	14.91455
527.34375	6.78272	4.33875	16.32695	15.04547
531.25000	10.83208	-0.49541	11.09036	18.60126
535.15625	13.21048	9.17590	9.07736	30.15007
539.06250	7.81854	9.17685	3.03500	28.27935
542.96875	-2.87267	-6.93929	3.03648	13.04306
546.87500	1.94382	-14.59393	-2.60296	12.63442
550.78125	8.19678	-6.53432	11.09828	14.56055
554.68750	1.14451	7.16633	22.78488	7.83030
558.59375	6.06951	-0.08536	12.31040	12.46502
562.50000	13.70606	0.31868	8.68557	20.92514
566.40625	18.94495	9.99005	9.49286	21.61508
570.31250	28.09851	12.81160	7.47974	29.04426
574.21875	26.45019	6.76866	-0.98022	30.11840
578.12500	17.17287	0.72579	-3.39616	15.92197
582.03125	1.34621	-10.95809	9.09633	1.47821
585.93750	-7.48057	-8.94237	16.35066	-3.53713
589.84375	-12.45158	4.75830	14.74045	-6.02477
593.75000	-12.00574	-2.09035	10.71270	-10.15941
597.65625	1.22505	0.73129	-2.17951	-7.29806
601.56250	9.99998	14.83486	0.23968	4.24710
605.46875	8.49711	3.55367	2.25600	4.06779
609.37500	2.60518	-4.50396	-2.98051	-5.61050
613.28125	-3.81606	1.94396	5.07967	-11.85890
617.18750	-1.08961	5.97436	-1.36574	-6.43729
621.09375	4.60012	-2.08308	-20.30198	3.42842
625.00000	4.42751	-3.69385	-11.03301	4.13813
628.90625	3.57716	3.96278	17.97961	-2.73595
632.81250	-10.21923	-6.10946	23.62224	-12.84502
636.71875	-9.12192	-13.76408	9.11833	4.39140
640.62500	17.77089	-8.92783	7.50814	32.04493
644.53125	12.94936	0.74361	7.91264	13.19243
648.43750	4.17790	13.63841	2.27314	-5.44348
652.34375	8.68268	18.07151	-2.56046	0.59439
656.25000	8.95055	16.05784	-3.76774	1.81051
660.15625	10.81649	10.82082	-4.97507	-0.58018
664.06250	7.87114	1.95734	-11.42044	-5.84320
667.96875	8.85334	12.03157	-11.41894	-0.42164
671.87500	10.18919	20.49422	-12.22332	-2.55190
675.78125	9.20160	8.00447	-19.07151	-6.52945
679.68750	17.56841	14.85541	-14.63767	5.05899
683.59375	29.88609	22.91502	-9.80095	17.13448
687.50000	25.27221	11.23104	-4.15831	11.13439
691.40625	14.45877	6.79984	1.08132	-2.12161
695.31250	9.75859	-10.92807	0.27705	-4.11096
699.21875	17.06001	-4.07727	-0.93024	7.44332
703.12500	16.53533	26.54638	-7.77853	7.97725
707.03125	8.72069	29.36803	-13.41805	-4.20743
710.93750	10.62468	17.68408	-8.98426	-5.75388
714.84375	17.06500	10.02934	6.32873	6.64784
718.75000	10.88766	-0.44586	6.33047	7.36135
722.65625	8.10419	0.36106	7.54088	-1.09191
726.56250	14.40973	0.36215	3.51313	1.51075
730.46875	11.99743	-2.45739	-15.02009	3.49178
734.37500	6.13906	1.97574	-8.16872	0.36524
738.28125	6.29095	-0.44089	4.72674	-3.66339
742.18750	13.04656	3.18652	3.11674	-0.81774
746.09375	17.36674	10.44018	2.71546	5.32961
750.00000	6.90682	-5.27307	7.55224	2.26367
753.90625	5.99311	-16.55404	1.10688	-1.19550
757.81250	14.53766	-3.25635	-18.63513	0.54445
761.71875	18.85972	8.02665	-16.61883	7.17213
765.62500	14.77634	17.29501	6.75279	4.43225
769.53125	11.08119	1.58172	5.14272	1.86110
773.43750	18.24214	0.77685	-23.06079	12.44910
777.34375	9.02211	7.22474	-26.28259	4.25807
781.25000	-4.28477	-8.89152	11.99743	-14.20765
785.15625	-2.22114	-6.87577	32.14545	-14.47594
789.06250	4.79241	-3.24832	19.25308	-4.54810
792.96875	3.80838	-6.06780	-2.10061	-3.41604
796.87500	1.41915	-4.45518	-1.69604	-4.21785
800.78125	12.90477	7.23079	14.42285	4.73334
804.68750	-0.58284	4.41133	8.78343	-5.46135
808.59375	-17.98923	-5.66094	-10.95850	-17.75361
812.50000	-1.44035	11.66619	-29.89463	-11.30719
816.40625	5.01544	13.27900	-8.53769	-11.59600
820.31250	0.70663	-1.22545	25.71297	-12.58019
824.21875	2.76747	2.80483	25.71459	-3.58289
828.12500	0.77232	7.23803	2.74915	-0.67037
832.03125	1.69991	2.80671	-9.33716	-4.36046
835.93750	4.89496	5.22535	-2.48578	-5.79395
839.84375	12.69604	-2.42928	0.73924	4.75029
843.75000	13.87134	-4.44293	-0.87097	7.27125
847.65625	-13.04961	4.01962	-0.86948	-19.76778
851.56250	-27.45599	3.21478	4.37013	-30.91180
855.46875	-25.54086	-2.82814	-0.06047	-29.52560
859.37500	-23.26612	-5.24473	-3.28227	-25.08752
863.28125	-22.87958	-7.66132	-10.53338	-22.06468
867.18750	-19.95564	5.23354	-12.94936	-24.26490
871.09375	-19.59213	18.53126	-13.75360	-24.86526
875.00000	-19.00722	15.30877	-13.75208	-24.36837
878.90625	-17.34174	8.45997	-2.06556	-21.52576
882.81250	-13.20640	10.47568	-6.89925	-15.44809
886.71875	-5.83279	11.68555	-16.97096	-11.73416
890.62500	-5.31694	3.22502	-12.13428	-8.36405
894.53125	-5.72408	0.80837	-6.89463	-11.27173
898.43750	11.11518	9.67389	-0.84916	-5.53165
902.34375	11.45495	4.03394	0.76409	-0.28956
906.25000	-3.71198	-1.60600	0.36261	-9.16335
910.15625	10.95170	2.02149	-7.29159	4.91040
914.06250	15.51812	-4.82721	-15.34871	10.57442
917.96875	0.84553	-4.42325	-12.52654	1.12154
921.87500	-0.07813	-2.00466	2.38345	5.26437
925.78125	-3.91633	5.65199	8.83202	5.21066
929.68750	-2.60347	16.93514	4.40138	4.09646
933.59375	10.06990	9.28042	4.80584	7.33041
937.50000	16.70779	4.84917	-20.98015	8.09037
941.40625	13.42803	6.05907	-23.39618	7.64466
945.31250	4.43794	-1.19258	6.82512	5.19976
949.21875	2.78685	-4.81782	8.43833	5.73142
953.12500	3.72372	-4.41383	-0.42456	2.77783
957.03125	7.51827	1.22832	1.18873	4.08141
960.93750	11.66740	7.27335	6.02551	10.46094
964.84375	7.25084	0.82746	-1.62867	7.32443
968.75000	5.37875	-8.03595	-5.25353	2.17655
972.65625	4.54509	-9.24378	-9.28137	-2.66901
976.56250	4.29290	-4.81053	-11.29456	-1.64727
980.46875	1.47643	-5.61539	-4.44322	4.42839
984.37500	2.10593	-4.40556	0.39354	6.74698
988.28125	5.18690	1.23655	3.21570	3.92378
992.18750	8.11098	0.83460	-5.24433	4.70254
996.09375	13.47036	4.46198	-15.31616	12.65560
1000.00000	13.46325	8.08933	-5.24139	8.86958
1003.90625	8.34221	-1.98295	6.84799	-0.56712
1007.81250	7.86549	2.85316	1.61143	0.91425
1011.71875	13.22295	12.12158	-0.40166	11.61049
1015.62500	11.67435	10.51086	4.03217	6.28966
1019.53125	7.31993	3.25901	3.63079	-4.43803
1023.43750	2.98866	-8.82793	2.02059	-1.32854
1027.34375	-0.27302	-5.20042	-3.21608	-3.61584
1031.25000	-3.47711	-4.39358	-3.21455	-4.08999
1035.15625	-5.53148	-4.79549	-2.40706	0.20555
1039.06250	-8.10349	-7.61504	-8.85249	-3.68027
1042.96875	-1.87215	-16.88144	-7.23926	1.22958
1046.87500	5.76433	-10.03057	-2.80556	7.26746
1050.78125	-0.07112	-6.40323	-7.63925	3.14934
1054.68750	12.61979	-10.43150	-6.02606	15.35650
1058.59375	17.94729	0.44862	-1.18927	19.18494
1062.50000	2.61630	3.67295	0.02110	8.70699
1066.40625	8.25770	-3.57881	0.82850	14.23177
1070.31250	19.82848	0.04857	-6.01975	23.27245
1074.21875	23.01499	-0.75630	-1.18296	28.37551
1078.12500	34.68961	-10.02278	5.66837	36.33992
1082.03125	36.99450	-8.41015	4.05823	36.80435
1085.93750	33.40553	-12.03550	0.83633	38.23568
1089.84375	38.91020	-12.03450	-0.77392	39.77716
1093.75000	38.14690	-12.03348	-1.98120	38.86577
1097.65625	38.48379	-14.45002	-2.78562	38.90644
1101.56250	42.02032	-12.03140	-3.58995	38.36354
1105.46875	36.89083	-8.80704	-0.36496	37.78109
1109.37500	39.05724	-5.98551	2.45704	41.39929
1113.28125	34.65017	-9.61090	-8.01769	38.77699
1117.18750	27.30279	-18.87734	-16.07478	30.09571
1121.09375	32.18630	-14.44419	-3.98528	31.49967
1125.00000	31.61049	-3.56414	6.49243	34.62692
1128.90625	26.73054	-2.75728	6.49405	26.94683
1132.81250	24.21580	-13.63551	4.88396	23.28445
1136.71875	26.11867	-19.27554	4.07969	26.41808
1140.62500	24.00017	-7.99252	-1.15682	20.62825
1144.53125	19.17823	-2.75344	-2.36407	17.89268
1148.43750	23.30039	-7.58762	0.05511	23.02955
1152.34375	15.71704	-8.39244	-1.55509	20.60592
1156.25000	11.55252	-7.18269	-1.15063	15.77797
1160.15625	19.46225	-12.82277	5.70068	17.01350
1164.06250	20.94908	-11.20998	12.95492	16.98856
1167.96875	12.66399	-14.02946	6.50955	11.53123
1171.87500	9.16479	-20.87814	-8.39728	10.60996
1175.78125	10.19184	-22.48882	-0.33712	7.43845
1179.68750	4.85900	-17.24974	6.51428	-1.11952
1183.59375	3.87991	-5.96670	8.53050	1.68869
1187.50000	2.89246	-7.17461	11.35263	1.32978
1191.40625	-1.87702	-10.80017	6.11609	-2.25567
1195.31250	-2.14498	-6.76987	2.89405	5.82836
1199.21875	1.12709	-1.93363	6.52182	12.54764
1203.12500	-0.20349	-7.57358	13.37318	5.02309
1207.03125	-1.97420	-23.68983	18.61271	-1.52052
1210.93750	-6.51705	-15.22735	21.43461	-2.26099
1214.84375	-9.34422	-8.77954	20.63027	-0.73838
1218.75000	-10.68667	-14.01681	19.42324	-0.42783
1222.65625	-11.05297	-1.12218	13.78384	-0.82256
1226.56250	-6.76248	4.51978	8.95006	9.03267
1230.46875	-7.96635	-3.13498	13.38363	7.38707
1234.37500	-13.82532	-6.76031	14.99666	-6.61886
1238.28125	-16.89771	-9.57990	15.40106	-4.60399
1242.18750	-21.42491	-17.63763	16.61134	-2.56477
1246.09375	-19.12011	-15.21921	11.37465	-1.65594
1250.00000	-15.88112	-8.77142	12.18190	2.53028
1253.90625	-22.03382	-13.20257	13.39221	-3.74999
1257.81250	-24.36927	-8.76953	7.34977	-6.04000
1261.71875	-22.06271	-1.51595	12.99225	-0.62186
1265.62500	-22.52062	-7.96182	22.26106	1.87563
1269.53125	-22.59007	-7.55797	17.02449	-0.69608
1273.43750	-23.48836	-0.30427	4.13239	-2.59956
1277.34375	-26.66536	-2.31779	10.98359	-1.92671
1281.25000	-32.31757	-6.74901	29.92276	-7.49934
1285.15625	-31.86643	-10.37467	14.61304	-8.97711
1289.06250	-24.04794	-13.19420	2.52666	-2.67638
1292.96875	-21.00364	-3.52299	25.09236	-1.14211
1296.87500	-17.34950	0.91005	30.73492	2.89072
1300.78125	-17.54943	-6.74466	21.87207	2.57410
1304.68750	-27.00838	-6.34089	4.54761	-8.02389
1308.59375	-33.13336	1.31560	10.19029	-10.24331
1312.50000	-35.11988	-0.69818	19.45930	-12.66174
1316.40625	-29.47048	-5.93535	23.89309	-9.32448
1320.31250	-24.51238	-8.35183	20.67102	-7.48853
1324.21875	-22.04917	-6.33603	8.98746	-1.31208
1328.12500	-18.00078	1.32062	16.24182	4.82361
1332.03125	-21.10271	-1.49906	8.99062	-4.50764
1335.93750	-25.16066	-9.95966	1.33649	-4.73268
1339.84375	-30.25380	-3.10903	16.64956	-7.48537
1343.75000	-33.91403	-4.31701	29.14207	-15.03792
1347.65625	-26.98930	-19.62735	25.11431	-13.06622
1351.56250	-21.65250	-6.73254	10.61029	-3.66111
1355.46875	-12.48495	15.42949	0.94152	6.99210
1359.37500	-9.00166	13.01288	5.77828	4.17732
1363.28125	-20.70320	2.53774	23.91172	-3.67897
1367.18750	-6.90030	-5.51996	24.31615	13.46144
1371.09375	-14.59561	-5.51908	23.91479	7.21999
1375.00000	-51.88651	3.74920	17.46945	-29.35285
1378.90625	-70.36792	0.52681	15.05337	-43.43332
1382.81250	-70.66504	-2.29285	21.50181	-40.17612
1386.71875	-68.12688	-5.11237	13.04181	-40.89454
1390.62500	-67.61147	-13.97590	-9.11776	-39.13639
1394.53125	-70.43658	-3.49872	-5.89287	-37.20905
1398.43750	-90.66734	8.99322	23.11954	-54.43620
1402.34375	-103.62485	-8.33183	30.37378	-74.17603
1406.25000	-102.67500	-13.97194	19.89916	-76.20016
1410.15625	-99.29390	-3.49463	-1.85760	-71.79694
1414.06250	-94.32494	-16.38738	8.21716	-72.17703
1417.96875	-88.85143	-10.34249	23.93306	-70.75099
1421.87500	-84.53743	6.98452	9.83203	-66.60831
1425.78125	-81.52626	0.53876	7.01305	-57.79782
1429.68750	-68.93176	-10.74234	8.62622	-47.22717
1433.59375	-57.46758	-12.75594	-1.04260	-38.75533
1437.50000	-52.03901	0.54184	-9.90560	-31.14573
1441.40625	-44.84301	3.76633	-3.86007	-25.95062
1445.31250	-39.32814	0.14109	1.37946	-18.72541
1449.21875	-36.54739	0.94790	-17.55674	-13.35886
1453.12500	-36.41674	-2.67731	-27.62853	-14.70091
1457.03125	-42.29282	0.54708	-5.86876	-17.42691
1460.93750	-39.35287	5.38311	12.26465	-17.09146
1464.84375	-28.45855	9.01056	5.81919	-11.36359
1468.75000	-18.64604	11.83219	-21.17565	-3.61786
1472.65625	-23.50938	6.59514	-13.11550	-7.65766
1476.56250	-31.01464	-2.26838	10.25602	-16.70923
1480.46875	-28.99638	-2.67029	1.39312	-17.88651
1484.37500	-27.15854	-1.86350	0.58883	-12.34461
1488.28125	-25.68976	1.36082	0.99328	-5.90054
1492.18750	-21.96029	-1.45883	-6.25793	0.11606
1496.09375	-17.00435	-18.78380	-6.65937	0.01030
1500.00000	-17.41497	-1.85961	-7.46375	3.47677
1503.90625	-18.10421	21.10851	-10.68573	1.69549
1507.81250	-16.96980	8.21566	-9.47534	-6.49363
1511.71875	-17.25387	5.79902	-11.89140	-8.69129
1515.62500	-20.41442	12.24694	-12.29283	-12.80351
1519.53125	-15.90471	7.41276	1.81123	-3.78774
1523.43750	-12.98377	-9.10639	0.60394	0.53038
1527.34375	-17.05183	-12.32874	-5.84159	-2.96591
1531.25000	-11.79487	3.78954	-8.25773	-0.21679
1535.15625	-8.20878	-2.25346	-9.86794	3.67553
1539.06250	-14.00469	-1.44670	-7.04581	0.19240
1542.96875	-7.77379	14.26857	1.82019	-0.13609
1546.87500	5.10031	12.25487	5.04517	12.34839
1550.78125	1.27906	5.00310	-5.83247	10.64760
1554.68750	-8.59451	0.57198	-13.48664	2.30507
1558.59375	-11.32593	-1.44175	-9.05295	-0.31357
1562.50000	-10.54011	3.79735	-1.39584	-5.15068
1566.40625	-7.31675	5.00729	-8.24413	-1.64080
1570.31250	4.65637	0.97903	-15.89826	11.42886
1574.21875	5.42473	-2.64633	-5.42056	13.30827
1578.12500	8.63744	8.63680	-8.23963	13.21383
1582.03125	4.89795	17.09940	-7.02939	11.66343
1585.93750	-17.62924	2.19194	14.32733	-7.85784
1589.84375	-27.43631	-4.65684	8.68772	-21.22510
1593.75000	-22.55913	12.67018	-7.02507	-17.30163
1597.65625	-21.41699	7.83608	-2.99429	-13.63487
1601.56250	-23.92487	-10.69773	-2.99284	-15.38684
1605.46875	-8.90820	-13.51725	1.03789	-6.29917
1609.37500	6.95749	-8.68109	-7.01927	5.78045
1613.28125	4.96781	1.79610	-21.52331	8.39625
1617.18750	-3.99153	3.00581	-2.58412	2.93828
1621.09375	-14.82266	2.60387	3.86429	-2.50772
1625.00000	-17.81654	8.24582	1.04538	-11.06568
1628.90625	-9.80324	2.20287	-1.77358	-11.89625
1632.81250	0.57532	1.80099	-3.78675	1.36424
1636.71875	8.52163	3.81665	-7.00866	13.36216
1640.62500	4.38800	0.19127	-14.66288	8.78083
1644.53125	2.78907	7.04206	-8.21456	3.22455
1648.43750	-3.16243	2.20796	4.27769	0.30258
1652.34375	-7.11984	-4.64074	5.08497	-7.35941
1656.25000	-7.25553	-1.41635	-2.56927	-11.78463
1660.15625	-2.56985	-1.01244	-2.16489	-7.32598
1664.06250	2.13974	8.65893	2.67171	-0.50151
1667.96875	3.52430	13.09211	4.68788	4.51681
1671.87500	5.26229	17.52530	0.25719	5.60961
1675.78125	-2.97878	8.66187	2.67619	4.45220
1679.68750	-9.52117	-4.23083	1.06597	-0.88287
1683.59375	-7.27756	1.41129	-19.07905	-3.71621
1687.50000	-7.45991	6.24735	-18.67456	3.17719
1691.40625	-2.96276	19.94792	-4.57046	5.63536
1695.31250	-0.00801	14.71082	-11.01576	6.86905
1699.21875	-2.37769	-3.01703	-3.35861	5.93215
1703.12500	-1.69443	-4.22474	0.67217	1.63061
1707.03125	-0.24247	6.25241	3.89709	-0.07829
1710.93750	1.25786	9.07389	1.48094	3.61297
1714.84375	-7.21106	6.65733	-8.99384	5.94107
1718.75000	-5.33051	12.29929	-2.54564	6.25139
1722.65625	-1.26489	5.85342	-5.76763	6.66240
1726.56250	-4.22761	-0.18949	-17.85406	8.45873
1730.46875	1.41783	12.30237	-20.27024	11.24526
1734.37500	-2.42673	20.76497	-4.95734	10.13298
1738.28125	-7.51381	10.28986	10.35557	2.47756
1742.18750	-14.45869	1.82937	2.29851	-8.77982
1746.09375	-17.79499	-0.18425	-2.13229	-7.46793
1750.00000	-14.15311	-5.42139	1.49544	-2.07259
1753.90625	-15.06768	-3.00288	-4.14415	-7.14387
1757.81250	-11.35922	2.63905	-11.39543	-6.61306
1761.71875	-5.42636	7.07217	-13.40854	5.65515
1765.62500	-2.66077	5.46146	-11.39241	7.34711
1769.53125	-4.74483	7.88006	-2.92939	3.96985
1773.43750	-11.68714	11.10448	-3.33081	6.09606
1777.34375	-13.25221	5.46455	-7.35860	-1.28945
1781.25000	-14.47194	-1.78717	-5.74542	-8.87632
1785.15625	-24.49707	-5.00955	-7.75857	-11.56257
1789.06250	-23.12560	-4.60548	-8.96581	-13.32021
1792.96875	-12.42568	-2.18686	-11.78490	-6.95054
1796.87500	-6.75714	4.66399	-14.20101	1.11163
1800.78125	-4.53982	7.08250	-8.96141	3.61560
1804.68750	-3.52279	2.24830	-9.76573	1.88210
1808.59375	-18.51238	-1.78002	-11.37583	-7.18697
1812.50000	-26.14017	-0.16739	-6.53917	-15.64923
1816.40625	-29.35559	2.25113	-3.71712	-26.01156
1820.31250	-42.52969	-1.37431	0.71658	-32.23415
1824.21875	-43.69319	-5.80554	-1.69948	-24.44598
1828.12500	-45.28622	-6.20748	-14.59180	-29.18947
1832.03125	-45.56823	-7.01226	-11.76982	-41.74429
1835.93750	-48.41788	-8.22000	-3.30677	-52.84843
1839.84375	-51.89978	-15.87468	-10.55797	-51.97477
1843.75000	-55.15751	-10.63565	-15.39162	-50.66290
1847.65625	-69.58852	9.10888	-21.83701	-69.24081
1851.56250	-93.26334	6.28937	-17.80625	-81.59408
1855.46875	-92.96084	4.67865	2.74461	-75.77608
1859.37500	-79.00185	-9.82587	6.77538	-72.14407
1863.28125	-76.60137	-17.88353	-2.08755	-68.31563
1867.18750	-72.46946	9.11380	0.73456	-65.27792
1871.09375	-71.70384	3.47378	8.39188	-71.51963
1875.00000	-77.16375	-12.64247	-14.57361	-75.05237
1878.90625	-76.70799	4.28161	-9.33397	-64.15142
1882.81250	-64.51497	7.10303	15.64927	-51.22430
1886.71875	-69.23012	8.31273	17.66548	-64.03085
1890.62500	-65.49178	10.32834	14.84650	-64.69041
1894.53125	-44.94752	7.50882	13.23629	-45.43737
1898.43750	-43.42061	11.94196	16.46130	-38.08596
1902.34375	-40.26135	7.10773	1.95731	-30.42669
1906.25000	-19.16553	9.92937	-16.97887	-9.88693
1910.15625	4.36159	1.06583	-2.87464	8.21576
1914.06250	8.52408	6.70776	15.25884	9.85008
1917.96875	8.35590	16.37896	-6.90070	13.29049
1921.87500	11.86360	8.72423	-13.74896	11.79203
1925.78125	0.36879	13.15733	5.19041	4.08229
1929.68750	-3.55724	12.35240	10.83306	5.78835
1933.59375	0.65373	9.53279	5.99940	9.82790
1937.50000	6.48491	6.31030	-1.25182	16.22867
1941.40625	18.91881	4.29664	-5.68252	32.30296
1945.31250	14.76319	3.08878	0.76594	36.30482
1949.21875	10.29091	3.89562	5.60272	27.56892
1953.12500	18.07692	7.52300	-2.45439	27.83858
1957.03125	19.85611	9.53856	-3.25869	30.35078
1960.93750	23.19869	7.12188	-1.24241	29.88037
1964.84375	25.63126	0.67593	-1.64368	30.37017
1968.75000	26.57895	7.52666	0.77546	29.65437
1972.65625	25.34157	11.15403	-2.04339	24.00276
1976.56250	31.13244	14.37847	-2.04177	31.87411
1980.46875	30.73274	5.11197	1.98913	36.74073
1984.37500	18.87064	-0.12524	4.00540	26.56839
1988.28125	14.69796	9.14303	3.20116	24.55087
1992.18750	18.83001	7.53228	-3.64707	27.74697
1996.09375	22.57686	9.95090	-10.49534	31.67057
2000.00000	16.12200	4.71379	-5.65861	23.85502
2003.90625	16.64113	6.72945	8.04264	18.04442
2007.81250	16.16352	15.19197	9.65599	21.94313
2011.71875	11.84981	7.94014	6.03119	24.17767
2015.62500	16.34452	5.52346	4.01819	28.92992
2019.53125	22.46551	7.94200	1.60224	31.90162
2023.43750	18.13334	6.73414	-0.41080	28.56406
2027.34375	13.66206	1.89989	-2.02089	24.26189
2031.25000	15.29226	5.52724	-4.03389	24.19052
2035.15625	16.05739	3.91641	-2.82340	21.23303
2039.06250	11.46983	-2.12659	-0.80706	14.92933
2042.96875	8.83589	-1.72274	0.00048	13.79506
2046.87500	10.02466	-4.54234	-1.20666	13.78877
2050.78125	12.24699	3.11426	-3.62258	17.32602
2054.68750	12.44629	9.15920	-3.62094	15.83333
2058.59375	9.31154	5.13086	-2.81342	13.21482
2062.50000	6.47057	-1.71798	-4.42348	12.80999
2066.40625	-0.37964	-1.71701	-4.42178	6.64961
2070.31250	-9.35916	-3.32778	-2.00248	1.58752
2074.21875	-4.96458	-2.11799	-2.00080	-1.36803
2078.12500	-5.37846	3.92691	-2.80489	-7.90910
2082.03125	-20.80320	-2.92196	-3.20602	-19.12970
2085.93750	-26.40740	-5.74156	-1.59248	-26.96566
2089.84375	-35.40864	-9.76992	-2.39660	-31.06514
2093.75000	-51.08092	-13.79831	-4.00657	-37.21452
2097.65625	-57.59457	-12.58858	-3.60195	-48.45588
2101.56250	-55.67031	-0.49969	-6.82368	-45.77526
2105.46875	-59.18851	-4.12509	-10.85122	-50.78979
2109.37500	-68.30470	-22.25593	-18.90804	-62.07992
2113.28125	-70.29473	-4.12321	-8.83280	-57.44938
2117.18750	-65.95772	8.36854	8.49498	-59.68381
2121.09375	-70.74518	6.35482	-10.03812	-68.35318
2125.00000	-74.54533	-3.71760	-8.02176	-68.04655
2128.90625	-72.17336	-25.87792	12.12648	-70.48875
2132.81250	-76.30058	-12.98313	10.11360	-73.74838
2136.71875	-70.77215	9.98487	7.69781	-62.95918
2140.62500	-53.95373	6.35944	4.47610	-49.40855
2144.53125	-50.71799	11.19553	4.07488	-48.92089
2148.43750	-44.98517	6.76420	-10.42881	-45.79910
2152.34375	-40.48174	-4.51694	-1.96547	-44.19396
2156.25000	-40.21525	1.12503	13.75059	-45.79895
2160.15625	-28.68046	-11.76778	7.70844	-35.29659
2164.06250	-12.68950	-13.78157	6.09857	-20.01087
2167.96875	-10.90275	4.75428	10.12973	-16.20170
2171.87500	-11.18012	13.61972	13.75789	-9.87114
2175.78125	-5.31950	2.74155	16.58014	-0.95567
2179.68750	-3.40117	-16.59823	9.73214	-3.87363
2183.59375	3.67670	-15.79147	8.52513	-1.06638
2187.50000	10.34332	-6.52311	10.94451	2.20014
2191.40625	16.45134	-1.68698	12.15499	11.10457
2195.31250	30.68727	2.74630	6.51571	26.03749
2199.21875	39.59882	4.76194	1.68231	31.54700
2203.12500	45.11654	-7.72794	5.31071	40.54178
2207.03125	58.65563	-0.07139	2.08933	57.36732
2210.93750	56.93174	8.39107	-1.13223	53.80548
2214.84375	44.02991	-8.93400	2.89889	38.40434
2218.75000	40.67163	-2.08325	14.58567	38.71422
2222.65625	31.03680	-4.09690	9.34937	31.87195
2226.56250	23.23816	-16.98966	-13.61581	21.57994
2230.46875	19.61544	-19.80922	-19.65793	14.29271
2234.37500	12.94963	-19.40522	-7.56827	11.56833
2238.28125	19.94971	-16.98669	-6.35769	22.04445
2242.18750	27.91245	-15.77709	-2.32652	28.11270
2246.09375	24.97835	-11.34392	-9.17439	30.22999
2250.00000	27.81368	-5.29906	-13.60480	33.61023
2253.90625	20.45158	-10.13332	-9.97656	32.16496
2257.81250	23.75638	-14.96753	-3.12495	31.08361
2261.71875	33.71786	1.15066	-1.91429	28.04011
2265.62500	26.40953	5.98678	-14.40321	26.10535
2269.53125	28.75683	1.95840	3.73054	35.62130
2273.43750	46.39231	6.79451	17.83488	47.41732
2277.34375	38.37944	4.78078	8.56931	43.65771
2281.25000	21.84735	6.39338	8.16818	28.01152
2285.15625	23.50619	18.88509	10.58767	24.92170
2289.06250	20.84745	26.54172	6.15736	30.41617
2292.96875	37.59044	26.54264	-1.89942	27.11487
2296.87500	22.30559	21.70831	-1.49473	28.32668
2300.78125	30.96893	12.44187	8.17742	33.65048
2304.68750	64.21939	0.35497	0.12072	31.51342
2308.59375	45.60227	12.44381	-4.30965	29.69633
2312.50000	20.64744	15.26534	8.18306	29.69478
2316.40625	21.05737	3.17830	7.78204	27.79320
2320.31250	30.44618	1.97031	6.17228	26.80788
2324.21875	34.11662	9.62687	10.20361	28.55121
2328.12500	58.30992	11.23953	12.22023	32.26837
2332.03125	32.64223	10.43459	4.56649	24.95099
2335.93750	18.50957	10.83832	4.16544	22.30766
2339.84375	42.02303	6.40699	6.98790	28.82168
2343.75000	39.16728	-0.44178	0.54305	26.90951
2347.65625	18.28841	-0.44087	-1.06672	24.04527
2351.56250	30.47343	6.00683	-2.27357	27.40575
2355.46875	48.90693	9.23113	2.96651	23.15000
2359.37500	24.18374	7.21734	9.81829	16.70836
2363.28125	25.77753	-3.66079	11.83478	24.96878
2367.18750	29.90885	14.06913	2.97221	17.53004
2371.09375	13.75077	24.94917	-3.06982	7.66172
2375.00000	26.42197	-6.47836	-1.45613	17.82834
2378.90625	42.59154	-9.29802	-5.88641	15.43248
2382.81250	46.72551	0.77613	-7.49618	23.12148
2386.71875	41.60682	1.58289	-8.70303	28.84964
2390.62500	32.45086	-5.66884	-1.44849	16.90794
2394.53125	34.45971	0.77907	6.20901	9.16464
2398.43750	15.43677	19.31479	6.61388	4.83109
2402.34375	17.38675	3.19851	7.42155	8.86400
2406.25000	40.49677	-10.50009	5.00577	12.48073
2410.15625	20.10409	1.58887	0.17243	8.01946
2414.06250	12.17838	5.21625	-5.06391	4.81873
2417.96875	33.76809	-1.63246	-5.06215	5.43878
2421.87500	33.24624	-5.66073	-3.04574	8.37259
2425.78125	20.54242	1.99592	-2.23807	6.70694
2429.68750	23.46579	-1.22652	-2.23622	9.21902
2433.59375	17.60318	-3.64308	-4.24910	9.22948
2437.50000	10.94335	1.19304	-3.84451	-0.08368
2441.40625	22.16815	2.80575	-9.48385	2.69417
2445.31250	-0.52271	6.03010	-14.31707	-9.01802
2449.21875	-4.99532	-14.11541	-1.01858	-16.14203
2453.12500	-2.85061	-12.90545	0.59488	-24.73668
2457.03125	-32.90317	-10.08383	-6.25329	-34.71520
2460.93750	-42.45468	-3.23326	-0.61062	-35.18542
2464.84375	-31.15797	19.33168	-11.08511	-43.55993
2468.75000	-30.61356	-2.42558	-29.21523	-49.11077
2472.65625	-21.77797	-18.94468	-28.81054	-43.88313
2476.56250	-34.92515	-6.45292	-21.95897	-45.68199
2480.46875	-61.11286	11.27683	-4.63118	-58.14132
2484.37500	-55.24640	14.90415	11.08477	-59.44918
2488.28125	-44.91386	-26.99977	3.02775	-56.63142
2492.18750	-36.75288	-31.83393	-6.23800	-50.21185
2496.09375	-44.69157	17.72749	4.23984	-56.76451
2500.00000	-54.77340	29.81639	0.21237	-56.11861
2503.90625	-22.82629	0.40340	-5.02387	-29.69494
2507.81250	-11.21661	2.41892	-5.02210	-24.99054
2511.71875	-21.97785	6.04614	2.23245	-28.80015
2515.62500	-11.03711	-15.30819	15.53102	-21.63065
2519.53125	-3.70815	-11.68084	11.10069	-17.04754
2523.43750	-4.41462	15.71928	3.44678	-9.50636
2527.34375	2.39543	22.97286	0.62804	0.29376
2531.25000	15.70979	-10.46949	-7.83170	7.87767
2535.15625	12.84773	-6.43924	-5.81522	6.93442
2539.06250	11.88580	4.03773	2.64817	10.70360
2542.96875	25.77119	-6.84038	5.47064	17.62746
2546.87500	34.61480	-6.43638	5.47262	23.26176
2550.78125	36.83638	-9.25600	-1.77817	30.42501
2554.68750	39.85534	6.45921	-3.79083	38.60227
2558.59375	37.12268	12.50411	-2.98302	41.62427
2562.50000	35.08689	-7.64149	-7.41334	33.96631
2566.40625	30.25055	-8.04360	-16.27582	39.08765
2570.31250	34.56679	2.03054	-11.43870	43.69541
2574.21875	42.58654	-6.02702	-0.15486	36.30678
2578.12500	42.97732	-1.59364	-7.80879	36.21186
2582.03125	47.69807	13.31581	-29.96811	43.12241
2585.93750	54.98631	7.27274	-37.62172	48.98519
2589.84375	44.77481	-2.39668	-20.29378	36.42316
2593.75000	27.08658	7.67739	7.91312	28.66105
2597.65625	24.19810	-0.38044	19.59984	27.89498
2601.56250	18.06241	-12.06467	8.31981	15.66618
2605.46875	25.42187	2.03881	2.27783	19.51522
2609.37500	34.83926	7.27799	3.48850	29.17658
2613.28125	29.22174	3.24971	-6.17993	28.56821
2617.18750	25.49888	4.45948	-13.02777	29.15353
2621.09375	24.33666	8.48978	-8.99660	29.75089
2625.00000	34.63842	5.67032	-11.00944	36.10085
2628.90625	23.30989	-1.17861	-12.21645	30.03176
2632.81250	5.88515	-8.43050	-7.37945	14.28076
2636.71875	6.57759	-12.86171	-5.36287	12.98158
2640.62500	8.08399	-0.36976	-8.98744	17.26433
2644.53125	19.78065	7.68990	-14.62675	21.78095
2648.43750	19.87182	0.43819	-12.61027	19.26139
2652.34375	8.66058	1.24503	-3.34092	14.41948
2656.25000	12.95596	0.03715	-11.39770	16.84362
2660.15625	22.07284	-3.18536	-23.08083	22.10776
2664.06250	19.12570	0.84502	-19.45265	23.69382
2667.96875	13.65940	2.45767	-11.39220	23.87668
2671.87500	8.54679	1.65294	-6.95816	18.52231
2675.78125	6.34871	0.04238	-10.98571	19.37928
2679.68750	13.76879	-5.59754	-9.37227	23.32333
2683.59375	12.06181	-1.56717	-1.31185	18.77909
2687.50000	2.90960	1.65736	-10.98039	16.28960
2691.40625	0.53708	4.07598	-14.60499	14.73929
2695.31250	1.83090	7.70346	-6.94752	14.21887
2699.21875	8.31101	3.67518	-21.04828	18.40260
2703.12500	6.35170	-4.38234	-18.62895	17.65878
2707.03125	-7.50576	-8.81350	-7.34514	4.20419
2710.93750	-8.46947	-6.39492	-11.37270	-5.77684
2714.84375	-0.59261	-3.17056	-14.59445	-6.05903
2718.75000	8.06537	-3.16952	-25.06900	3.76400
2722.65625	9.57504	-3.97436	-20.63501	9.77073
2726.56250	-4.55180	-4.37623	-2.09844	1.89198
2730.46875	-8.22840	8.92151	-13.78157	-1.32374
2734.37500	-1.08698	18.18999	-25.06192	9.81578
2738.28125	-7.12595	6.90912	-2.89901	6.79235
2742.18750	-13.73428	-11.22165	8.38481	-3.28586
2746.09375	-11.59242	-16.05573	-17.40094	-0.31101
2750.00000	-12.42737	-2.75805	-16.19034	0.31288
2753.90625	-14.55919	4.49561	0.73452	0.60237
2757.81250	-15.91975	-3.96498	0.33324	1.28304
2761.71875	-21.27906	-13.63435	-1.27683	-1.37918
2765.62500	1.99897	-16.85677	-1.27512	21.77444
2769.53125	4.73382	-6.37962	-4.09385	15.66992
2773.43750	-25.69362	-0.33469	-10.53887	-19.58886
2777.34375	-25.98128	2.48689	-12.55179	-16.40151
2781.25000	-14.27874	13.77006	-14.16164	-6.28238
2785.15625	-15.75318	12.15930	-23.02418	-12.03320
2789.06250	-30.46869	7.32496	-23.82825	-25.74926
2792.96875	-37.70781	9.34049	-21.00601	-33.82563
2796.87500	-38.52796	2.89460	-23.01900	-36.60097
2800.78125	-46.73759	-1.53661	-15.36158	-46.21682
2804.68750	-41.88062	7.32890	-12.13635	-41.29530
2808.59375	-31.79518	11.35918	-22.20780	-29.64328
2812.50000	-30.44772	7.33095	-17.77374	-25.57625
2816.40625	-28.58522	12.16720	-7.29576	-22.65665
2820.31250	-21.56128	4.51244	-19.38180	-23.68996
2824.21875	-5.06511	3.70759	-33.48254	-5.57553
2828.12500	3.18395	21.43764	-18.57230	10.85204
2832.03125	-11.55983	12.57423	3.99370	-4.09493
2835.93750	-24.76646	-2.73622	4.39847	-11.24035
2839.84375	-22.16913	-4.34698	-1.64358	-7.21688
2843.75000	-13.69868	-0.71970	-10.90913	-6.82185
2847.65625	-7.31616	1.69883	-16.14541	-1.75996
2851.56250	-4.00131	0.08809	-15.74060	2.02473
2855.46875	-2.89992	-2.73139	-9.69475	5.70329
2859.37500	3.40410	-5.55087	-8.88700	6.40954
2863.28125	2.72740	-0.31171	-8.48218	5.72791
2867.18750	4.40692	4.12150	-6.46570	7.07485
2871.09375	5.13318	1.70492	-5.65800	4.08101
2875.00000	1.15198	4.12349	-4.04444	-0.43386
2878.90625	0.75073	0.49815	-4.84844	1.45931
2882.81250	7.13718	-1.91838	-8.47289	6.27590
2886.71875	14.58831	9.76762	-8.87400	11.98079
2890.62500	9.00519	4.93343	-8.46923	9.74565
2894.53125	-0.12055	-6.75053	-6.45278	2.18130
2898.43750	-4.75712	-5.13792	-7.25689	-0.32483
2902.34375	-10.14782	-11.58380	-9.67253	-4.78726
2906.25000	-8.59658	-8.76223	-12.08820	-5.16694
2910.15625	-12.92165	-5.13490	-8.45981	-5.54316
2914.06250	-14.77397	-11.17793	-4.02561	-4.57872
2917.96875	-7.89214	-2.31244	-10.06770	-2.98571
2921.87500	2.03568	6.95593	-12.88649	0.73044
2925.78125	6.98197	1.71892	-12.48186	6.80880
2929.68750	-5.43313	-7.54740	-8.04778	2.55386
2933.59375	-10.57010	-6.74060	-8.44872	-0.96351
2937.50000	-3.82961	-11.17194	-11.67019	-1.70069
2941.40625	-4.27196	-11.97689	1.62825	-2.57121
2945.31250	-6.76873	-4.32021	2.83880	0.36370
2949.21875	-8.81070	1.32183	-0.78570	-0.19688
2953.12500	-8.86041	-0.69183	4.05140	-1.47102
2957.03125	-19.17323	-10.76411	-1.58787	-5.34580
2960.93750	-23.44212	-13.18067	-4.40657	-6.65017
2964.84375	-18.01667	-10.35918	-6.41942	-9.59479
2968.75000	-18.61050	-2.29958	-10.44692	-10.95967
2972.65625	-14.47370	-5.11916	-11.65387	-3.67312
2976.56250	-15.24986	-9.95337	-9.63733	-1.43895
2980.46875	-15.99986	-12.77291	-8.82954	1.37050
2984.37500	4.66639	-17.60716	-8.02178	11.98576
2988.28125	7.89012	-5.51827	-8.01988	11.37925
2992.18750	-11.68690	-1.08515	-15.27069	-2.31905
2996.09375	-25.50875	-11.56042	-17.28346	-12.55043
