 	TP9	AF7	AF8	TP10	
-1000.00000	-15.51075	2.58298	-2.97956	-3.01035
-996.09375	-11.20724	1.37750	5.08512	-3.63447
-992.18750	-18.46550	0.17203	-11.42892	-2.43055
-988.28125	-11.13749	-1.03340	-13.43753	-0.64335
-984.37500	-12.45373	2.99934	5.10324	-4.85471
-980.46875	-18.75779	1.39095	5.10933	-6.87827
-976.56250	-9.92480	0.58848	-5.36079	-3.69807
-972.65625	-8.88664	0.59189	-9.38412	-1.55424
-968.75000	-12.37486	-2.22519	-0.51375	0.01392
-964.84375	-7.57988	-2.22178	4.32729	-2.73592
-960.93750	-1.14779	-1.81551	2.72148	0.45647
-957.03125	-3.49873	-3.82686	-0.09300	6.18948
-953.12500	-12.57304	-4.22655	-3.71324	3.75149
-949.21875	-15.91405	-2.20864	-8.13944	1.19438
-945.31250	-6.68835	-2.20536	-8.13339	5.10775
-941.40625	-2.15605	-3.00798	-5.70975	7.32462
-937.50000	-5.63695	-2.60162	-3.28626	5.07137
-933.59375	-7.38006	-3.00123	-1.66853	4.60340
-929.68750	-5.23746	-1.78909	-4.48308	7.72500
-925.78125	-8.95875	-1.38279	-6.49178	8.61643
-921.87500	-14.92109	-1.37948	-11.32093	0.44644
-917.96875	-12.31711	-8.62880	-10.10606	-3.42822
-914.06250	-12.66546	-4.99903	0.37621	0.58024
-910.15625	-20.64304	1.04836	2.79988	-1.75959
-906.25000	-27.67373	-5.39510	-2.43210	-8.71837
-902.34375	-28.54891	-6.60048	-6.05235	-12.90694
-898.43750	-20.31976	-5.38834	-2.01683	-12.05572
-894.53125	-26.43158	-4.17634	-2.01066	-14.78272
-890.62500	-39.17094	-2.96436	-2.40767	-23.64614
-886.71875	-33.81038	-4.57274	4.44829	-25.13010
-882.81250	-36.17479	-6.18117	0.02231	-33.92573
-878.90625	-46.97215	-8.59547	-4.00086	-41.75890
-875.00000	-50.70862	-9.39801	-12.05332	-45.12687
-871.09375	-54.78582	-4.96251	-9.22661	-51.50121
-867.18750	-61.60708	-12.21175	-16.07015	-59.95139
-863.28125	-70.82209	-13.82004	-22.51064	-66.21654
-859.37500	-74.94794	-13.81678	-16.86327	-66.74459
-855.46875	-64.15810	-8.57536	-26.93034	-56.21899
-851.56250	-72.33502	-2.12520	-12.01589	-55.12228
-847.65625	-88.89467	-8.16594	4.91312	-68.85744
-843.75000	-84.12261	-15.01236	3.30756	-78.33293
-839.84375	-70.39772	-21.05302	-4.34192	-69.67797
-835.93750	-42.61862	0.30552	-14.00607	-35.17805
-832.03125	-35.42151	11.59089	-18.02922	-30.09497
-828.12500	-45.15536	-6.94050	-3.92058	-41.77454
-824.21875	-49.46679	-10.16057	-2.70576	-34.39674
-820.31250	-39.76342	3.94531	2.13543	-31.20786
-816.40625	-18.74136	-18.61553	5.76786	-16.26400
-812.50000	-12.55833	-40.77349	-7.11992	-3.83678
-808.59375	-8.95732	4.35792	-2.68162	-2.07427
-804.68750	-3.10159	17.65792	8.60648	7.99044
-800.78125	2.45760	6.78201	13.85062	17.25072
-796.87500	9.88018	2.35304	8.61853	24.28802
-792.96875	15.98281	-8.52277	-0.64281	29.27458
-789.06250	16.88070	-10.93715	-3.86015	27.67529
-785.15625	22.35311	-4.08408	-11.10677	33.53400
-781.25000	40.56190	-2.06621	-5.86256	50.73224
-777.34375	45.25138	-5.68937	6.63434	52.22406
-773.43750	48.97681	-6.08906	-0.20935	51.49186
-769.53125	47.26562	1.97270	-1.81496	53.51124
-765.62500	42.22409	4.79641	0.20578	51.91842
-761.71875	52.80349	-1.24429	-5.42910	55.55379
-757.81250	58.75760	-6.07621	0.21815	55.85654
-753.90625	49.33779	-3.65548	2.23902	51.91758
-750.00000	48.34747	-1.23468	-1.78420	51.65091
-746.09375	49.67562	2.79784	4.66878	50.66467
-742.18750	45.64239	8.44212	-5.39836	41.40339
-738.28125	39.51361	6.02774	-20.70365	41.22889
-734.37500	40.41754	1.59869	-2.16272	36.97997
-730.46875	42.79824	-4.03908	14.76652	28.26604
-726.56250	31.44996	-12.49738	4.69940	28.47982
-722.65625	25.45109	-14.10587	-2.54724	25.96419
-718.75000	24.50722	-3.22346	-8.18221	26.27100
-714.84375	27.20075	5.24133	-16.23472	28.88840
-710.93750	29.36730	0.81233	-8.97588	32.04593
-707.03125	23.64355	-11.27233	7.55033	29.20158
-703.12500	24.77832	-11.26912	10.37686	27.50019
-699.21875	26.18810	5.65714	1.92144	34.22531
-695.31250	22.24758	6.86921	1.52456	29.70206
-691.40625	8.77747	-5.61837	5.15701	18.59802
-687.50000	7.45366	-5.61515	9.99834	21.57819
-683.59375	22.85450	-2.38848	5.57219	25.79161
-679.68750	27.76149	-8.83215	-10.53878	23.91606
-675.78125	23.71048	-11.64935	-9.72665	22.38876
-671.87500	23.32907	-2.37866	0.35278	20.94926
-667.96875	26.81089	-0.76368	-1.65574	20.12393
-664.06250	27.75445	-9.62483	-4.87303	21.26208
-660.15625	22.78194	-2.36878	-23.80457	23.55493
-656.25000	28.35238	1.66382	-22.58949	25.46831
-652.34375	26.67581	-0.34756	2.39853	24.98242
-648.43750	21.28402	1.67039	5.62825	25.24819
-644.53125	21.36224	-6.38491	4.82868	26.42239
-640.62500	14.87869	-10.41094	1.20865	21.86749
-636.71875	20.84801	-4.36370	-8.85822	20.79426
-632.81250	19.61098	-1.94279	-9.65769	20.60598
-628.90625	15.05394	-1.53659	-8.44252	17.20909
-625.00000	16.98953	-3.95080	-5.61570	16.30949
-621.09375	15.33755	-8.78265	-4.80352	19.66957
-617.18750	12.86890	-0.31777	-7.61762	22.05350
-613.28125	9.37373	6.93829	-5.99953	19.48588
-609.37500	17.39135	-1.11701	-5.59019	18.57006
-605.46875	17.06912	-6.75472	-8.80724	16.72881
-601.56250	0.79559	-5.13959	-13.63598	14.95872
-597.65625	-1.23666	-10.37431	-14.03252	15.93937
-593.75000	4.41131	-11.98268	-8.78802	17.97623
-589.84375	5.73336	-4.32363	-11.60210	18.04539
-585.93750	0.26136	-7.54379	-12.40152	12.38597
-582.03125	-5.36793	-11.56980	-14.40973	8.55576
-578.12500	0.28042	-7.13424	-17.62671	11.71229
-574.21875	-2.94720	-7.13093	-10.77046	7.19373
-570.31250	-4.20629	-9.14225	-7.94350	7.16870
-566.40625	2.84509	-8.73600	-10.75747	11.35677
-562.50000	-9.58803	-11.15020	-12.36265	6.11993
-558.59375	-23.68445	-12.35567	-11.55027	-0.30096
-554.68750	-9.89523	-9.53186	-11.94670	-0.79238
-550.78125	-1.14786	-13.96079	-12.34309	-2.38308
-546.87500	-5.78847	-14.36032	-12.33658	-5.28304
-542.96875	-9.83774	-9.92477	-14.34466	-8.44843
-539.06250	-15.51787	-11.93613	-18.36743	-13.25253
-535.15625	-22.49353	-12.33570	-20.37546	-20.90979
-531.25000	-23.37620	-10.72065	-19.96578	-24.72457
-527.34375	-32.07502	-11.52318	-15.12397	-28.65840
-523.43750	-56.87366	-12.72870	-15.92325	-41.57857
-519.53125	-48.15409	-10.71078	-24.78110	-47.69198
-515.62500	-32.70028	-9.90165	-14.29835	-43.10493
-511.71875	-50.75408	-14.73351	-3.81567	-48.58856
-507.81250	-60.29130	-17.14784	-21.13521	-56.34389
-503.90625	-62.03712	-14.72694	-32.00790	-56.18202
-500.00000	-84.92746	-12.30603	-28.37509	-63.32254
-496.09375	-73.16813	-3.84123	-18.29533	-59.73898
-492.18750	-44.20676	17.11436	-12.24483	-45.38270
-488.28125	-65.04440	-1.41715	-8.20903	-50.45834
-484.37500	-79.30603	-36.87175	-0.14398	-59.89553
-480.46875	-48.87677	-17.93070	-37.20718	-42.81177
-476.56250	-50.43140	-11.07756	-29.94802	-44.63659
-472.65625	-62.57354	-19.93877	-1.33353	-56.62574
-468.75000	-66.07118	-12.27980	-19.05605	-51.69388
-464.84375	-64.74474	-9.85899	-3.73833	-46.65513
-460.93750	-41.53613	-4.61763	7.95304	-38.53025
-457.03125	-29.37485	1.02667	4.73595	-21.58306
-453.12500	-15.20769	-6.62577	6.75689	-11.01678
-449.21875	-27.90892	7.07713	-0.89247	-18.54750
-445.31250	-27.60420	17.95954	-10.15350	-9.59173
-441.40625	8.01761	1.84557	-4.90900	9.16824
-437.50000	-3.15888	-9.43320	-0.06742	11.02355
-433.59375	14.87410	-19.90616	7.59473	18.09246
-429.68750	38.96873	9.51106	-11.33666	27.62387
-425.78125	27.69896	23.21404	-26.64169	38.82190
-421.87500	34.11514	3.47377	-1.25081	38.24719
-417.96875	39.89159	-3.77569	9.23172	35.84954
-414.06250	38.13297	3.48033	12.46150	37.93538
-410.15625	49.94617	-7.39552	10.85606	41.28403
-406.25000	54.84284	-13.43618	-2.43430	49.04144
-402.34375	53.28703	2.68428	-15.72460	49.52786
-398.43750	43.35849	7.52274	-9.27135	49.66557
-394.53125	34.00384	17.59929	8.86677	44.86565
-390.62500	28.79346	13.57327	27.40793	48.21236
-386.71875	34.09717	-1.73478	8.87943	51.70369
-382.81250	36.93689	9.14763	-15.28996	36.98401
-378.90625	37.45556	7.13626	3.25124	27.48769
-375.00000	45.98727	-10.58942	18.97194	31.20846
-371.09375	21.03688	-2.52755	17.36658	35.50475
-367.18750	19.46722	0.69918	8.50852	36.34465
-363.28125	37.86183	-6.55030	-3.97602	37.70392
-359.37500	44.74371	3.12333	-4.77559	34.59099
-355.46875	33.37202	3.12664	-1.54596	32.00057
-351.56250	39.96640	-1.70524	-7.18065	38.20350
-347.65625	38.36344	8.37119	-1.13020	30.37348
-343.75000	29.08023	15.22422	0.08502	22.69594
-339.84375	44.26938	-6.93361	-6.75840	32.29766
-335.93750	35.62988	-9.34791	-23.27217	30.30186
-332.03125	15.86562	1.13160	-5.13385	22.44775
-328.12500	33.17561	1.13490	22.27183	24.93302
-324.21875	31.15657	-6.11457	15.42836	24.61728
-320.31250	30.39252	-11.75230	13.82300	29.07534
-316.40625	38.64404	12.82983	7.78530	28.91744
-312.50000	27.29599	16.86247	0.94169	34.96114
-308.59375	20.43176	1.95740	-9.52822	36.14506
-304.68750	24.76616	10.01931	-9.92469	28.57899
-300.78125	16.41324	-0.05070	7.40768	22.11200
-296.87500	25.47750	-16.97049	-1.85337	18.56589
-292.96875	38.78576	-3.67040	-3.45890	13.67371
-289.06250	27.93731	-2.86135	15.08213	18.47865
-285.15625	25.23419	-4.87283	19.52071	26.94249
-281.25000	15.63223	-10.10760	16.70654	25.51988
-277.34375	-1.06233	-10.91012	-7.86601	20.18690
-273.43750	26.14502	13.26888	-29.61789	35.52523
-269.53125	32.32523	9.64580	-0.60066	41.63923
-265.62500	12.43057	-6.46808	27.20768	11.66819
-261.71875	-1.75866	0.78804	17.94662	-2.99401
-257.81250	-6.73549	-7.67020	8.28261	7.17948
-253.90625	23.20695	-10.48746	3.45386	17.09145
-250.00000	22.71861	-2.02275	-2.98684	18.18866
-246.09375	3.29488	-1.21373	5.07795	10.97917
-242.18750	17.43863	-7.65729	9.91944	11.12886
-238.28125	20.13606	-14.50369	8.31383	13.78761
-234.37500	13.03405	-0.39777	-5.37955	13.95807
-230.46875	8.38402	10.88766	-18.66992	11.38040
-226.56250	4.28929	7.66754	-5.76983	2.72977
-222.65625	3.12630	-16.10193	6.32448	3.84059
-218.75000	-4.26362	-6.42827	-1.32496	3.74465
-214.84375	6.08656	1.23074	-10.58627	7.16800
-210.93750	12.68646	-15.68895	-15.41523	15.56388
-207.03125	20.26069	2.84927	-23.06475	22.39042
-203.12500	14.14405	12.52309	-15.40288	10.21325
-199.21875	-0.96514	-3.59053	4.34681	0.41874
-195.31250	-5.71026	0.84514	-1.28825	1.94009
-191.40625	-4.67372	-0.36046	-9.34068	-3.92547
-187.50000	14.15012	-10.02743	-17.39289	5.90472
-183.59375	17.46402	0.85527	-20.61011	16.16235
-179.68750	8.67239	-5.99116	-16.17175	11.86959
-175.78125	-8.27129	0.05590	-23.01544	-1.34254
-171.87500	-17.91926	8.52054	-29.45597	-6.40817
-167.96875	3.29228	-13.63748	-18.57050	3.64558
-164.06250	16.72760	-12.42544	-6.87914	7.20135
-160.15625	-0.33207	4.50091	-9.29044	4.25617
-156.25000	-7.65481	2.08648	-8.47823	5.76657
-152.34375	2.35401	-7.58076	-14.11274	4.87762
-148.43750	20.73560	-16.03913	-16.52390	20.45457
-144.53125	34.91680	-12.81265	-7.65295	33.31340
-140.62500	21.98672	2.50182	-8.04940	16.67019
-136.71875	15.06273	2.10194	-14.08678	10.35859
-132.81250	24.30241	0.89616	-16.49779	15.81118
-128.90625	32.63951	3.71969	-17.29705	21.68159
-125.00000	41.42538	6.14018	-19.70807	30.04920
-121.09375	42.19146	4.93442	-19.29852	32.60303
-117.18750	40.12616	4.53461	-18.48613	31.76310
-113.28125	46.30165	6.14937	-20.89721	28.79213
-109.37500	39.41105	4.13782	-21.69653	32.71104
-105.46875	51.57997	-4.72352	-20.48113	43.76318
-101.56250	55.05043	0.11463	-24.50386	39.57513
-97.65625	47.78038	7.37034	-26.91508	32.49688
-93.75000	47.38472	0.52364	-22.07346	33.32483
-89.84375	50.31898	-1.89086	-20.85822	32.58794
-85.93750	46.45921	2.94733	-23.26925	24.91366
-82.03125	31.56290	-4.70522	-22.05391	23.50070
-78.12500	36.40572	-5.10512	-20.83868	29.47722
-74.21875	37.20762	2.95645	-20.02637	26.56979
-70.31250	30.30771	-6.30791	-22.43752	25.33546
-66.40625	32.12123	-11.94577	-24.04258	30.73174
-62.50000	30.56736	-1.06354	-16.78315	26.70325
-58.59375	19.69448	2.56599	-15.56774	16.65544
-54.68750	10.91964	-2.26611	-20.39629	12.13418
-50.78125	5.16165	-3.87462	-21.59847	10.94572
-46.87500	15.83257	-3.06561	-21.59184	16.90960
-42.96875	19.43884	-5.88294	-19.97352	20.19022
-39.06250	11.74396	-7.08855	-16.34053	16.19118
-35.15625	14.03558	-5.87661	-13.11035	21.02403
-31.25000	7.10908	-10.30575	-14.71550	22.84980
-27.34375	-1.58943	-11.91432	-15.91780	14.48342
-23.43750	2.62320	-9.49362	-18.32882	13.24782
-19.53125	6.10493	-10.29627	-18.72511	15.99849
-15.62500	8.66528	-8.27836	-17.10682	23.00274
-11.71875	9.95239	-11.09562	-15.48846	27.99486
-7.81250	5.65350	-16.33051	-23.94328	23.46262
-3.90625	-0.12127	-7.86567	-28.77190	21.60942
0.00000	-1.25280	-1.41549	-16.27449	19.30369
3.90625	-3.59548	-1.00941	-11.43267	11.20226
7.81250	1.19059	-5.84136	-9.00846	9.03833
11.71875	6.94698	-19.53777	-14.64278	13.63295
15.62500	5.98277	-14.69935	-17.85964	12.65737
19.53125	2.96949	-3.81693	-11.80911	9.99767
23.43750	3.02732	-7.84302	-9.78781	11.39628
27.34375	0.95921	-5.42222	-10.98992	13.91270
31.25000	-2.13461	-2.59848	-10.58029	15.21839
35.15625	-6.44840	-8.23627	-12.58833	7.76644
39.06250	-13.45866	-6.21840	-17.01396	-1.03163
42.96875	-11.77276	-1.78294	-13.78396	0.60432
46.87500	-7.67796	-3.39146	-14.18048	3.91803
50.78125	-6.27567	-5.80590	-18.20329	8.07260
54.68750	-14.83453	-10.23501	-13.76458	7.35828
58.59375	-16.28130	-13.45534	-12.14638	5.16629
62.50000	-10.53361	-9.01995	-13.34856	4.60445
66.40625	-17.07844	-8.61387	-16.96839	1.60047
70.31250	-13.53230	-7.80490	-18.57350	3.47656
74.21875	-9.89255	-4.57827	-14.53773	4.19878
78.12500	-14.75751	-6.99272	-16.14301	5.23589
82.03125	-10.99493	-7.79544	-14.92770	7.67367
85.93750	-11.14099	-6.98649	-6.45971	3.71583
89.84375	-15.84726	-6.17756	-0.40912	0.21483
93.75000	-19.41139	-10.60667	-0.40250	-4.51848
97.65625	-18.54881	-15.84170	-3.21656	-2.42016
101.56250	-19.20924	-10.19757	-6.43364	-2.68524
105.46875	-23.32492	-6.97090	-2.39798	-6.67917
109.37500	-20.47593	-7.37064	2.44359	-4.94412
113.28125	-24.03601	-7.77039	1.24111	-10.31714
117.18750	-36.50685	-10.58777	-0.36441	-18.58981
121.09375	-44.85196	-10.18181	-2.77551	-22.84828
125.00000	-52.83976	-13.40214	-9.21585	-33.23018
128.90625	-53.61371	-19.04001	-7.19485	-43.43948
132.81250	-39.87147	-17.02226	-12.02373	-44.21136
136.71875	-34.77305	-10.97524	-7.18220	-38.01701
140.62500	-55.28982	-6.13704	4.91210	-45.56227
144.53125	-73.10798	-8.14858	-17.24266	-64.27008
148.43750	-68.12500	-19.42749	-34.15928	-69.34950
152.34375	-76.17431	-19.02140	-21.25918	-76.77676
156.25000	-89.08336	-4.91573	10.98158	-88.48376
160.15625	-103.30748	-14.58294	22.26997	-101.04335
164.06250	-104.69366	-19.01200	6.56203	-97.39832
167.96875	-106.32542	-10.54735	7.37432	-88.73251
171.87500	-116.81724	-13.36484	10.60416	-100.35006
175.78125	-93.45114	-7.72072	-36.12938	-81.72839
179.68750	-81.72387	-31.89350	-40.95820	-67.19736
183.59375	-93.21552	-33.90511	13.44382	-83.06975
187.50000	-85.62540	6.79394	3.77985	-75.41470
191.40625	-81.61006	0.35016	8.21845	-69.79893
195.31250	-84.12496	-15.36103	29.17715	-71.32137
199.21875	-65.07790	-6.49345	19.11023	-56.43307
203.12500	-54.80418	-4.47572	5.01409	-44.26484
207.03125	-52.77717	-4.87559	-7.06745	-35.86040
210.93750	-32.19626	1.17145	-18.74608	-15.74412
214.84375	-23.21366	7.21849	-16.72502	-6.47427
218.75000	-17.10059	12.45965	-4.63069	-4.27040
222.65625	4.88697	-3.65444	-0.19204	8.12555
226.56250	5.50186	-15.73923	-1.79734	6.54086
230.46875	-0.00223	4.81324	-5.41729	2.98462
234.37500	-4.58480	18.11297	-7.82843	7.26264
238.28125	-7.89433	17.31024	-6.21025	5.09110
242.18750	-6.42363	12.88114	-8.62143	5.59407
246.09375	1.35802	7.24321	-19.49407	11.87944
250.00000	1.27296	4.82876	-4.17629	12.97621
253.90625	-0.42157	3.62306	11.14147	8.58677
257.81250	3.24611	4.43203	-15.84845	9.13890
261.71875	5.13776	1.61465	-13.02148	11.39402
265.62500	5.28851	4.03534	6.72852	10.75791
269.53125	-1.77907	4.44134	7.13796	15.02943
273.43750	-4.66495	-2.80827	-6.95810	16.45134
277.34375	-4.61921	0.41830	-17.83076	8.29387
281.25000	-1.93600	7.67415	-4.52756	5.77943
285.15625	-2.46511	8.48309	12.40202	8.79908
289.06250	-3.11814	9.29209	7.97625	10.34426
292.96875	14.12595	12.92152	-1.68755	17.16964
296.87500	13.64992	12.92461	6.78046	18.28809
300.78125	10.62841	4.46615	2.75769	16.14815
304.68750	13.13570	-1.57474	-8.92069	19.68291
308.59375	8.12815	-0.76581	-2.46730	17.03981
312.50000	7.20829	10.11645	9.22424	11.55786
316.40625	7.70168	15.76054	18.09531	9.32372
320.31250	0.52151	18.18123	7.62570	10.26805
324.21875	1.30647	10.12573	-0.82929	11.56049
328.12500	15.02836	5.69657	4.01242	13.74672
332.03125	15.28757	9.72895	0.79555	14.12950
335.93750	1.32365	2.88223	8.45781	6.40244
339.84375	1.59022	-5.97916	17.73182	3.45662
343.75000	20.86134	4.09727	6.05348	13.83101
347.65625	17.97688	14.57653	-7.63953	18.58279
351.56250	8.55683	8.53565	2.03750	11.99843
355.46875	6.21863	7.73282	14.53509	5.91949
359.37500	-3.08434	5.31826	12.93014	0.96129
363.28125	-2.75489	8.54479	9.71339	1.09660
367.18750	7.29153	5.32444	6.89951	1.71403
371.09375	7.57111	3.31287	0.45933	1.13770
375.00000	8.29934	6.53940	-3.16041	3.86448
378.90625	9.06655	8.55717	-10.00357	11.65674
382.81250	-3.47367	-1.91594	-8.78814	5.17646
386.71875	-6.16138	-11.58317	14.18549	-3.83784
390.62500	-7.40958	-5.53615	19.02732	-5.96236
394.53125	-6.52114	3.33136	4.93131	-5.78865
398.43750	-4.25806	5.34907	1.71449	-4.73801
402.34375	-3.87111	-2.30351	10.98845	-2.54831
406.25000	5.00180	2.53466	0.11586	6.33872
410.15625	12.36948	10.59626	-16.39774	10.84031
414.06250	10.92850	3.74947	1.33775	8.80766
417.96875	2.88332	-9.14129	17.46145	7.79813
421.87500	-0.73425	-3.90013	16.25919	4.91075
425.78125	2.88941	15.44362	2.96890	4.42144
429.68750	-2.39759	8.59685	-2.26276	-0.43875
433.59375	-9.44742	-4.29382	12.65213	-8.74181
437.50000	-6.97090	-1.47027	1.37650	-10.75543
441.40625	-5.35185	8.60598	-7.88448	-3.47693
445.31250	-2.44069	11.42953	-10.29565	-1.95406
449.21875	-13.43583	3.37386	1.39578	-11.20082
453.12500	-21.29889	-0.24949	14.69890	-13.69820
457.03125	0.44022	6.60333	3.02032	2.07362
460.93750	6.84903	11.03853	3.42973	10.96873
464.84375	-6.16954	9.83267	10.28600	0.08757
468.75000	-10.27472	3.38881	3.84562	-7.75689
472.65625	-6.07859	-3.45799	2.64327	-1.21488
476.56250	-3.07387	-3.05205	1.44091	5.20523
480.46875	-0.80010	-0.63153	-10.64053	6.74709
484.37500	-12.34160	3.40077	-2.17259	2.87225
488.28125	-11.85945	2.19498	3.07200	-7.04389
492.18750	2.37741	3.40665	-8.60644	1.31768
496.09375	1.84159	10.66234	-2.95896	7.52333
500.00000	-5.73605	5.83011	3.09150	-2.84074
503.90625	-5.66018	2.20669	8.33612	0.74278
507.81250	5.17065	-1.41676	13.17783	7.84622
511.71875	7.70427	1.40673	13.18431	8.00864
515.62500	-3.33254	11.88594	6.74388	3.80954
519.53125	-10.77729	1.81559	4.73573	-6.90877
523.43750	-3.46607	-10.67228	3.93636	-7.12184
527.34375	-0.29534	-5.02821	-0.08654	-1.38199
531.25000	9.50529	9.48022	1.93465	5.56467
535.15625	1.16310	11.09478	0.32940	7.78317
539.06250	-8.26396	10.29187	0.73888	4.22334
542.96875	4.70468	15.12998	1.55125	3.03887
546.87500	3.15898	7.88014	1.96074	3.53197
550.78125	9.79985	7.48012	1.56431	3.65714
554.68750	16.15004	10.70658	-0.04091	8.18080
558.59375	12.68911	4.66567	2.78616	18.07636
562.50000	24.07815	1.44518	6.01616	30.00500
566.40625	24.78669	3.86561	3.60516	20.55402
570.31250	11.81325	8.70368	0.38827	5.50689
574.21875	25.52670	5.08028	1.20070	24.36068
578.12500	40.00309	1.85964	-0.80725	35.47104
582.03125	44.57209	3.47429	-2.00937	41.53505
585.93750	51.67936	5.89485	-0.39094	54.09714
589.84375	55.43542	4.28613	0.01859	59.05755
593.75000	63.15397	0.66273	1.63691	64.39744
597.65625	66.83766	5.09785	-1.58001	56.01951
601.56250	66.17796	3.89189	-3.58816	54.94844
605.46875	63.27167	-0.94030	0.04465	59.81897
609.37500	54.43651	-4.56380	2.46875	54.30134
613.28125	47.25096	-4.15797	0.86358	52.15183
617.18750	42.83939	-2.14040	0.06414	51.13200
621.09375	46.98593	-4.95800	-0.33228	53.32064
625.00000	44.23696	-4.55218	-1.13166	53.41506
628.90625	46.68711	0.68890	0.48648	51.66744
632.81250	52.37160	-2.12870	1.29870	51.70162
636.71875	44.98007	-6.55808	0.09628	43.39066
640.62500	36.14903	-4.54056	-1.91197	39.06900
644.53125	32.43410	-4.13474	-4.32316	38.49312
648.43750	28.95636	-3.32600	-3.91384	37.84607
652.34375	36.21927	-2.51729	-3.10153	38.47762
656.25000	33.78722	-1.70863	-5.91574	34.02345
660.15625	20.36970	-4.12327	-9.13288	27.50787
664.06250	19.38720	-6.13495	-9.12668	22.69158
667.96875	20.57672	-4.11740	-7.10584	19.67256
671.87500	21.77074	-3.71164	-6.29362	18.53127
675.78125	18.14112	-3.70875	-6.28726	19.42405
679.68750	14.96072	-6.12350	-6.68388	17.03206
683.59375	11.52855	-6.52366	-10.30398	13.65067
687.50000	8.24032	-7.72954	-7.47728	12.44143
691.40625	11.85362	-7.72657	-3.44183	11.20756
695.31250	12.16001	-7.32066	-5.45035	12.50564
699.21875	7.43489	-15.37629	-3.42952	12.48555
703.12500	5.21863	-22.22321	0.60593	10.14830
707.03125	5.23179	-18.59391	1.41791	6.46483
710.93750	7.27860	-10.12946	1.02112	6.03175
714.84375	6.59167	-4.88848	3.04178	12.07822
718.75000	10.69098	-1.25927	-5.41378	14.68506
722.65625	7.29481	-2.86808	-9.84000	10.15814
726.56250	5.49291	-6.08861	5.47733	5.75322
730.46875	-2.83070	-7.69743	8.30382	0.98837
734.37500	-5.80073	-10.91796	0.65410	3.25191
738.28125	2.57554	-10.91511	-0.95151	9.13918
742.18750	-6.42921	-12.92687	6.71011	6.41899
746.09375	2.56228	-13.72976	11.14828	6.66079
750.00000	13.35737	-4.45946	14.37768	10.17555
753.90625	7.23148	-4.45662	9.95125	3.36884
757.81250	15.33214	-12.51233	-10.18943	3.11531
761.71875	14.00103	-9.28604	-15.01874	5.77361
765.62500	2.06452	-3.23931	7.14833	-3.32391
769.53125	0.23552	-5.65410	15.61573	-4.29049
773.43750	7.42340	2.40746	0.31016	5.59292
777.34375	3.03741	2.81319	-0.08699	4.68832
781.25000	-5.56103	-20.15110	19.25937	-7.49648
785.15625	-8.91023	-23.37174	21.68269	-12.53538
789.06250	-10.77150	-0.40186	12.01790	-12.19883
792.96875	-1.18246	7.25663	-4.89954	-2.95572
796.87500	-3.26956	5.64759	-17.38464	-0.22541
800.78125	-14.75195	5.24744	5.18522	-5.58864
804.68750	-9.02046	-1.59964	21.71110	-10.51509
808.59375	-8.78918	-6.83497	9.22590	-15.97842
812.50000	2.78265	1.22650	-9.70614	-7.35747
816.40625	25.43804	6.06454	-11.31211	23.04619
820.31250	6.57395	1.23228	17.70434	17.54404
824.21875	-15.60705	0.02635	19.32142	-14.60629
828.12500	-24.04519	-6.82064	1.19505	-24.50746
832.03125	-41.91681	-8.02650	6.43866	-34.60047
835.93750	-45.00071	-12.05307	0.80340	-34.26867
839.84375	-55.61254	-15.67663	-6.44350	-43.25835
843.75000	-68.17216	-8.42106	10.08217	-59.07412
847.65625	-69.04108	-19.70026	12.90811	-63.18668
851.56250	-72.01332	-14.86221	8.07850	-70.97978
855.46875	-71.53032	3.67546	10.90462	-67.79134
859.37500	-74.38555	7.70765	6.88108	-63.07919
863.28125	-64.78794	0.86073	6.08109	-60.12338
867.18750	-52.72623	2.47538	16.16021	-48.22399
871.09375	-37.94057	6.91047	5.68999	-35.10098
875.00000	-34.79434	-3.56299	-10.42119	-40.03027
878.90625	-46.11455	-3.15735	-6.78893	-45.93801
882.81250	-44.14887	1.27764	12.15472	-42.74835
886.71875	-30.71892	8.13018	9.34016	-33.22825
890.62500	-35.59310	13.77396	2.09341	-32.53262
894.53125	-40.74837	2.09169	16.60502	-35.98582
898.43750	-25.59130	-4.75531	19.43165	-30.50351
902.34375	-27.21871	0.88847	15.81146	-29.12012
906.25000	-26.00101	1.69703	11.78835	-30.30672
910.15625	-16.21531	8.54961	7.36226	-21.37324
914.06250	-19.26763	9.35825	6.15954	-16.95953
917.96875	-20.86555	4.12294	6.56866	-25.62523
921.87500	-7.55961	0.49928	8.99247	-21.66328
925.78125	4.92897	7.75476	4.16360	-7.64747
929.68750	0.44819	7.75754	-7.11218	-11.29927
933.59375	-8.61591	2.52227	0.14688	-11.14102
937.50000	-13.79466	3.73373	13.85279	-9.12570
941.40625	-13.38403	4.54235	17.48524	-9.10022
945.31250	-7.24890	7.36555	0.97124	-6.77168
949.21875	-7.76737	6.15955	-6.67822	-5.13958
953.12500	-12.80934	5.75942	6.22185	-4.41384
957.03125	-6.78409	2.13583	4.61646	-5.16256
960.93750	-4.40399	-0.68198	7.44327	-5.13220
964.84375	-12.58673	-4.30564	13.49357	-9.96939
968.75000	-1.37980	-3.09405	4.23265	-2.09956
972.65625	10.06985	6.98193	-2.20781	3.23386
976.56250	-9.08577	4.96998	-4.21605	-6.06020
980.46875	-13.66098	0.54042	-6.22428	-8.14461
984.37500	-4.24911	3.36372	6.27301	-6.37819
988.28125	1.87503	14.24567	7.48821	3.04662
992.18750	-2.42184	13.84552	5.47970	-0.27632
996.09375	-14.64143	1.35739	15.15615	-14.61968
1000.00000	-13.75637	-5.48968	5.08925	-15.71581
1003.90625	-10.45624	-4.27816	0.26049	-14.14651
1007.81250	-11.71236	-3.87246	13.96640	-12.68369
1011.71875	-3.53667	4.18888	-0.93575	-2.85058
1015.62500	4.76799	19.09999	-0.92933	1.81505
1019.53125	-11.54052	11.04399	7.13555	-9.70898
1023.43750	-23.16616	-9.90566	5.12711	-17.17462
1027.34375	-22.81513	-11.91770	3.52163	-17.88146
1031.25000	-14.62528	10.64915	13.19816	-14.15804
1035.15625	4.43251	28.38073	12.39857	0.14842
1039.06250	3.87048	7.43093	-10.15931	0.61789
1042.96875	-0.48603	-10.29534	-4.51193	-9.43093
1046.87500	-6.86603	3.40700	28.93760	-9.34065
1050.78125	-6.26824	3.00684	37.00244	-4.38032
1054.68750	-5.55827	1.80080	27.74113	0.14334
1058.59375	-8.21252	8.25029	17.27115	-4.46632
1062.50000	-12.13377	10.67041	9.62157	-16.71332
1066.40625	-10.61855	9.06128	5.59841	-14.88229
1070.31250	-1.02720	7.04939	-10.51266	-5.35074
1074.21875	5.03118	-12.69147	8.83432	2.62383
1078.12500	8.22585	-3.01853	8.03461	8.49579
1082.03125	10.37786	30.02433	-14.92617	8.91859
1085.93750	3.78601	24.78884	5.62950	-1.48646
1089.84375	-6.15698	9.88320	14.50001	-12.24034
1093.75000	-17.77840	3.84201	17.72948	-13.75032
1097.65625	-10.46760	-2.19925	25.79432	-3.59361
1101.56250	8.61682	5.45900	14.92155	6.61727
1105.46875	5.71110	17.95242	10.49545	0.60851
1109.37500	-3.52637	12.71700	12.11331	-10.55025
1113.28125	-18.76993	8.28742	-5.60942	-22.77319
1117.18750	-33.65713	8.69298	-6.00618	-37.08985
1121.09375	-23.46593	15.14232	3.67027	-41.75113
1125.00000	-28.22880	19.57705	-1.56174	-46.08904
1128.90625	-42.29802	11.11818	2.87668	-53.88064
1132.81250	-36.61277	11.52397	15.37367	-46.59374
1136.71875	-29.49807	16.76485	0.87427	-37.57875
1140.62500	-23.82301	21.60265	-11.61053	-29.40961
1144.53125	-24.31361	21.20235	10.95959	-28.37382
1148.43750	-25.77591	13.14627	18.21844	-33.85590
1152.34375	-12.46847	14.76074	3.71897	-27.58339
1156.25000	-5.22960	21.21029	-5.54235	-12.69691
1160.15625	-4.54386	27.65974	-18.83294	-3.09531
1164.06250	-7.54022	29.27410	-4.72408	-11.94105
1167.96875	-10.37929	15.17395	40.00743	-18.98944
1171.87500	-8.78150	5.50626	36.79009	-12.87786
1175.78125	-11.20147	5.91187	15.44088	-11.58189
1179.68750	-13.57529	10.74974	13.02949	-16.39142
1183.59375	-14.18630	18.00518	13.03562	-18.56408
1187.50000	-6.59475	19.61959	8.60943	-16.54996
1191.40625	3.86897	22.84577	7.00370	-7.30765
1195.31250	9.01117	15.59570	11.03899	0.43741
1199.21875	7.51027	18.82181	0.97186	2.43201
1203.12500	11.74151	13.98932	-21.58609	10.57087
1207.03125	13.76990	1.50117	-1.43344	10.11090
1210.93750	1.71484	6.33906	30.40409	-1.60431
1214.84375	-13.07395	15.20614	29.60425	-9.25746
1218.75000	-5.75055	23.26737	16.31353	-10.67993
1222.65625	11.80640	22.46407	7.85799	0.10446
1226.56250	10.81113	18.03456	11.49040	4.56391
1230.46875	2.48799	7.96387	22.37569	-3.42454
1234.37500	3.14504	14.01040	3.44411	-8.01089
1238.28125	14.74561	22.07151	1.03256	1.09985
1242.18750	10.17387	14.01538	19.17046	3.21482
1246.09375	5.46639	13.21203	24.81754	5.47119
1250.00000	-1.06372	3.94726	16.36205	6.97120
1253.90625	-17.26183	-0.88522	16.77103	-11.52036
1257.81250	-12.78651	6.37020	24.43290	-14.59417
1261.71875	-8.47560	12.81975	18.39516	-7.90641
1265.62500	0.54140	24.10442	5.10459	1.93404
1269.53125	16.44235	17.66008	1.08131	12.65260
1273.43750	13.15494	8.39520	18.01048	12.05995
1277.34375	-0.09416	14.03879	30.10454	1.48519
1281.25000	-6.67643	17.26474	23.66376	-5.46111
1285.15625	-11.63604	15.65548	16.41712	-6.47035
1289.06250	-6.64626	11.22574	17.22911	-5.73057
1292.96875	2.54111	10.82533	17.63830	-0.91943
1296.87500	9.31971	18.88641	9.98881	10.27272
1300.78125	11.94113	17.27728	1.13032	15.78885
1304.68750	3.16824	5.59482	7.58319	7.23607
1308.59375	-5.86692	6.80609	16.05103	-1.85377
1312.50000	-13.63477	14.86715	14.44571	-7.33546
1316.40625	-19.58644	12.04897	5.99034	-5.13706
1320.31250	-15.48265	10.03665	3.17596	-0.16318
1324.21875	-17.11327	16.08325	6.40564	4.75587
1328.12500	-15.88018	17.69762	8.02373	6.13634
1332.03125	2.10991	12.46217	10.85041	5.31049
1335.93750	5.87667	11.25595	12.46835	4.83626
1339.84375	4.53335	14.88478	6.43052	7.12857
1343.75000	-5.60766	12.06675	8.04845	3.80332
1347.65625	-20.98116	5.62232	12.48679	-6.75625
1351.56250	-12.67043	3.61015	7.65778	-9.71436
1355.46875	-3.32201	2.80683	-2.00626	-5.31725
1359.37500	0.27050	7.64452	-7.64113	-4.23161
1363.28125	11.07785	11.67633	-1.18801	1.54465
1367.18750	14.67904	8.05243	10.50338	1.35610
1371.09375	7.30450	13.69601	-4.39862	-1.63806
1375.00000	14.07804	18.53371	-6.80991	5.92355
1378.90625	10.01149	-0.40135	1.25487	0.01595
1382.81250	-10.98894	-11.27784	-1.15655	-15.32911
1386.71875	-17.70455	3.63324	14.56389	-18.29978
1390.62500	1.59815	15.72378	19.00222	-10.35118
1394.53125	12.96411	20.96443	15.78491	-1.71629
1398.43750	33.36047	19.75806	5.31504	20.68937
1402.34375	36.97225	6.86678	-0.72264	26.10230
1406.25000	9.18003	-1.59227	4.11888	-3.28931
1410.15625	-4.40326	1.23077	4.93102	-19.33741
1414.06250	3.42445	5.26265	-19.23853	-11.70016
1417.96875	10.69188	15.74141	-8.75608	-1.42801
1421.87500	12.71676	12.11760	23.88757	2.53410
1425.78125	24.40026	3.65863	21.47623	10.50606
1429.68750	19.92044	6.88466	8.58865	8.06331
1433.59375	5.61937	3.26082	6.58020	-3.06029
1437.50000	6.08266	-7.61574	15.04801	-6.28279
1441.40625	7.30028	-0.36047	3.36933	-8.67478
1445.31250	-15.17153	15.35641	-18.38276	-20.04575
1449.21875	-18.50947	4.07703	4.18768	-24.05453
1453.12500	1.43141	-5.99359	2.17930	-20.91095
1457.03125	5.84608	2.06756	-21.18452	-9.97442
1460.93750	5.80949	0.86136	7.02679	-5.51160
1464.84375	9.71544	1.66990	27.58241	-7.12545
1468.75000	16.08804	3.68697	27.99151	-1.67322
1472.65625	1.75073	2.48059	12.28334	-12.45720
1476.56250	-0.88425	14.57108	-1.00720	-13.69282
1480.46875	10.25552	14.17081	-4.22442	-3.68934
1484.37500	1.53622	1.68261	-5.02401	-7.56415
1488.28125	8.86961	14.57894	5.86132	-2.57191
1492.18750	22.30206	26.66944	21.98476	2.96915
1496.09375	15.72387	-3.14494	28.03490	-1.70430
1500.00000	0.89503	-14.42447	27.63812	-10.45662
1503.90625	-13.93619	2.90418	24.82385	-18.55799
1507.81250	-5.52129	12.17412	19.99495	-12.66319
1511.71875	7.49028	17.41466	4.28681	-4.44196
1515.62500	12.16940	12.98491	5.90473	-4.20868
1519.53125	12.78481	4.92884	18.80483	-5.25653
1523.43750	20.90355	0.90197	21.22862	2.58918
1527.34375	30.52280	5.73968	16.80263	11.14967
1531.25000	26.62531	9.77153	6.73552	13.66420
1535.15625	7.80849	6.14770	8.35344	5.80955
1539.06250	2.41236	8.16501	21.25333	1.84683
1542.96875	18.60616	21.46439	22.87127	5.49769
1546.87500	32.77658	19.04931	24.48917	8.40866
1550.78125	39.01637	13.41080	16.83972	14.57814
1554.68750	38.92145	14.62219	9.19023	19.10209
1558.59375	39.49163	5.76029	10.00245	18.11902
1562.50000	33.15362	13.41846	3.15903	14.33371
1566.40625	21.37292	20.27079	15.25313	8.50918
1570.31250	15.25102	9.39418	19.28849	-2.50844
1574.21875	13.25194	13.02313	13.25061	-7.83014
1578.12500	1.94231	4.96699	10.83917	-13.64269
1582.03125	9.73666	8.99880	10.84530	-12.01069
1585.93750	29.33671	18.26870	5.21054	5.38700
1589.84375	30.27421	4.97445	3.20191	7.93045
1593.75000	17.04231	-1.47006	14.08716	-4.05523
1597.65625	16.29555	5.38217	-0.41195	-1.95669
1601.56250	35.78389	9.81684	-12.09098	10.26928
1605.46875	33.28214	11.83388	7.25561	8.29007
1609.37500	16.38986	17.07450	18.94663	-5.28595
1613.28125	16.45863	13.85353	15.32605	-7.43534
1617.18750	22.92766	9.82673	1.63228	0.00621
1621.09375	19.41982	7.81459	8.48808	-0.22274
1625.00000	24.32804	13.05497	8.09111	4.30411
1628.90625	27.98845	15.87775	2.05312	6.98878
1632.81250	27.22733	5.80685	-0.76140	5.00805
1636.71875	22.25475	7.01796	-2.36707	0.32329
1640.62500	10.60456	7.82612	12.54754	-6.41620
1644.53125	2.45893	6.21669	17.38866	-11.42442
1648.43750	3.41467	11.05425	11.35050	-13.68329
1652.34375	16.31983	7.83323	6.92413	-4.99326
1656.25000	15.90370	8.23858	8.13881	-7.43290
1660.15625	17.39582	15.49366	6.53306	0.95988
1664.06250	33.33767	9.85489	19.83589	20.31926
1667.96875	19.62005	13.88641	35.55629	2.39163
1671.87500	5.90680	16.70915	26.29497	-18.09045
1675.78125	11.94862	14.29381	16.63059	-12.36260
1679.68750	17.63391	13.89313	13.41298	-8.71067
1683.59375	16.62051	14.29838	0.12212	-12.89808
1687.50000	15.34815	9.46542	-10.34801	-11.68982
1691.40625	25.00637	8.25890	8.99883	-2.85077
1695.31250	19.67280	15.91684	8.60211	-7.19390
1699.21875	22.60451	29.61872	-10.73238	-6.40834
1703.12500	41.74463	30.82967	-9.11443	12.20664
1707.03125	30.87983	15.52054	5.39739	12.55237
1710.93750	10.36360	18.34346	19.10324	-2.38636
1714.84375	17.33340	29.62783	20.31814	0.83940
1718.75000	22.64247	15.93043	9.04216	9.48996
1722.65625	20.85912	-8.64609	7.83955	2.14239
1726.56250	23.89341	9.08510	2.20467	2.57236
1730.46875	22.82347	29.23377	4.62852	7.07465
1734.37500	15.01944	21.58038	7.85815	2.89111
1738.28125	5.26508	7.48009	16.72870	-3.30970
1742.18750	-1.32101	2.24422	32.44914	-1.59784
1746.09375	6.05967	12.31975	24.79966	1.46422
1750.00000	18.87042	8.29276	17.15019	-4.69167
1753.90625	20.40146	5.87767	20.37989	2.20105
1757.81250	19.23612	18.37071	13.53630	10.40908
1761.71875	22.74157	9.91132	5.88681	10.24686
1765.62500	12.82123	3.46673	8.71346	7.59637
1769.53125	19.05236	15.95989	16.37527	5.42115
1773.43750	29.86809	11.93298	16.78429	10.06666
1777.34375	26.28955	6.69722	0.27018	11.98271
1781.25000	26.55728	17.57865	-1.33525	6.64798
1785.15625	20.79213	21.20720	11.16201	8.05616
1789.06250	23.76752	24.83580	25.27079	14.43677
1792.96875	19.25558	10.73545	26.08275	5.95120
1796.87500	11.93190	-5.37948	19.64192	-0.18283
1800.78125	17.37399	7.91946	16.42462	-2.32245
1804.68750	19.07768	12.35396	13.20737	1.21279
1808.59375	16.89282	7.92396	8.78118	5.82291
1812.50000	17.18404	11.55245	7.17547	4.77362
1816.40625	21.70903	14.37521	7.98746	6.97236
1820.31250	23.39566	15.58627	5.17306	5.49967
1824.21875	19.34775	13.97688	3.56749	2.36044
1828.12500	21.78997	11.96456	3.57360	2.53266
1832.03125	26.08080	13.17569	10.02660	7.34823
1835.93750	25.41578	12.37219	6.40626	8.08310
1839.84375	18.83456	3.10723	6.41230	6.34637
1843.75000	22.79623	4.72127	7.62714	8.66246
1847.65625	29.58415	17.21434	2.39515	7.37041
1851.56250	23.38952	17.21658	3.61000	4.41253
1855.46875	14.20331	8.75731	0.79543	-3.68099
1859.37500	10.94608	5.13319	3.62188	-7.43047
1863.28125	12.08317	7.55295	3.22496	-2.86298
1867.18750	16.49015	5.94352	7.26032	-2.64857
1871.09375	19.59175	1.91658	10.48975	2.41580
1875.00000	15.08329	4.33643	2.03410	2.32171
1878.90625	7.79327	1.51812	-1.58633	-4.39186
1882.81250	10.16283	-0.09126	4.46355	-5.23148
1886.71875	5.05898	3.13456	4.46945	-8.20229
1890.62500	8.24444	10.79247	-1.16562	-9.52138
1894.53125	13.16346	4.75068	-5.99481	-5.31881
1898.43750	13.41310	-1.29113	0.45809	-1.04513
1902.34375	17.42773	5.15799	9.32845	-5.70565
1906.25000	4.54378	4.75731	11.34913	-13.74213
1910.15625	-27.57433	2.74487	14.17571	-16.09068
1914.06250	-18.94066	-0.47634	6.92901	-22.95894
1917.96875	-10.06147	-2.08579	3.30860	-35.25101
1921.87500	-34.22715	-6.51584	-1.52039	-41.76514
1925.78125	-27.37883	-16.18400	-14.81092	-40.24022
1929.68750	-19.36791	-8.92904	-9.16401	-35.43040
1933.59375	-21.58141	1.14653	3.33265	-36.48100
1937.50000	-28.37123	11.22208	-6.33178	-38.09204
1941.40625	-33.19796	22.90918	-13.17575	-34.84316
1945.31250	-51.64093	4.37670	3.75322	-59.91394
1949.21875	-75.12568	-22.21438	8.99725	-80.04012
1953.12500	-77.34636	-25.03264	6.18264	-65.61472
1957.03125	-56.41182	0.35421	3.77090	-60.31937
1960.93750	-43.15197	14.05612	-4.68472	-55.05091
1964.84375	-29.17299	29.36971	-1.05243	-37.72714
1968.75000	5.80728	3.18146	31.59072	-23.00778
1972.65625	3.15473	-4.47203	34.82008	-24.12167
1976.56250	-32.92357	15.27389	20.72351	-26.96910
1980.46875	-36.69252	0.77064	24.75879	-18.17463
1984.37500	5.76004	-4.86818	15.90030	-12.78217
1988.28125	8.66105	-10.90989	15.10034	-11.01348
1992.18750	26.12246	4.40367	11.88269	-2.24919
1996.09375	49.36077	12.86736	3.02403	12.41776
2000.00000	43.39614	20.52522	7.46200	28.24401
2003.90625	47.90543	28.98904	16.33235	28.20105
2007.81250	42.21749	18.51505	19.96455	19.99308
2011.71875	35.08220	13.27914	21.98504	18.94659
2015.62500	31.70242	-4.44760	19.97619	13.53861
2019.53125	23.45311	-21.77139	12.32632	17.32569
2023.43750	34.39220	-12.90469	6.69107	32.02098
2027.34375	46.02595	-4.03795	7.50275	44.61066
2031.25000	22.38485	-2.82703	13.55262	42.28982
2035.15625	58.76918	1.20447	11.94671	42.49339
2039.06250	75.53391	10.07121	14.37012	48.20074
2042.96875	47.40502	1.61190	15.18180	35.33126
2046.87500	45.86074	-18.93541	14.38178	25.75107
2050.78125	45.65318	-22.55961	10.76116	29.90545
2054.68750	39.51397	11.69172	-0.11215	34.02614
2058.59375	32.02514	27.00531	-1.31519	24.98401
2062.50000	40.59512	9.27856	1.51107	21.60125
2066.40625	31.23178	-1.59837	20.45463	14.56764
2070.31250	21.48333	-13.68405	30.53367	16.04064
2074.21875	22.70752	-16.09942	28.52473	26.83598
2078.12500	35.97659	-11.26213	22.88955	27.06726
2082.03125	50.21756	5.26024	17.65731	24.66983
2085.93750	34.76239	12.11232	10.81325	22.72663
2089.84375	38.52025	6.87650	12.02786	26.07571
2093.75000	37.37627	8.89338	16.46603	22.95440
2097.65625	28.16789	9.29860	1.56339	24.24702
2101.56250	27.10703	14.13593	-0.84835	27.60863
2105.46875	33.06701	-5.20257	12.85715	28.45018
2109.37500	35.91835	-15.27369	-9.29821	26.96215
2113.28125	38.80775	-6.00415	-18.96288	28.03636
2117.18750	46.08289	0.84797	6.02452	28.62852
2121.09375	46.60486	5.28254	18.11813	26.38533
2125.00000	20.08484	13.34325	10.87123	10.36282
2128.90625	11.65761	2.86914	10.07114	5.39191
2132.81250	38.29598	-18.08112	13.70330	21.94625
2136.71875	33.32355	-1.15583	-1.19929	13.23235
2140.62500	20.06191	2.47284	-1.19358	11.73124
2144.53125	32.86888	-1.55427	7.27367	16.39351
2148.43750	27.78102	5.70055	-0.77928	11.31431
2152.34375	27.38970	1.67334	-0.77370	15.57222
2156.25000	42.28509	-2.35380	-10.43838	12.32686
2160.15625	29.67474	15.78025	-21.71472	-4.26201
2164.06250	0.08561	14.17075	-8.41236	-15.12243
2167.96875	-13.22893	-12.01759	5.29294	-8.87422
2171.87500	11.73923	0.47544	7.31326	-1.95699
2175.78125	36.31591	-0.32826	11.75118	0.54730
2179.68750	47.64220	-12.41401	9.33925	11.45177
2183.59375	44.61409	1.69069	-8.38401	23.78429
2187.50000	36.89477	9.34860	-17.64574	13.71023
2191.40625	16.73620	7.73901	-4.34339	-2.83539
2195.31250	13.01441	-4.34682	-22.46956	-1.94047
2199.21875	9.09635	4.11680	-21.65802	-6.39304
2203.12500	6.07543	-4.74559	6.95571	-4.70121
2207.03125	20.99823	-27.30760	11.79663	4.10596
2210.93750	10.55549	2.51128	12.20522	2.46389
2214.84375	6.64651	22.65987	5.36114	-3.57764
2218.75000	-0.53494	11.37987	8.18734	-5.80605
2222.65625	5.33774	-5.94411	2.55193	1.75486
2226.56250	25.69859	-1.10685	-8.32145	7.02022
2230.46875	21.80861	6.95375	2.96638	1.85244
2234.37500	16.82540	4.53807	0.15164	4.92173
2238.28125	12.71248	4.54007	-19.58629	11.61493
2242.18750	12.17105	-9.15747	-3.06051	3.25377
2246.09375	11.89667	-5.12617	11.45068	1.48091
2250.00000	-9.13805	10.99301	1.38316	-0.24247
2253.90625	0.45224	-5.12219	3.00062	-8.66074
2257.81250	23.46326	-20.02861	1.39470	-2.87005
2261.71875	19.71646	-12.77377	3.41508	4.22075
2265.62500	10.60243	2.13674	-3.42909	3.58516
2269.53125	7.56671	8.98857	-15.91426	3.42491
2273.43750	21.60642	10.60234	3.43213	9.68237
2277.34375	29.71340	13.42486	12.70522	13.61327
2281.25000	11.04388	11.00924	3.04058	-4.61504
2285.15625	-2.77943	-2.68844	7.07565	-17.71220
2289.06250	5.83751	-8.32744	3.45508	-12.54024
2292.96875	0.52020	-0.66980	-15.87988	-12.16123
2296.87500	-7.60893	5.37618	0.24313	-17.89207
2300.78125	-2.56927	1.75172	4.27818	-18.41983
2304.68750	-3.68567	-5.90201	-9.81861	-17.70497
2308.59375	-1.43784	-6.70587	5.49854	-7.45379
2312.50000	-0.34050	-0.65992	10.74244	-4.47373
2316.40625	4.18483	2.56554	9.53938	-11.13943
2320.31250	15.13935	0.14998	17.60374	-2.53871
2324.21875	15.52409	5.39006	11.56561	3.18657
2328.12500	1.84945	5.79490	-0.51646	0.94124
2332.03125	1.70833	-13.54379	4.32449	1.32448
2335.93750	11.51987	-5.48324	8.76255	0.44769
2339.84375	8.16246	13.05354	10.78301	-0.48312
2343.75000	0.43959	-7.89687	9.58003	-7.03146
2347.65625	-2.03960	-10.71539	7.57120	-6.30889
2351.56250	1.03343	7.82139	12.81516	-4.02875
2355.46875	7.56179	15.07612	18.46204	-3.25781
2359.37500	14.37815	11.45175	9.60352	1.85727
2363.28125	19.54486	-2.24593	-8.11946	6.42473
2367.18750	5.82037	-5.06446	-6.09886	2.20686
2371.09375	-0.34509	2.19025	5.59210	-2.80204
2375.00000	4.01126	9.04198	3.98631	-4.10493
2378.90625	3.16848	7.02926	12.05095	-3.56578
2382.81250	1.10615	-2.23619	16.48914	-4.80834
2386.71875	11.31405	4.21264	19.31570	3.50303
2390.62500	8.85890	5.82625	10.45723	6.61635
2394.53125	0.07868	-11.49778	-15.32425	0.74587
2398.43750	1.94066	-5.04893	-7.66246	-3.03888
2402.34375	0.71778	-1.01770	10.07250	-4.07275
2406.25000	7.98105	-13.50659	9.67572	-0.02097
2410.15625	3.26277	-6.65492	15.32295	2.86872
2414.06250	-1.39985	5.43488	13.71750	-2.38770
2417.96875	6.67392	4.63083	6.06800	-0.57704
2421.87500	6.28164	-3.42592	1.64190	5.39977
2425.78125	2.65442	-3.82696	2.05089	2.08973
2429.68750	-3.43662	-5.03392	-0.36043	-4.78539
2433.59375	-1.62013	-4.22624	-10.42752	-3.01531
2437.50000	9.72245	3.83413	-3.16850	3.83516
2441.40625	8.92556	8.26825	11.74619	5.06927
2445.31250	-0.24931	2.62912	15.37864	0.95089
2449.21875	-7.21327	-10.26280	15.78776	-5.47565
2453.12500	-9.03049	-15.09623	18.21143	-10.39099
2457.03125	-7.83894	-3.00641	4.11487	-9.93085
2460.93750	-7.06937	6.66583	-5.14641	-1.43894
2464.84375	-2.35744	-7.03185	6.54472	-2.24725
2468.75000	3.61230	-13.87989	2.52154	0.38405
2472.65625	7.81003	1.43326	-7.54560	6.92564
2476.56250	4.36939	1.43511	-0.68968	3.27209
2480.46875	-1.41393	-2.99527	11.80734	2.79887
2484.37500	-7.71572	-3.79931	0.53151	-1.88228
2488.28125	-9.24672	-5.00630	8.19333	1.09483
2492.18750	-6.29052	0.63651	23.10783	2.20325
2496.09375	-9.64538	5.07062	16.26404	-6.50003
2500.00000	-11.17745	5.47538	0.15279	-8.00002
2503.90625	-10.29434	-1.77559	-14.34672	-8.44616
2507.81250	-9.93807	-8.22069	4.59701	-8.99873
2511.71875	-11.83504	-8.62182	12.66155	-8.83672
2515.62500	-13.60282	-4.59075	11.45866	-9.81262
2519.53125	-8.55511	-5.39483	17.91143	-6.02583
2523.43750	-4.86860	-3.37841	1.39716	-3.01575
2527.34375	-6.53145	13.94933	-0.61166	-1.30548
2531.25000	-14.05515	14.75701	14.30261	-1.20888
2535.15625	-17.96358	-4.17893	12.69656	-11.07870
2539.06250	-15.30123	-9.41528	12.70218	-13.02728
2542.96875	-12.00123	-11.02526	-3.81226	-8.16808
2546.87500	-6.69538	-10.21750	-12.67098	-0.82547
2550.78125	-5.69397	-7.79812	-0.57739	-2.71525
2554.68750	-12.23606	-9.40803	10.71028	-13.10029
2558.59375	-7.63681	4.69632	22.80373	-5.21956
2562.50000	-1.88721	7.11576	10.31842	1.06782
2566.40625	-4.40065	-0.13514	2.26537	0.88382
2570.31250	-7.70225	0.67257	9.52363	-1.67280
2574.21875	-7.68698	2.68906	8.72326	-7.80102
2578.12500	-6.90887	4.30267	7.92286	-9.58478
2582.03125	2.89975	9.54260	6.71943	-1.50641
2585.93750	-4.09426	-1.33477	8.33656	-2.64420
2589.84375	-17.26001	-23.89708	11.56546	-8.56306
2593.75000	-19.61340	-13.41907	6.33264	-9.26729
2597.65625	-19.15184	10.75862	-6.95881	-8.37803
2601.56250	-0.46972	9.95454	-0.90958	-4.61412
2605.46875	5.89253	2.30071	15.21296	-2.56439
2609.37500	-5.35927	6.33185	21.26220	-1.23248
2613.28125	-18.18493	3.11023	19.25284	-7.81458
2617.18750	-12.11931	-2.93194	23.28741	-10.84943
2621.09375	-12.40395	1.09915	5.56377	-5.84055
2625.00000	-2.25819	3.11562	-16.99497	-1.31422
2628.90625	16.31016	2.71444	-0.87251	8.21987
2632.81250	3.86385	10.37190	19.68224	1.80681
2636.71875	-8.76478	6.74731	21.29916	-13.35422
2640.62500	-3.49213	-2.51824	-5.28910	-2.36474
2644.53125	8.10576	-1.30757	-0.04585	8.74417
2648.43750	9.86738	2.32068	26.14981	5.67947
2652.34375	-11.07372	3.53127	31.39312	-6.58295
2656.25000	-29.21891	1.11549	28.17484	-17.08117
2660.15625	-23.69762	-8.15011	21.33021	-17.15006
2664.06250	-18.63499	-6.93954	15.29148	-15.11682
2667.96875	-11.80324	0.31501	-4.04400	-8.06278
2671.87500	-11.41387	-2.90663	0.79636	-3.96609
2675.78125	-13.02764	-10.15755	19.73934	-5.89386
2679.68750	1.52208	-8.94688	15.71505	-5.46536
2683.59375	11.79078	0.32237	11.69066	1.22637
2687.50000	11.72734	-1.28760	0.41360	11.29903
2691.40625	8.49191	-13.37376	11.29781	10.06485
2695.31250	-0.06496	-11.76037	27.82308	-1.12803
2699.21875	-1.16246	-1.28241	22.99307	-3.96879
2703.12500	-1.76579	-1.68346	19.77483	-4.69446
2707.03125	-0.54260	2.75060	16.55645	-1.93113
2710.93750	9.56431	1.94661	20.59080	1.66499
2714.84375	11.69937	1.94849	7.29917	4.08502
2718.75000	6.93548	11.62079	-0.35150	5.88591
2722.65625	18.04606	11.21964	7.71211	9.41741
2726.56250	10.20163	1.55104	13.35820	9.04151
2730.46875	0.26772	-4.89402	16.98950	2.66479
2734.37500	7.37233	-6.50403	12.56214	-3.13045
2738.28125	13.33252	-1.26416	8.94056	3.96551
2742.18750	-0.50582	1.55811	12.97474	4.87164
2746.09375	-9.24199	-2.46947	25.06761	-4.15421
2750.00000	10.82184	-1.25894	12.58166	1.37501
2753.90625	5.10046	3.98101	8.55715	3.83566
2757.81250	5.14418	8.41517	17.42643	3.98520
2761.71875	23.15558	12.84928	17.02824	12.68767
2765.62500	15.25027	10.03058	3.33343	14.06647
2769.53125	9.79677	4.79425	-17.61408	13.09995
2773.43750	4.49549	-3.26258	8.58104	6.86613
2777.34375	-5.93272	-11.72227	31.55272	-5.72351
2781.25000	-2.44130	-4.87062	26.31935	-6.22328
2785.15625	-5.78879	-10.50988	22.29474	-2.39777
2789.06250	0.40996	-7.68750	13.83780	-0.04686
2792.96875	2.74782	7.22273	4.97795	-3.69766
2796.87500	-2.15812	4.00101	8.20592	-0.56454
2800.78125	-3.16271	-4.45874	15.86604	1.32478
2804.68750	-0.65321	-1.63645	13.45299	3.24787
2808.59375	7.23536	0.37994	7.01051	6.64883
2812.50000	5.10910	1.59054	7.01490	6.80804
2816.40625	8.02233	-2.03391	11.04857	6.99182
2820.31250	4.06813	-2.83797	11.85878	-0.12217
2824.21875	-5.21772	3.20775	9.84850	-8.90265
2828.12500	-2.77533	-6.46084	-0.22039	-7.92486
2832.03125	9.97734	-7.66790	9.85718	4.54621
2835.93750	11.32754	1.60126	5.83221	9.71334
2839.84375	5.55271	-0.00859	-3.83383	9.99132
2843.75000	9.11201	-2.02134	15.51115	3.04007
2847.65625	6.23009	-0.81065	15.51540	-3.48990
2851.56250	3.66252	-7.65865	15.11679	-2.01538
2855.46875	4.14730	-5.64223	5.85385	-1.64726
2859.37500	12.97858	0.80644	-8.64719	9.10904
2863.28125	22.57795	-5.23575	-11.86615	16.49735
2867.18750	15.30083	4.03336	3.85255	9.05638
2871.09375	-0.13164	6.45273	13.12417	2.43623
2875.00000	-7.86265	-5.63348	5.87565	-2.89551
2878.90625	3.78577	-8.45217	11.52102	-1.95304
2882.81250	7.76780	-11.67388	10.31649	-2.38940
2886.71875	-3.78203	-7.24008	2.66503	-1.73329
2890.62500	9.47749	5.65539	-2.16581	3.79789
2894.53125	21.24697	8.07462	5.09131	4.77732
2898.43750	10.21530	0.42061	8.72192	1.39551
2902.34375	13.02195	-11.26280	-10.21162	4.39094
2906.25000	12.62976	-13.67887	-5.77509	0.38405
2910.15625	4.28517	-14.48313	12.36131	-4.78486
2914.06250	3.24898	-17.30203	21.63305	-0.37099
2917.96875	3.26424	-10.85363	10.35519	-1.78378
2921.87500	0.85731	-0.37594	1.09206	-5.47737
2925.78125	0.85635	4.05780	-0.91826	-0.32605
2929.68750	13.70298	4.05930	-0.91398	5.28955
2933.59375	9.87857	-3.99780	1.50788	0.61266
2937.50000	5.91006	-10.44321	5.13865	-2.20710
2941.40625	11.96307	-7.21825	-0.90099	-1.77884
2945.31250	8.83208	-1.17274	-13.79042	2.16126
2949.21875	3.47972	2.45524	-0.89207	3.79320
2953.12500	2.46846	0.03917	-11.36385	1.29539
2957.03125	10.10684	-12.45010	-20.62698	1.35251
2960.93750	6.44416	-19.70145	7.17957	-3.45236
2964.84375	4.70942	-7.20927	20.07771	1.78333
2968.75000	4.63533	-3.98441	11.21749	1.99713
2972.65625	2.78927	-11.63869	4.37201	0.07728
2976.56250	7.81043	-18.48712	2.36175	5.69108
2980.46875	8.87706	-16.47109	-1.66319	4.81490
2984.37500	17.48377	-13.64921	-3.27059	10.20691
2988.28125	28.44380	-12.43902	-5.68381	19.22796
2992.18750	28.57965	-12.43759	-3.26187	23.55970
2996.09375	19.18096	-9.21271	-0.43701	19.69147
