 	TP9	AF7	AF8	TP10	
-1000.00000	13.39213	-7.20431	-6.52018	5.94851
-996.09375	8.55763	-7.60464	-3.69660	13.70202
-992.18750	7.34958	-6.39322	-4.49937	7.73974
-988.28125	12.18550	-3.57010	-3.69047	8.90692
-984.37500	11.38027	-7.99973	-1.26984	5.28640
-980.46875	15.00733	-10.01178	-0.46082	7.19913
-976.56250	11.38154	-8.80040	-1.66651	13.85284
-972.65625	4.12943	-9.60368	-2.87221	15.99557
-968.75000	3.32421	-10.40695	-2.06326	10.50675
-964.84375	10.17457	-10.00148	-1.65720	9.38782
-960.93750	10.98095	-8.38717	-2.05704	10.48894
-957.03125	10.57851	-8.78756	-2.45683	6.70996
-953.12500	-1.91177	-10.79963	-4.06548	7.27628
-949.21875	-3.52290	-11.60292	-6.07703	2.03917
-945.31250	4.13324	-10.39155	-8.08858	3.47229
-941.40625	-3.52185	-11.19486	-8.08545	5.34964
-937.50000	-6.34177	-11.59515	-6.87353	5.98006
-933.59375	2.12035	-8.77205	-7.67629	10.58975
-929.68750	4.94155	-7.15769	-7.67320	11.29745
-925.78125	7.35969	-4.73756	-6.05841	6.47416
-921.87500	9.77785	-5.13787	-6.05533	0.65154
-917.96875	-1.10070	-6.74701	-5.64932	2.40150
-914.06250	-9.15878	-5.53561	-3.63162	3.77172
-910.15625	3.33268	-5.93596	-4.03153	3.62037
-906.25000	10.98897	-5.12743	-6.04312	1.46598
-902.34375	7.76608	-5.52777	-4.02541	3.25006
-898.43750	8.16967	-6.73397	-2.41061	5.65287
-894.53125	11.39370	-4.31377	-2.40754	6.56598
-890.62500	10.58845	-7.53460	-0.79278	8.81721
-886.71875	6.55984	-11.56131	-0.78972	9.79894
-882.81250	3.73998	-12.36456	-1.59249	7.50995
-878.90625	-3.10937	-12.36197	-1.99236	4.86406
-875.00000	-7.13813	-9.94187	-2.79512	4.87128
-871.09375	-7.94340	-8.73052	-2.79203	5.52554
-867.18750	-5.12238	-7.92210	-1.17724	6.48599
-863.28125	10.99535	-6.71071	-1.57703	4.97370
-859.37500	12.20468	-2.67883	-2.37979	7.69913
-855.46875	1.72908	-2.27329	-2.37667	7.55382
-851.56250	-1.09089	-7.50880	-2.77651	8.64674
-847.65625	14.62387	-7.10327	-3.57925	25.36666
-843.75000	4.55124	-4.28020	-3.57614	17.80543
-839.84375	-12.37129	-5.08344	-7.19945	-2.35303
-835.93750	1.73188	-5.08083	-11.62856	2.93243
-832.03125	7.37354	-3.86948	-14.04309	4.47504
-828.12500	13.82114	-3.86686	-14.04004	9.62050
-824.21875	17.44821	0.16513	-14.03698	17.80126
-820.31250	21.47824	5.00289	-15.64568	13.79954
-816.40625	27.11987	5.00550	-15.64264	9.14209
-812.50000	24.70287	4.20228	-16.44546	7.91254
-808.59375	21.48001	4.20487	-16.03949	7.99355
-804.68750	15.83951	2.59571	-16.03646	5.36401
-800.78125	19.86939	2.19543	-16.03340	5.39567
-796.87500	16.64654	3.40677	-16.43330	8.86226
-792.96875	17.45301	0.99182	-13.60977	5.65804
-789.06250	31.55614	2.20322	-9.17447	3.55451
-785.15625	19.06585	5.42919	-8.36557	4.26533
-781.25000	8.59010	1.80546	-8.36251	9.10948
-777.34375	12.61988	-1.41540	-6.34474	12.17244
-773.43750	14.23222	0.19895	-5.53585	9.79620
-769.53125	8.18882	-0.20140	-6.33868	6.36798
-765.62500	6.98058	-1.40760	-7.54447	6.84714
-761.71875	7.78701	-1.40502	-6.73561	11.24803
-757.81250	10.60810	0.61223	-2.30036	10.61754
-753.90625	8.59401	1.82364	-3.10330	3.40134
-750.00000	5.37109	2.63208	-9.14426	1.92016
-746.09375	11.81856	3.44053	-9.54418	7.46522
-742.18750	10.61031	2.63728	-8.33248	4.56496
-738.28125	8.19336	1.43109	-7.92657	4.60834
-734.37500	3.76171	0.62786	-5.90897	6.61896
-730.46875	3.35934	0.63047	-6.30893	4.30506
-726.56250	5.37458	0.23018	-5.90309	1.68243
-722.65625	12.22505	-0.57311	-5.90014	1.55591
-718.75000	9.00222	0.63829	-7.10598	0.59952
-714.84375	4.16762	2.25262	-7.50592	-2.71204
-710.93750	9.40626	0.64344	-7.50298	-5.02009
-707.03125	9.00390	1.45189	-8.30596	-3.65700
-703.12500	5.78108	1.45449	-10.72056	-2.20683
-699.21875	7.39333	-0.96048	-9.10588	-4.22068
-695.31250	7.79676	-1.76382	-5.87943	-5.65194
-691.40625	6.18557	-3.77593	-3.86179	0.93409
-687.50000	4.57429	-2.56457	-4.26169	5.54373
-683.59375	1.75422	-1.35322	-6.67630	4.56211
-679.68750	2.56044	-0.94774	-6.67330	1.43833
-675.78125	1.35208	-1.75109	-8.68497	-0.98954
-671.87500	-1.06494	-1.74854	-9.48787	-2.01516
-667.96875	0.54711	-0.53719	-6.66442	1.47446
-664.06250	6.59134	1.88301	-5.04977	6.55247
-660.15625	11.02390	5.10905	-4.24091	1.87013
-656.25000	8.60666	2.29114	-5.44675	-6.45038
-652.34375	2.56304	1.89074	-5.44380	-7.02435
-648.43750	3.36914	2.69914	-5.84379	0.64740
-644.53125	12.23396	-0.52175	-6.24372	-1.07022
-640.62500	9.01085	0.28673	-5.03205	1.11211
-636.71875	3.77316	-0.11365	-3.82033	6.17564
-632.81250	19.08496	0.29190	-2.20566	7.25725
-628.90625	19.08538	2.71202	-2.20275	15.14263
-625.00000	7.80365	2.31170	-2.60279	15.13680
-621.09375	15.86252	3.12010	0.22064	15.28985
-617.18750	25.53322	3.12264	-1.79108	19.16604
-613.28125	13.44577	0.30470	-2.99696	11.81529
-609.37500	2.56706	-0.09571	-1.78523	1.43583
-605.46875	4.98512	-0.49610	-3.79691	3.19453
-601.56250	7.80609	-3.31401	-5.00272	2.50629
-597.65625	13.04460	-2.50560	-4.19383	7.94928
-593.75000	13.85089	0.31751	-7.01144	13.09465
-589.84375	11.03089	-1.69468	-7.81435	21.97304
-585.93750	13.44898	-0.88621	-5.39382	18.70404
-582.03125	17.47868	-1.28657	-3.37626	5.88108
-578.12500	22.31428	-3.70156	-1.35871	15.64571
-574.21875	19.09133	-2.49016	-3.77340	17.94287
-570.31250	21.10655	-2.48756	-4.97928	15.09656
-566.40625	28.35980	-4.49959	-2.55879	22.97920
-562.50000	31.98673	-4.49694	-3.36174	24.61354
-558.59375	29.97266	-4.89718	-6.17936	18.08750
-554.68750	27.55551	-5.29749	-4.56478	26.76285
-550.78125	28.36180	-3.68314	-1.74139	32.37393
-546.87500	25.13889	-2.87460	-4.15604	25.68563
-542.96875	19.90138	-3.67787	-5.76489	17.20659
-539.06250	12.64915	-3.27227	-3.74733	11.65627
-535.15625	13.05263	-2.86666	-2.13265	16.58825
-531.25000	12.24733	-2.46111	-0.51801	13.76045
-527.34375	9.42735	0.36209	-1.32089	6.26705
-523.43750	11.03966	-1.24704	-2.52672	8.64507
-519.53125	11.44304	-4.46785	-2.12078	12.47792
-515.62500	9.42899	-1.64473	-3.32659	20.86499
-511.71875	11.44429	1.17843	-4.12947	24.52462
-507.81250	10.23614	1.98688	-2.51481	11.86019
-503.90625	9.43080	1.58652	-1.30303	4.97566
-500.00000	13.46075	-0.02258	-2.10589	8.07039
-496.09375	0.56750	-0.01999	-0.08826	16.22680
-492.18750	-2.25242	0.38557	0.72058	17.51707
-488.28125	7.82134	-0.41773	-0.08227	10.22255
-484.37500	7.82190	-0.41514	-3.30274	9.01945
-480.46875	6.61374	1.19923	-6.52319	7.70873
-476.56250	13.46407	2.41064	-5.31138	10.73605
-472.65625	6.61468	3.21908	-3.69670	10.86415
-468.75000	-2.24921	3.62458	-2.88789	0.94301
-464.84375	4.60113	2.41844	-3.69079	2.64446
-460.93750	7.01930	0.00345	-4.89664	6.16305
-457.03125	7.42275	-1.60568	-5.69956	1.17517
-453.12500	7.42324	-2.00595	-5.69665	-0.27343
-449.21875	9.84131	0.01132	-2.47031	7.38306
-445.31250	9.03597	0.81982	-2.87038	7.60726
-441.40625	0.57493	-1.99801	-6.49385	4.64930
-437.50000	6.21651	-2.39830	-5.68514	8.10005
-433.59375	10.24635	-3.20150	-4.47347	5.05396
-429.68750	2.59119	-6.42231	-5.27645	2.94121
-425.78125	0.98002	-5.21085	-6.07943	6.57948
-421.87500	9.03907	-3.19355	-7.28536	6.80094
-417.96875	6.21901	-2.38507	-7.28252	6.93921
-414.06250	-7.88315	-4.80001	-7.27970	3.87729
-410.15625	-5.46510	-4.79742	-8.88867	0.09961
-406.25000	2.19104	-1.97431	-8.48294	6.40684
-402.34375	9.04138	-1.97170	-8.48015	8.19108
-398.43750	11.45935	-1.16326	-9.28323	7.77354
-394.53125	11.45979	1.25694	-8.87755	9.49269
-390.62500	-4.65695	1.25958	-7.66597	11.34117
-386.71875	-2.23878	2.06811	-8.06617	10.30844
-382.81250	14.28185	1.26494	-7.66048	1.97562
-378.90625	7.43252	-0.34414	-7.25479	-0.26719
-375.00000	5.41851	2.47910	-8.86383	-3.08038
-371.09375	3.00152	-0.33876	-8.45814	-8.06703
-367.18750	-0.22138	-1.94774	-6.44075	-7.91237
-363.28125	3.40550	-0.73624	-5.22922	-4.18648
-359.37500	6.22651	-1.53945	-6.03231	-2.26694
-355.46875	5.42113	-1.93966	-6.43252	-6.44156
-351.56250	2.19820	-0.72818	-5.22097	-0.11075
-347.65625	4.21333	1.69203	-4.00942	1.29773
-343.75000	-0.21840	1.69472	-3.20079	-3.04014
-339.84375	-4.65018	1.29450	-4.80977	-7.08166
-335.93750	2.20009	2.50598	-6.01573	-11.86974
-332.03125	-0.21699	4.52329	-5.20708	-6.29803
-328.12500	-4.64871	4.52594	-5.20429	-2.76442
-324.21875	0.18689	3.72265	-5.20149	0.17817
-320.31250	-0.61857	4.93405	-4.39283	-6.24138
-316.40625	-3.84167	5.33958	-7.61346	-9.28724
-312.50000	-1.02075	4.93919	-8.01359	3.18270
-308.59375	-11.49653	4.53886	-3.57853	8.90451
-304.68750	-5.04936	6.95895	-3.57570	3.05124
-300.78125	5.42715	6.15564	-4.78166	1.87389
-296.87500	1.80123	5.35232	-7.19637	7.35504
-292.96875	1.39871	7.77243	-8.80531	3.74768
-289.06250	0.19033	4.95436	-8.39952	-1.17663
-285.15625	-4.64442	1.73339	-8.39670	-1.67476
-281.25000	-8.67329	0.52714	-8.39388	-6.90415
-277.34375	-6.65815	-1.08213	-6.37639	-9.88536
-273.43750	-7.46361	-1.88552	-5.97060	-10.24710
-269.53125	-7.86611	0.53456	-5.96777	-13.27260
-265.62500	-9.07437	1.74577	-5.96494	-9.97310
-261.71875	-14.31198	0.53948	-6.76798	-9.19889
-257.81250	-7.46166	0.54194	-6.36215	-5.80032
-253.90625	-11.49062	-3.08201	-3.94169	-4.55527
-250.00000	-15.11666	-3.88541	-2.32713	-9.26012
-246.09375	-4.64007	-3.07714	-3.53307	-7.34171
-242.18750	-3.02805	-2.26891	-5.54486	-1.37765
-238.28125	-7.86288	-0.65478	-7.15366	-0.93150
-234.37500	-11.08603	-0.65238	-10.37420	-2.95043
-230.46875	-5.04176	2.97635	-12.78887	0.37645
-226.56250	1.00260	3.38171	-13.59178	0.57414
-222.65625	7.85271	2.17531	-11.17125	3.67089
-218.75000	7.45006	3.78942	-10.36245	1.50556
-214.84375	7.85340	2.18017	-11.56829	2.22318
-210.93750	8.65964	0.57092	-9.95364	3.94415
-207.03125	6.64537	2.99087	-7.93605	2.88962
-203.12500	3.82529	3.39623	-8.73893	4.33978
-199.21875	2.61685	1.78688	-11.55646	3.13167
-195.31250	1.40837	2.19225	-11.15055	-3.53788
-191.40625	-3.42644	1.38881	-9.13296	-5.81653
-187.50000	-1.00854	1.79411	-8.32417	-1.20717
-183.59375	8.25919	2.60243	-8.72417	2.64626
-179.68750	4.63318	1.79896	-6.70658	5.16342
-175.78125	-5.43966	1.80142	-5.49484	3.13842
-171.87500	-7.45392	3.41563	-6.70070	-4.73714
-167.96875	-3.82714	3.01512	-7.50360	-10.51494
-164.06250	-3.02080	1.00292	-8.30651	-12.68963
-160.15625	-5.84091	-1.41221	-10.72117	-11.73101
-156.25000	-2.21417	-1.40975	-11.92705	-8.36660
-152.34375	-2.61674	-0.60139	-12.72997	-9.74645
-148.43750	-7.45158	-2.21068	-13.53288	-15.37141
-144.53125	6.24832	-4.22286	-13.52995	-2.98651
-140.62500	14.71008	-0.99693	-11.51236	6.44861
-136.71875	-14.70344	3.03485	-8.28596	-25.15450
-132.81250	-27.99969	3.84318	-10.29768	-43.81649
-128.90625	-26.79056	3.84567	-9.89186	-39.55751
-125.00000	-35.65464	3.04231	-9.88891	-42.78675
-121.09375	-38.87771	3.04477	-12.70646	-45.45420
-117.18750	-46.93592	4.65900	-11.89765	-52.05422
-113.28125	-60.63520	5.46733	-11.89467	-57.79333
-109.37500	-68.69347	2.64931	-11.48874	-55.68219
-105.46875	-64.26102	1.84587	-11.08282	-57.95294
-101.56250	-59.02261	1.44543	-13.09456	-62.26770
-97.65625	-60.23104	1.04494	-11.47985	-53.19859
-93.75000	-61.84248	0.24155	-10.67105	-51.67982
-89.84375	-54.58939	-1.36775	-10.66807	-54.48677
-85.93750	-44.11283	0.64942	-7.44164	-50.10016
-82.03125	-33.63630	0.24892	-9.05034	-42.77669
-78.12500	-30.81548	-0.15157	-8.24149	-33.01217
-74.21875	-32.42678	0.25387	-5.82090	-29.50640
-70.31250	-27.99410	-1.75829	-5.41501	-24.69716
-66.40625	-23.56150	-1.75582	-5.81491	-19.23219
-62.50000	-21.14351	-0.94750	-5.40903	-19.20972
-58.59375	-16.71086	-1.34797	-4.19724	-22.51257
-54.68750	-14.29288	-1.34548	-5.40305	-17.06078
-50.78125	-19.12761	-0.53709	-6.20593	-15.07622
-46.87500	-14.69495	-0.53460	-7.00881	-16.92960
-42.96875	-7.84475	1.07959	-4.99117	-15.33546
-39.06250	-7.84435	1.48505	-3.77938	-14.43910
-35.15625	-4.21750	-0.12420	-6.19401	-8.29847
-31.25000	-11.46983	-1.33051	-5.38518	-8.70877
-27.34375	-6.63429	-0.92509	-2.96460	-8.94949
-23.43750	3.03650	0.28620	-3.76747	-3.75120
-19.53125	-7.03636	-0.92012	-3.76447	-2.73895
-15.62500	-3.81248	1.09702	-3.35859	-5.23112
-11.71875	-0.58860	4.32292	-4.56443	-4.79516
-7.81250	-5.02035	3.92243	-6.57611	-5.77473
-3.90625	0.21818	1.91023	-6.57315	-5.80972
0.00000	2.63604	1.10685	-6.16723	-3.92407
3.90625	-3.40765	1.10932	-6.97012	-5.03531
7.81250	-7.43666	1.91762	-8.98182	-4.95401
11.71875	-5.42168	-0.09457	-8.57599	-4.19002
15.62500	1.42844	-1.30091	-6.96131	-1.76683
19.53125	4.65228	0.31331	-6.55550	-2.27193
23.43750	0.22043	1.12162	-5.34377	1.15810
27.34375	3.44425	0.72117	-3.72908	5.71830
31.25000	9.89148	1.12652	-2.51741	5.46741
35.15625	4.25068	2.74073	-4.12620	7.16868
39.06250	-2.19596	3.14606	-5.73501	1.41970
42.96875	4.65422	1.53684	-2.91163	-1.15069
46.87500	3.84886	1.13634	-4.52050	3.84769
50.78125	6.26692	3.55640	-7.74107	4.65447
54.68750	11.10256	3.96173	-5.32058	-0.35940
58.59375	3.44740	0.74078	-4.91472	-5.73488
62.50000	4.65678	-1.67437	-6.12062	-1.88124
66.40625	-1.78953	0.74568	-3.70014	-1.70377
70.31250	-7.42986	2.35981	-1.68262	-5.83102
74.21875	-0.57941	1.55639	-4.90322	-14.28057
78.12500	-0.57893	0.75297	-8.52675	-15.67082
82.03125	2.24197	-0.05050	-8.52387	1.79367
85.93750	7.07760	0.75783	-6.90924	4.37284
89.84375	-16.69485	1.56611	-6.10053	-23.58066
93.75000	-23.94725	-0.44609	-8.91815	-32.18189
97.65625	-21.93228	-2.86125	-10.92991	-18.71270
101.56250	-23.14072	-0.84415	-12.13581	-21.95080
105.46875	-12.66415	-0.84169	-10.92412	-20.63475
109.37500	-21.52822	-1.64509	-10.11540	-14.35431
113.28125	-21.52781	0.77495	-8.90373	-9.74622
117.18750	-11.05129	4.40372	-9.70677	-11.22945
121.09375	-5.00698	3.19736	-12.52438	-11.45780
125.00000	-3.39489	1.99100	-12.52148	-4.60083
128.90625	0.23179	3.60522	-14.13029	3.70905
132.81250	-0.17072	1.59304	-16.14206	-0.16579
136.71875	-1.78214	-0.82208	-16.54213	-8.93085
140.62500	-2.58767	-0.81960	-16.94218	-2.17629
144.53125	0.23320	0.39167	-14.92464	3.72225
148.43750	5.87464	2.40882	-13.71294	4.00912
152.34375	3.45745	1.20253	-14.91881	3.80586
156.25000	5.06964	1.60800	-15.72172	5.91479
160.15625	1.04080	2.41632	-18.13632	8.32025
164.06250	-2.98808	3.22464	-18.13339	3.12931
167.96875	-11.85201	0.00367	-17.72757	1.44828
171.87500	-19.50719	-4.02315	-16.91879	3.37021
175.78125	-2.98664	-0.79724	-14.49824	-0.53697
179.68750	-9.03014	-0.79478	-14.09235	-8.56809
183.59375	-11.04427	-3.20992	-17.31286	-12.41989
187.50000	-2.98525	0.01598	-19.72752	-14.85850
191.40625	-11.44636	0.82433	-18.11284	-13.56890
195.31250	-19.50463	-2.39668	-16.90119	-6.93133
199.21875	-10.23689	-2.39423	-10.85427	-4.48242
203.12500	1.04560	-1.58591	-4.80741	-1.41898
207.03125	-1.77460	-2.38928	-3.19281	3.43512
210.93750	-1.77425	-3.59562	-3.59280	4.95746
214.84375	-0.56510	-2.38434	-3.18699	-1.58491
218.75000	-10.63801	-1.57601	0.44232	-6.81442
222.65625	-10.63767	-0.36475	2.86277	-3.75180
226.56250	5.07698	-1.57107	2.86570	2.73616
230.46875	5.07735	-3.58326	1.65988	6.15756
234.37500	-13.05420	-4.38666	0.45400	-2.63101
238.28125	-17.08323	-5.59300	-0.34898	2.17238
242.18750	-2.57748	-6.39640	0.86274	6.77964
246.09375	14.34608	-6.39393	2.88032	1.98063
250.00000	10.31715	-3.97390	6.10670	1.30501
253.90625	-11.84379	-3.97141	4.90085	2.82047
257.81250	-14.66405	-5.58063	1.68043	0.32281
261.71875	-6.20230	-4.36935	1.28044	-2.45464
265.62500	-5.79912	-6.78447	0.88042	-4.07068
269.53125	-7.81351	-7.99080	0.88333	-7.19077
273.43750	-4.99277	-5.97368	0.48336	-10.21656
277.34375	1.85739	-6.37407	0.48629	-6.71676
281.25000	-2.17165	-7.17745	2.10093	-3.64406
285.15625	-2.97726	-5.56316	4.11852	-4.53830
289.06250	-4.99154	-3.94891	5.33024	-1.60863
292.96875	-2.17065	-1.93170	5.73613	2.97773
296.87500	-4.58796	-1.52620	5.73907	6.84516
300.78125	-19.89902	-4.74710	4.53319	1.20466
304.68750	0.65072	-4.34163	4.13315	-3.04742
308.59375	7.09787	-3.13036	5.34486	3.53820
312.50000	-4.18399	-7.56003	4.94483	6.13273
316.40625	-2.97504	-9.16926	4.94776	-2.10185
320.31250	-0.96010	-5.94328	4.14486	-5.22587
324.21875	0.24889	-5.13490	2.13317	-2.41588
328.12500	3.47270	-2.71477	1.73325	4.21391
332.03125	1.45839	-1.90638	2.54204	2.86814
335.93750	-2.97366	-0.29211	1.73911	-2.12723
339.84375	4.68234	0.51626	3.35374	1.24889
343.75000	-4.98769	-2.30172	3.75963	-0.22176
347.65625	-14.65767	-1.89634	3.76256	4.44227
351.56250	4.28036	-1.08799	5.78012	6.07005
355.46875	7.50418	0.92923	5.78303	-2.49747
359.37500	5.48992	2.14046	2.56252	-5.15023
363.28125	7.90791	2.54590	-2.26974	-4.92176
367.18750	4.68482	1.33960	0.15080	0.59206
371.09375	5.08814	0.53629	-0.24920	4.04520
375.00000	9.11778	-1.87879	-2.26090	9.68036
378.90625	9.11804	-3.08510	0.96546	16.28008
382.81250	-1.35787	3.76724	-0.64331	-0.79616
386.71875	-1.35756	5.38143	-3.05800	-6.13239
390.62500	7.10430	4.57807	-3.05512	13.30472
394.53125	1.46358	2.56592	-2.64929	19.49530
398.43750	8.31373	1.76260	-2.64641	15.18043
402.34375	14.76076	1.76509	-1.83768	14.57921
406.25000	3.47892	0.96170	-0.22310	9.65115
410.15625	-0.55012	3.38173	1.39155	7.65008
414.06250	-2.56448	2.57838	1.39446	8.00728
417.96875	13.95599	1.37205	-0.61727	3.24273
421.87500	19.59738	4.19504	-3.43486	1.32222
425.78125	3.88341	1.37705	-4.23790	2.00740
429.68750	-2.96625	0.17076	-5.84672	-0.43617
433.59375	1.46610	2.59085	-6.64969	-1.01528
437.50000	7.91323	0.98166	-3.02048	3.84220
441.40625	7.10784	-0.22463	-1.80880	1.34537
445.31250	5.49654	0.58370	-2.61175	-3.27606
449.21875	5.89997	0.58618	-1.80301	-0.08250
453.12500	6.30343	1.39452	1.02036	3.70531
457.03125	11.13908	0.59115	0.62035	5.29957
460.93750	12.75129	0.19068	-1.39142	6.19609
464.84375	7.11070	0.59612	1.02900	1.86069
468.75000	6.30519	1.80736	1.43484	-0.56412
472.65625	1.87333	-0.20485	-0.97990	0.00093
476.56250	0.26190	-2.61999	-1.37993	3.58751
480.46875	1.06823	-3.02048	0.63758	3.79378
484.37500	-6.58707	-4.62970	4.26678	-1.11605
488.28125	-0.94580	-1.40378	5.07550	3.34907
492.18750	3.88956	5.04557	5.48131	8.01039
496.09375	9.12790	5.04803	5.48415	4.34898
500.00000	7.11345	2.22993	4.68116	5.02575
503.90625	0.26375	0.62068	3.87817	0.28797
507.81250	1.87574	0.22018	3.47807	3.18971
511.71875	9.93460	0.62560	3.07795	7.98280
515.62500	2.27914	1.43393	3.08079	-0.47336
519.53125	6.30871	2.24226	2.68074	3.05072
523.43750	14.36751	3.45354	2.28060	8.09224
527.34375	11.14423	3.45603	0.67168	0.16139
531.25000	12.75612	4.66731	2.68911	0.31318
535.15625	5.10069	5.07274	4.30359	2.41725
539.06250	3.08625	3.46347	3.90349	4.32374
542.96875	11.14505	3.46597	3.10038	6.58828
546.87500	6.31019	2.66262	2.70028	4.73650
550.78125	15.57789	1.05340	3.50891	3.12539
554.68750	19.60739	1.05587	3.10874	4.96089
558.59375	12.75773	3.07298	1.09688	13.68761
562.50000	3.89348	3.47834	0.29382	11.89984
566.40625	8.72879	3.07790	2.71423	5.22711
570.31250	9.13195	3.08035	5.13457	10.36683
574.21875	-0.13517	1.06814	4.33152	9.97553
578.12500	8.32666	3.89108	2.72264	12.21130
582.03125	3.89462	3.89353	3.12836	13.55809
585.93750	5.50651	0.26955	2.32532	4.45194
589.84375	0.67165	-0.13091	0.71644	2.68866
593.75000	-3.76038	0.67738	0.71925	5.36931
597.65625	3.89548	0.27685	2.33375	6.75041
601.56250	12.76008	0.27929	4.75415	13.18237
605.46875	16.38666	1.49054	3.95110	12.88650
609.37500	7.52231	0.68712	4.35677	7.07886
613.28125	2.68724	-1.32512	5.16540	7.65749
617.18750	-0.53602	0.28901	1.94480	10.60641
621.09375	7.92570	1.09738	2.35048	4.73677
625.00000	7.52291	1.09983	1.54742	-3.31490
628.90625	8.73193	2.31101	-1.67325	1.36847
632.81250	10.34393	3.52224	0.34416	4.34328
636.71875	4.30023	3.12177	2.36159	5.65139
640.62500	1.47989	1.10955	2.76733	7.97361
644.53125	0.67405	1.11199	3.57594	2.58969
648.43750	-1.34060	-0.09434	2.36991	0.86141
652.34375	-2.14649	-2.10654	0.35806	0.65762
656.25000	-2.14657	-2.50705	1.97260	-1.66619
660.15625	0.27084	-0.48996	2.78123	5.17077
664.06250	2.28538	1.12424	-0.03654	5.62014
667.96875	-4.16161	-1.29091	-1.24253	-0.49375
671.87500	-3.35599	-1.69141	-2.44859	-0.18430
675.78125	-2.95336	-2.49482	-2.44586	2.75751
679.68750	-4.96826	-2.49239	-2.04024	2.78422
683.59375	-4.96847	-2.08699	-4.45507	1.75230
687.50000	-4.16277	-3.69631	-5.25821	-0.28400
691.40625	-14.63901	-6.11141	-2.43501	-3.83015
695.31250	-12.22150	-5.30312	-1.22352	-0.41660
699.21875	3.49267	-2.07722	-2.02673	5.65830
703.12500	0.26921	-4.49237	-1.21812	5.09489
707.03125	8.73080	-4.08696	-0.40955	7.12807
710.93750	11.95435	1.55648	-1.21271	15.49998
714.84375	3.49286	0.75310	3.22218	12.98670
718.75000	3.49282	-2.87085	6.85129	8.15986
722.65625	7.11930	-3.27127	4.83934	16.46026
726.56250	8.32815	-2.86589	5.24492	16.90389
730.46875	11.55157	-2.86340	4.44176	19.51901
734.37500	14.37224	-0.44331	2.02693	18.38590
738.28125	12.76060	0.76795	0.41789	4.25141
742.18750	14.77533	-2.85600	0.82356	12.08188
746.09375	17.99891	-0.83889	3.24380	15.34127
750.00000	15.17859	1.58114	1.23186	16.27728
753.90625	0.67332	0.37479	2.04049	20.21016
757.81250	11.14967	3.19781	3.25196	8.84790
761.71875	28.87876	2.39436	1.24005	8.48793
765.62500	21.22323	-0.02075	0.83989	19.36253
769.53125	19.61167	1.99634	1.24551	23.49506
773.43750	21.62643	2.80464	1.65118	19.66320
777.34375	19.20893	1.19541	1.25094	20.74510
781.25000	12.35919	2.00371	0.04484	25.42931
785.15625	11.15046	1.60319	0.85344	21.71441
789.06250	22.43260	-1.21488	0.45317	15.37654
792.96875	18.80627	0.80220	0.05288	16.73925
796.87500	15.58302	2.01343	-1.15322	22.21828
800.78125	11.95674	1.21000	-1.15059	19.80099
804.68750	14.37440	2.01826	0.06081	14.33990
808.59375	17.19500	0.00606	-0.74239	18.91079
812.50000	13.56878	0.41139	-0.33676	25.53460
816.40625	9.94249	2.42847	-0.73705	26.16430
820.31250	17.19536	-1.19546	-1.94318	20.62257
824.21875	11.15160	-3.61064	-1.53756	17.38843
828.12500	7.52528	-1.99645	-0.72905	12.33308
832.03125	8.73416	-0.38233	0.07949	8.56956
835.93750	6.31671	-0.37991	1.29096	12.84152
839.84375	16.39006	-0.78045	0.89073	15.41156
843.75000	7.52571	-0.77804	1.29629	15.14939
847.65625	2.28775	-1.17851	2.91073	12.56046
851.56250	3.49668	-4.39954	1.70462	7.33816
855.46875	7.12308	-4.39711	0.09553	9.64960
859.37500	8.33186	-1.57421	0.90410	14.24932
863.28125	5.51139	-3.18348	0.10086	12.05993
867.18750	8.33199	-1.97222	-0.70233	13.54418
871.09375	1.07934	-1.16392	-1.90850	12.16195
875.00000	-6.57628	-0.35566	-1.09996	7.72370
878.90625	7.12338	4.07902	-0.69444	8.27932
882.81250	11.15277	3.27562	-2.70647	8.52885
886.71875	11.95869	0.05461	-3.91265	8.02753
890.62500	6.31778	-2.76353	-2.70122	6.10911
894.53125	5.91496	-1.95522	-0.68395	6.25560
898.43750	10.34729	-0.34110	-3.50184	9.19335
902.34375	5.91515	-2.35333	-5.11090	7.78609
906.25000	7.52704	0.46958	-3.09361	6.08122
910.15625	10.75063	3.29256	-5.10565	4.48294
914.06250	10.75078	0.87738	-7.92356	5.24288
917.96875	7.12457	-1.94070	-7.51795	8.93982
921.87500	2.69248	-1.53538	-7.51529	7.42212
925.78125	4.70733	0.88467	-5.49800	6.49547
929.68750	4.70749	0.48417	-5.09243	4.85755
933.59375	4.70772	-1.12509	-4.28396	1.05491
937.50000	-17.45320	-0.71975	-3.07254	5.50938
941.40625	-11.40898	1.29743	-2.66703	5.83265
945.31250	18.40802	1.70277	-2.26149	9.26949
949.21875	11.55829	0.49641	-2.25890	15.68606
953.12500	5.91743	1.70767	-3.86807	6.98263
957.03125	5.51456	3.72479	-3.86549	4.54722
960.93750	4.30575	3.32434	-3.05699	10.27857
964.84375	10.75273	3.72964	-3.45737	10.37499
968.75000	13.17044	4.94085	-2.64897	7.54685
972.65625	8.73821	5.34621	-0.22881	7.70874
976.56250	11.15582	2.93102	0.17665	1.22187
980.46875	10.34996	1.32175	-0.22367	5.05424
984.37500	9.54412	2.53292	-0.22113	15.05259
988.28125	5.11210	2.13247	-0.62158	9.84725
992.18750	10.75329	3.74662	-1.82788	12.49371
996.09375	20.42390	1.33154	-1.82539	22.12896
1000.00000	20.02115	-1.48653	-0.61409	19.98512
1003.90625	22.84203	1.33654	-3.43209	16.45620
1007.81250	11.96326	0.93609	-3.02663	14.52278
1011.71875	5.11377	1.34155	-3.02412	8.43687
1015.62500	16.39614	1.34406	-4.23041	4.81594
1019.53125	2.69672	-1.07107	-5.43670	3.10193
1023.43750	-7.77924	-2.68035	-4.62835	8.14349
1027.34375	10.75587	-1.46908	-2.61121	7.06248
1031.25000	21.23228	1.75683	-6.23505	3.58792
1035.15625	18.00905	-0.25534	-8.65016	10.52706
1039.06250	8.74176	0.15008	-7.84184	14.04517
1042.96875	10.75641	1.76421	-7.43639	9.86271
1046.87500	13.57697	2.97544	-9.04566	9.62251
1050.78125	-0.52557	1.76908	-9.84903	9.62283
1054.68750	1.89209	-1.85483	-7.83189	4.60850
1058.59375	10.35367	-1.44951	-5.41180	6.88818
1062.50000	11.15959	-0.64124	-3.39467	16.78535
1066.40625	-0.52532	-0.63884	-1.37754	12.53005
1070.31250	-0.92809	-1.03931	-0.56922	5.58180
1074.21875	5.51886	0.17191	-3.38726	7.60789
1078.12500	3.90724	0.57720	-4.59359	12.26110
1082.03125	8.33954	0.98257	-1.77060	13.20492
1085.93750	10.35427	2.99966	-0.55931	4.50163
1089.84375	7.13094	1.39040	-2.57148	3.14111
1093.75000	5.51931	-0.62186	-0.95724	5.41873
1097.65625	10.35464	-0.21647	1.05990	6.79968
1101.56250	1.89316	-1.01988	0.25648	2.35235
1105.46875	7.53423	-1.42038	0.66192	4.47388
1109.37500	9.14608	0.19381	-0.94729	10.35109
1113.28125	7.53438	-0.20670	-4.16828	3.27392
1117.18750	13.57851	-1.81596	-5.37459	-3.85058
1121.09375	12.36983	1.40992	-5.77505	4.38220
1125.00000	8.34064	1.00938	-6.98139	6.80665
1128.90625	1.49088	-2.61461	-8.59063	-2.20971
1132.81250	-0.12075	-3.01509	-9.79696	-1.24964
1136.71875	7.93781	-0.99804	-9.39153	3.68459
1140.62500	9.14659	-0.99565	-8.58324	8.42422
1144.53125	10.35539	-2.20207	-8.17782	9.08435
1148.43750	10.75832	-0.58797	-5.75778	10.98261
1152.34375	14.78765	0.62323	-4.94939	13.59945
1156.25000	15.99649	0.62564	-5.75282	10.87291
1160.15625	12.77312	-0.17779	-3.33271	8.03987
1164.06250	7.53503	-2.19004	-2.92724	7.28082
1167.96875	5.11752	-0.97886	-2.11891	13.25513
1171.87500	10.35568	0.63523	-3.72817	11.95318
1175.78125	10.35574	0.23474	-6.14322	8.04556
1179.68750	5.11773	-0.16583	-7.34956	6.46078
1183.59375	5.52069	1.04535	-6.54125	7.44366
1187.50000	2.29721	1.45070	-5.32999	8.63092
1191.40625	-7.37316	1.85596	-4.52169	15.56110
1195.31250	11.56448	2.26128	-0.89284	20.18366
1199.21875	15.19086	0.65190	-2.09919	8.12677
1203.12500	1.08832	0.65426	-6.12606	-0.09220
1207.03125	10.75867	3.07423	-4.91484	3.95569
1210.93750	11.96751	4.68829	-3.70366	1.44849
1214.84375	7.93826	5.49659	-4.50708	3.36743
1218.75000	5.52065	2.27554	-3.29584	10.22557
1222.65625	7.93829	0.26328	-0.06997	8.85557
1226.56250	9.95307	3.08616	-0.87342	8.09041
1230.46875	1.89455	1.87975	-1.27398	11.91435
1234.37500	-1.73180	-0.93835	-0.46572	7.55775
1238.28125	3.50639	0.67575	-0.06035	7.12285
1242.18750	7.53579	1.88694	1.55376	10.92397
1246.09375	3.90955	1.08348	0.34735	12.16866
1250.00000	9.55060	5.11515	0.75269	13.50745
1253.90625	12.37119	4.31169	1.56094	2.93478
1257.81250	9.14780	0.28479	-0.04836	0.43689
1261.71875	17.60945	1.09302	0.35693	9.74719
1265.62500	25.66815	3.11003	1.16523	12.16014
1269.53125	18.41551	1.90358	-0.04118	5.01052
1273.43750	6.73056	1.50303	-0.03878	4.80490
1277.34375	7.53638	4.32589	-1.64815	3.46917
1281.25000	6.73059	5.93995	-1.24281	6.94454
1285.15625	1.08961	1.91300	2.38597	18.13801
1289.06250	3.10432	3.12413	4.00001	1.32387
1292.96875	1.08977	4.33527	3.19652	-8.59562
1296.87500	-9.78934	-0.49759	-0.42753	1.71834
1300.78125	-7.37173	-2.10694	-0.42519	7.35959
1304.68750	3.10449	0.31301	0.78595	3.91312
1308.59375	-1.73066	1.12122	-1.22636	3.24579
1312.50000	-5.75992	0.31771	-3.64161	2.61673
1316.40625	-2.93941	-0.08291	-2.43047	-7.63283
1320.31250	3.50754	-2.09523	-0.81639	-3.90721
1324.21875	-0.92455	-1.68994	-0.81405	6.55819
1328.12500	-0.92446	-2.89640	-2.02052	5.93502
1332.03125	11.96931	-3.29703	-2.82407	17.48275
1335.93750	-0.11856	0.73456	-0.80713	16.51636
1339.84375	-13.01239	1.94564	-1.20780	-10.73063
1343.75000	-11.80363	2.75377	-2.01134	-13.00762
1347.65625	-23.89163	5.57661	-2.81489	-9.55268
1351.56250	-32.75622	5.98178	-6.03606	-24.84842
1355.46875	-25.50352	5.58116	-9.25724	-33.01341
1359.37500	-30.33872	5.98632	-12.88137	-34.05488
1363.28125	-33.15921	7.60037	-12.47614	-29.79750
1367.18750	-26.30943	7.60271	-11.26507	-31.93970
1371.09375	-28.72704	6.79911	-10.45697	-34.93388
1375.00000	-27.92115	5.99559	-9.24590	-33.73136
1378.90625	-22.28027	4.38620	-7.63197	-29.95255
1382.81250	-15.02757	3.58262	-5.61508	-16.40649
1386.71875	-6.56605	1.97311	-5.20985	-19.72838
1390.62500	-11.40123	1.97535	-4.40171	-17.61760
1394.53125	-10.99843	0.36591	-4.39944	-12.63617
1398.43750	-1.32825	1.97987	-5.20302	-8.89279
1402.34375	-4.95479	3.59392	-5.20073	-5.86797
1406.25000	-10.59595	3.59619	-8.01893	-16.03452
1410.15625	-1.32865	2.79256	-7.21077	-14.40962
1414.06250	-1.73165	-0.42861	-4.38796	-8.81468
1417.96875	-4.14925	-1.63505	-5.19150	-9.95322
1421.87500	-0.52296	-0.42402	-4.78625	-10.26241
1425.78125	3.90915	0.78705	-1.96346	-3.13080
1429.68750	1.49147	1.19228	-0.75238	0.87213
1433.59375	-5.35839	1.19456	-1.15307	-2.93079
1437.50000	1.49125	0.39099	-0.74788	1.52342
1441.40625	8.74388	0.39325	-3.56622	-0.57119
1445.31250	5.11749	1.20134	-5.57866	-1.96974
1449.21875	1.49105	0.39772	-3.15887	-0.38859
1453.12500	6.72898	-0.80887	-0.33619	-4.65997
1457.03125	3.90830	-0.40379	0.47180	0.15714
1460.93750	-1.73296	1.61311	-1.94360	3.47064
1464.84375	9.54882	1.61530	-4.76196	2.35806
1468.75000	4.71352	0.81156	-2.74518	4.36481
1472.65625	-2.13635	2.42548	0.07746	4.52640
1476.56250	5.92212	3.63647	1.69132	0.05383
1480.46875	9.54826	2.83277	2.90228	8.31824
1484.37500	7.53347	1.22330	0.08395	7.03434
1488.28125	-9.79260	0.41966	0.48903	0.21699
1492.18750	-4.55460	0.01894	1.70002	-0.76309
1496.09375	9.54788	-0.78465	0.49339	2.42506
1500.00000	8.33907	-0.78238	0.89854	8.33961
1503.90625	11.15953	0.42871	1.30370	4.81034
1507.81250	9.14489	-0.77779	3.32053	6.90591
1511.71875	1.48905	-2.79017	2.11392	11.29581
1515.62500	-5.36093	-1.57911	1.31027	12.10673
1519.53125	1.89165	-1.17397	2.11830	6.36306
1523.43750	4.30906	0.44005	0.10583	8.18080
1527.34375	-0.12328	0.44231	-0.69786	15.15805
1531.25000	7.12925	-1.97302	2.52772	14.90662
1535.15625	4.30851	-1.56776	2.93277	13.78687
1539.06250	5.51712	-3.98307	3.33788	9.64905
1542.96875	8.74043	-3.98076	2.93710	3.85459
1546.87500	4.30810	-2.76962	2.53638	6.43476
1550.78125	3.50221	-3.17025	4.55321	5.22620
1554.68750	6.32274	-1.15327	2.94365	8.27020
1558.59375	11.96370	-1.55381	0.12537	10.54977
1562.50000	9.94894	-3.16321	-0.27538	-1.31148
1566.40625	5.91967	-1.95206	0.12978	-5.16400
1570.31250	9.54608	0.06495	0.13198	-3.65087
1574.21875	6.32261	-1.54439	-1.07463	-3.63952
1578.12500	8.33714	0.06963	-2.68411	-2.20987
1582.03125	11.15766	1.68373	-0.66724	2.76313
1585.93750	-4.95951	-2.34328	2.15547	0.10365
1589.84375	-8.98888	-4.35558	0.94891	-5.28621
1593.75000	-0.52741	-6.77079	3.36873	8.67616
1597.65625	3.90481	-9.18605	6.19146	18.92137
1601.56250	1.48718	-9.98955	5.38787	19.30916
1605.46875	1.08420	-7.97254	4.58429	17.80431
1609.37500	-4.15405	-3.94090	4.58655	12.39926
1613.28125	-2.13941	-4.34152	4.99170	12.57472
1617.18750	-0.93053	-6.35381	4.59107	12.29999
1621.09375	-12.21262	-5.94853	2.57867	15.69765
1625.00000	1.08424	-4.73739	0.96917	10.86931
1628.90625	9.14289	-1.91453	-0.23737	1.44995
1632.81250	-0.12446	-1.91216	-1.84679	2.40998
1636.71875	7.12835	-2.31276	-2.24749	8.55305
1640.62500	11.15771	0.91303	-1.03646	12.08390
1644.53125	18.41058	4.13884	0.98043	6.70005
1648.43750	19.61945	3.33536	-0.62899	9.00128
1652.34375	17.20187	1.72603	-3.04433	14.03558
1656.25000	10.35216	1.72839	-3.04206	9.29427
1660.15625	1.89066	-0.68683	-2.63683	4.84937
1664.06250	8.74039	-1.89325	-2.63457	6.91067
1667.96875	11.15800	-1.89088	-2.22943	6.43798
1671.87500	1.08484	-3.90317	0.19042	6.74762
1675.78125	-0.92982	-4.30376	0.59556	6.46622
1679.68750	-0.52687	-5.91306	1.40372	1.25499
1683.59375	0.27899	-8.73118	3.01766	5.05843
1687.50000	-0.92977	-9.13178	2.21405	7.85740
1691.40625	-2.13866	-7.92061	1.41043	5.11725
1695.31250	0.27892	-7.51536	1.41267	10.14267
1699.21875	-1.33271	-7.51301	-0.19684	15.81471
1703.12500	-5.76497	-7.91360	-1.00046	14.84847
1707.03125	7.12894	-5.09080	1.01642	9.62896
1710.93750	-3.75021	-4.28266	0.21281	4.30123
1714.84375	1.08497	-5.08619	-1.79961	5.81732
1718.75000	17.20219	-3.87505	-0.58860	10.66082
1722.65625	3.50257	-1.85812	-0.58641	3.64976
1726.56250	2.69669	0.56177	-2.19599	-2.35357
1730.46875	5.11420	0.96700	-0.98501	1.87322
1734.37500	4.71115	-1.04534	-0.17698	2.75460
1738.28125	7.12870	0.56872	-2.99528	1.51368
1742.18750	9.94917	1.37689	-4.60476	3.70298
1746.09375	10.75502	-2.24718	-2.58789	10.58858
1750.00000	13.17261	-5.06536	-2.98864	11.52433
1753.90625	17.60478	-2.64544	-5.40403	9.41305
1757.81250	7.93434	0.98319	-4.59591	5.70629
1761.71875	5.51668	-0.22330	-2.98202	2.92850
1765.62500	15.58994	0.18197	-7.81496	6.95308
1769.53125	18.41040	0.58724	-7.00691	15.51768
1773.43750	28.08070	-1.42507	-3.78125	24.17646
1777.34375	29.28936	0.99478	-5.39079	21.63187
1781.25000	22.43946	1.80300	-5.38855	21.48087
1785.15625	28.88634	-0.61227	-4.58042	30.65970
1789.06250	29.28923	0.19591	-4.17533	34.39489
1792.96875	17.60417	0.19826	-2.15848	35.35454
1796.87500	17.20114	-2.21699	-3.36505	28.74550
1800.78125	20.02165	-2.61753	-6.18336	22.70172
1804.68750	16.79832	-3.01815	-3.36068	23.68735
1808.59375	18.41016	-3.82166	-2.14972	19.79655
1812.50000	13.97792	-3.41638	-4.16222	15.94397
1816.40625	11.96329	-0.19068	-2.54833	16.17053
1820.31250	14.38091	-0.59128	-2.14330	17.88141
1824.21875	11.56036	-2.20074	-1.73822	19.88528
1828.12500	9.14291	-2.60131	0.27858	21.67961
1832.03125	13.57528	-0.18144	-0.12222	15.90129
1835.93750	11.56063	1.83560	-1.32886	13.32327
1839.84375	2.29327	1.03201	-3.34135	12.26684
1843.75000	8.33729	2.24314	-2.53329	4.75183
1847.65625	11.15779	3.05129	-1.72530	10.62438
1851.56250	11.96368	1.44192	-2.12612	12.65473
1855.46875	18.81351	-0.57043	-1.72100	6.50456
1859.37500	17.20179	-0.16525	-1.31593	16.74519
1863.28125	15.99296	0.64296	-0.91080	15.36146
1867.18750	17.20175	-0.56354	-1.71449	8.38413
1871.09375	15.59002	1.45339	-0.50354	13.04571
1875.00000	16.79875	1.85863	0.30443	9.41307
1878.90625	17.60468	1.45795	-0.90225	4.73044
1882.81250	14.78409	-0.15154	-1.30307	10.21795
1886.71875	13.17233	-1.35800	-2.10677	8.50782
1890.62500	6.32249	-2.16161	-2.50753	2.15714
1894.53125	5.51655	-0.95051	-1.29666	5.92992
1898.43750	-2.54205	1.06644	1.52600	12.49384
1902.34375	-8.58597	-1.34878	2.73690	4.63956
1906.25000	20.82801	3.08572	3.54486	0.91992
1910.15625	15.99283	7.92324	3.14402	2.94780
1914.06250	3.50198	5.91091	2.74324	4.91639
1917.96875	9.94888	3.49562	4.35704	16.26876
1921.87500	7.53121	3.49794	2.34449	3.46878
1925.78125	-0.12447	1.88856	1.13780	-7.53144
1929.68750	7.53116	1.48789	-0.47178	1.70963
1933.59375	-1.73628	2.69898	-2.08142	3.95071
1937.50000	-6.57155	2.70125	3.15879	3.16679
1941.40625	5.91919	-0.11704	4.36970	3.48984
1945.31250	1.48699	-1.72647	2.35716	2.09115
1949.21875	-6.16866	-1.72418	2.76217	1.65765
1953.12500	-10.60100	-1.72189	5.18176	4.23613
1957.03125	-5.36292	-1.31665	4.78094	1.80048
1960.93750	-0.93069	-1.31434	4.78303	-2.13861
1964.84375	-2.13960	-0.90916	7.60560	-4.05706
1968.75000	-14.63052	-2.51859	7.60765	-10.91474
1972.65625	-13.42177	-4.12807	6.80385	-3.90334
1976.56250	-4.96035	-1.70817	7.61173	-1.12313
1980.46875	-2.94577	1.51756	3.58447	-6.96126
1984.37500	4.70987	1.11689	-0.03988	-3.40999
1988.28125	0.27756	0.31329	2.37978	1.05473
1992.18750	2.69516	1.12139	4.79945	3.70111
1996.09375	3.90402	0.72075	3.99561	-1.97521
2000.00000	-0.52820	0.32005	3.59479	-8.14856
2003.90625	-0.12525	-0.48349	2.38805	-6.84271
2007.81250	2.69526	-2.49586	1.98715	-3.53839
2011.71875	-2.13985	-2.49365	4.80980	2.06035
2015.62500	-16.24239	-1.68562	4.40893	2.06551
2019.53125	-2.54269	0.33123	1.99337	-2.87226
2023.43750	8.73934	1.54227	-1.22800	-1.45729
2027.34375	5.11294	1.94752	-2.03179	5.52007
2031.25000	7.12756	1.54691	-0.82100	1.64227
2035.15625	-0.52810	-0.06259	-0.81901	-6.32726
2039.06250	2.69539	1.95433	0.39183	-3.61507
2042.96875	7.93348	1.95659	-0.41198	-1.35083
2046.87500	-1.33397	-1.26462	-1.21590	-1.59113
2050.78125	-1.73703	-1.66533	-0.40803	-0.78510
2054.68750	1.88925	-1.26010	2.41444	-2.97913
2058.59375	-1.73727	0.75680	2.01346	-2.71427
2062.50000	-0.12558	-0.04689	0.40377	0.73584
2066.40625	1.08312	-0.44757	0.40579	0.50968
2070.31250	1.08301	1.97225	0.00483	1.61978
2074.21875	-2.14055	-0.44317	1.21564	-2.39821
2078.12500	-5.76709	-0.03810	1.21765	-4.99793
2082.03125	1.48554	-1.24463	2.02549	-0.02514
2085.93750	-8.99082	-0.43654	2.43042	3.76214
2089.84375	-7.78221	-0.03141	0.01478	4.41603
2093.75000	8.33482	-2.44672	0.01676	3.87277
2097.65625	9.54333	-1.63864	1.63053	-3.61111
2101.56250	9.94612	-0.02470	1.22959	-4.83517
2105.46875	-1.33603	-3.24587	-0.38010	-0.29631
2109.37500	0.67841	-5.25830	0.42774	-1.26911
2113.28125	9.94560	-2.03272	1.63854	4.95012
2117.18750	2.28969	-2.03053	1.64051	1.04876
2121.09375	-7.78375	-4.04297	-1.17807	-14.08865
2125.00000	-2.94882	-1.62316	-2.78779	-12.47037
2128.90625	6.31836	1.19952	-1.97998	-3.75810
2132.81250	1.48293	-0.00708	-3.18683	-0.78370
2136.71875	-2.94953	-1.61658	-2.78195	2.13561
2140.62500	-3.75558	-3.22608	-0.76538	4.86040
2144.53125	-1.74107	-3.62683	-1.56929	3.50565
2148.43750	0.27345	-1.60997	-1.97030	-0.64033
2152.34375	4.70559	1.21272	-0.75957	-0.84423
2156.25000	-0.12967	0.81204	-2.77230	0.45836
2160.15625	0.27312	-0.39453	-3.17331	1.25144
2164.06250	8.33173	1.21939	-4.78305	1.29790
2167.96875	9.13750	2.43042	-5.58697	-3.20417
2171.87500	11.15198	1.62680	-2.36160	-4.10336
2175.78125	6.31668	2.83783	-2.35964	-1.96727
2179.68750	3.89896	4.85473	-3.56648	0.87995
2183.59375	-8.18915	1.23055	-1.95287	6.29480
2187.50000	-0.13066	1.23277	-0.33920	0.63218
2191.40625	15.98645	4.05556	3.69200	-3.31682
2195.31250	1.07801	3.65484	2.88806	2.11145
2199.21875	-2.14553	3.25411	2.08406	-1.08106
2203.12500	7.52467	4.06225	3.69775	-1.64440
2207.03125	14.77737	5.27321	2.49088	1.19459
2210.93750	8.73346	4.06669	1.68693	2.71661
2214.84375	4.70409	4.87475	2.49469	6.65010
2218.75000	10.34502	4.87695	4.51126	5.44954
2222.65625	5.50967	4.07330	4.51316	8.91464
2226.56250	0.27147	6.89601	3.30626	10.97000
2230.46875	-0.13151	4.88360	3.71110	-3.74095
2234.37500	-0.53456	4.07998	4.11589	-7.29185
2238.28125	-3.75805	6.09683	2.10313	2.34647
2242.18750	-1.34040	5.69607	1.70211	1.31236
2246.09375	4.70359	6.50412	3.31568	-3.48692
2250.00000	-0.13159	5.70046	3.72053	-3.35703
2253.90625	-18.66645	6.50852	3.31946	-4.25954
2257.81250	-11.01088	7.31658	3.32135	-1.11657
2261.71875	5.10627	7.31878	4.12908	-2.68560
2265.62500	1.07693	6.51514	4.13097	-7.92836
2269.53125	-2.95244	6.11446	2.52116	-5.00481
2273.43750	-7.78767	6.92252	2.12010	-6.82229
2277.34375	-16.24933	4.91008	2.52494	-9.36690
2281.25000	-3.35564	3.30053	2.92977	-1.86234
2285.15625	8.32935	2.49687	4.94632	1.27233
2289.06250	-4.56445	-1.12729	2.53062	-1.84224
2292.96875	-11.81733	1.29241	0.11493	-6.52368
2296.87500	-6.57930	3.30922	-0.28605	-9.50640
2300.78125	-3.35588	1.69970	-1.49295	-7.49157
2304.68750	-1.74422	0.09014	-2.69986	-4.89426
2308.59375	-2.14719	-1.11640	-2.69798	-1.93542
2312.50000	1.07616	1.30336	0.12439	-1.75876
2316.40625	1.88192	2.11152	1.33502	-3.94976
2320.31250	-1.34163	0.50203	1.73979	-2.64192
2324.21875	-4.96817	1.31012	1.74159	-0.63832
2328.12500	-7.38584	-0.70226	0.53457	-2.47056
2332.03125	-3.35668	-2.31169	-0.67242	-7.84611
2335.93750	-0.93921	0.91401	-2.68527	-3.57458
2339.84375	3.89573	1.72212	0.53997	-1.81080
2343.75000	0.26907	0.51556	2.55642	-10.93778
2347.65625	-8.19267	0.92075	2.15528	-3.45380
2351.56250	0.67156	2.13178	0.94830	2.60547
2355.46875	4.70051	2.53692	-1.46743	2.49871
2359.37500	-0.13500	1.33041	-0.65979	2.66566
2363.28125	5.50552	1.33269	0.14789	0.87857
2367.18750	6.31098	1.33494	0.95557	1.15349
2371.09375	7.11645	0.12840	-0.65431	0.57655
2375.00000	8.72773	-1.07805	-1.45836	-1.44468
2378.90625	1.87743	-1.07575	-0.24778	-3.71013
2382.81250	6.30927	-1.07347	-1.05187	-2.65530
2386.71875	1.07089	-1.87715	0.15878	-1.14238
2390.62500	-11.01728	-2.27784	1.36941	-3.06119
2394.53125	2.68217	-0.26094	0.16244	-2.51221
2398.43750	6.71123	-1.46746	0.16425	-0.38086
2402.34375	3.89065	-2.27104	-0.23684	-1.78855
2406.25000	-4.97389	-1.86590	-2.65265	-5.91128
2410.15625	-4.57107	-5.89295	-2.24791	2.56334
2414.06250	18.39582	-3.07018	2.18605	19.03725
2417.96875	3.48727	0.55834	3.79959	5.40780
2421.87500	-33.98537	1.36639	0.98080	-21.89779
2425.78125	-38.82060	0.15978	-0.62915	-31.28628
2429.68750	-45.26748	0.16196	-0.62740	-37.75954
2433.59375	-58.16120	0.16415	-2.23731	-49.62096
2437.50000	-61.38466	-1.44539	-2.23555	-57.65755
2441.40625	-65.81682	-1.04028	-3.44258	-58.54323
2445.31250	-74.27826	-2.64988	-3.03794	-63.56807
2449.21875	-71.05482	0.97868	-1.82738	-64.80729
2453.12500	-69.04017	2.99546	0.59198	-65.45211
2457.03125	-64.60788	1.38584	-0.21212	-63.05242
2460.93750	-68.63716	-2.23837	0.19252	-60.54456
2464.84375	-58.56392	-3.44504	3.01481	-60.44823
2468.75000	-50.90810	-2.23412	3.82238	-51.59146
2472.65625	-46.07283	-0.21735	3.42114	-41.75931
2476.56250	-32.77609	0.59063	1.81119	-36.96423
2480.46875	-37.20829	-1.82484	2.61879	-29.90848
2484.37500	-30.35837	-1.82273	1.41174	-24.74539
2488.28125	-21.89669	-1.01471	-0.60116	-28.33916
2492.18750	-25.92588	-1.81852	-1.00236	-24.08104
2496.09375	-25.52295	-2.62228	-0.19473	-19.28119
2500.00000	-17.46429	0.20032	0.20988	-14.97834
2503.90625	-17.46419	0.60538	-2.20594	-8.03134
2507.81250	-17.46408	-2.21301	-2.20421	-10.36792
2511.71875	-13.83758	-2.21089	-1.39662	-3.96325
2515.62500	-8.59945	-0.99996	-4.21539	-0.73454
2519.53125	-4.97311	-1.80373	-6.22836	-2.44871
2523.43750	-5.37590	-2.20446	-3.40608	-1.03376
2527.34375	-2.15239	-1.79942	-1.38973	-0.50331
2531.25000	-2.55538	-4.21486	-1.79098	-2.36628
2535.15625	-7.39055	-3.00397	-0.98342	-2.27705
2539.06250	-4.97299	-1.39017	2.24175	-1.57946
2542.96875	-2.15240	-3.40274	2.64643	1.08777
2546.87500	-1.34654	-0.98305	1.84231	6.48862
2550.78125	-2.55536	0.22779	0.23227	1.65385
2554.68750	-11.82273	1.03580	1.03983	-2.95764
2558.59375	-11.41975	0.23201	1.44450	-2.28974
2562.50000	3.48862	1.04005	-1.77724	-0.85415
2566.40625	5.90621	3.86266	-2.98431	-1.08024
2570.31250	-2.55540	3.46184	-4.59429	-1.98470
2574.21875	-10.61411	-0.56533	-3.38378	-2.37623
2578.12500	-3.36148	-1.77201	-3.38208	-5.37884
2582.03125	2.27938	-0.15812	-4.58918	-6.85283
2585.93750	1.47357	1.85865	-0.15523	-12.73570
2589.84375	-12.62879	1.45782	1.05521	-14.90190
2593.75000	-21.09018	1.05703	-4.98703	-12.62421
2597.65625	-14.24020	3.47669	-4.58236	-16.48141
2601.56250	-11.82243	5.89638	0.25451	-19.71983
2605.46875	-16.65742	4.28678	-2.96725	-27.67134
2609.37500	-20.28358	5.49761	-4.98020	-30.25551
2613.28125	-21.49211	7.91728	-0.14327	-27.66220
2617.18750	-31.56522	9.53110	-2.55915	-39.21880
2621.09375	-40.83252	9.53320	-7.39257	-52.74402
2625.00000	-46.87634	11.95284	-8.59964	-50.72243
2628.90625	-44.86155	13.16374	-4.56862	-43.21862
2632.81250	-42.04089	12.36000	-5.77573	-49.91423
2636.71875	-52.91989	13.97379	-9.40038	-60.29132
2640.62500	-61.78438	12.36417	-7.38404	-70.46017
2644.53125	-77.90151	11.56039	-5.77069	-82.29098
2648.43750	-93.61581	12.77121	-5.36609	-94.89836
2652.34375	-89.18359	14.38504	-4.96154	-86.64065
2656.25000	-87.57187	13.17833	-2.54228	-93.79966
2660.15625	-104.89793	11.16578	-2.13767	-113.15305
2664.06250	-96.83944	9.95909	-2.94190	-104.24199
2667.96875	-96.83949	8.75238	-4.14898	-102.70002
2671.87500	-106.10694	7.14279	-0.92396	-103.19627
2675.78125	-89.58689	5.93610	5.12170	-93.00146
2679.68750	-96.03381	3.11770	6.73504	-93.78054
2683.59375	-96.43675	1.10515	5.52788	-90.78308
2687.50000	-84.75187	-0.90741	8.35002	-75.49325
2691.40625	-81.52845	-2.91999	9.96342	-69.36905
2695.31250	-71.85812	-1.70918	8.35330	-62.32905
2699.21875	-57.35270	-3.72177	9.56374	-48.19555
2703.12500	-46.07073	-7.74899	5.13316	-40.70045
2707.03125	-33.17701	-6.53809	3.52305	-35.84676
2710.93750	-33.98291	-5.73015	5.13645	-36.33941
2714.84375	-25.92425	-5.72806	1.91462	-32.40603
2718.75000	-7.79255	-6.12885	0.70744	-18.29523
2722.65625	-8.19554	-6.52973	-0.09681	-11.60676
2726.56250	-0.94273	-6.12469	-1.70697	-3.50749
2730.46875	14.36859	-5.31675	-1.30242	5.55448
2734.37500	12.35390	-5.71760	-2.50964	6.83874
2738.28125	12.35380	-6.11839	-4.11974	16.07399
2742.18750	17.99470	-6.51925	-3.71526	21.88956
2746.09375	24.44156	-7.32300	-3.31071	27.56635
2750.00000	34.91769	-5.30626	-2.50327	36.96353
2753.90625	37.73815	-3.69249	-3.30752	37.67266
2757.81250	39.34988	-5.70507	-3.30594	46.45662
2761.71875	50.63178	-5.70300	-2.49852	50.52859
2765.62500	49.42276	-6.10383	-4.51158	48.50908
2769.53125	52.64602	-6.10178	-1.68950	57.03291
2773.43750	47.00485	-5.29391	-0.07619	59.91556
2777.34375	46.19885	-8.51534	0.32825	54.52542
2781.25000	47.00453	-8.11036	1.13565	53.00346
2785.15625	51.03369	-6.09370	-1.28036	54.83650
2789.06250	59.89815	-7.30053	-4.09932	48.73776
2792.96875	50.63072	-6.89564	-1.27731	48.61968
2796.87500	42.57197	-5.68482	-2.48459	44.54848
2800.78125	38.94550	-6.08569	-4.49770	38.98028
2804.68750	33.70741	-5.68075	-3.28737	36.39096
2808.59375	36.12495	-3.66407	-2.07703	29.91292
2812.50000	40.95996	-4.87078	-2.07549	32.89305
2816.40625	38.54226	-5.27170	-2.47692	35.43234
2820.31250	33.30409	-3.65797	-0.05779	37.48389
2824.21875	31.69223	-4.46177	-1.66801	39.67329
2828.12500	38.13899	-4.45973	-4.88993	42.86362
2832.03125	34.91544	-5.26355	-2.47080	46.17018
2835.93750	26.45388	-5.26151	-0.05168	41.27570
2839.84375	25.24505	-4.05067	-0.85607	34.01432
2843.75000	36.92994	-2.43695	0.75719	42.52950
2847.65625	37.73573	-3.64372	1.16159	41.65442
2851.56250	33.30352	-4.44755	-2.46326	33.24142
2855.46875	33.70631	-4.04257	-2.46176	34.27225
2859.37500	34.10909	-3.23470	-1.25145	30.18897
2863.28125	31.69139	-1.21801	-2.05578	30.05927
2867.18750	28.87083	-3.63359	-1.24844	31.12049
2871.09375	24.84144	-3.63159	-1.64990	31.16820
2875.00000	24.43841	-1.61495	-1.64840	32.54820
2878.90625	28.46757	-1.20999	-2.85569	25.20599
2882.81250	25.24404	-0.40214	-3.66004	23.62587
2886.71875	20.40890	-1.60892	-2.85272	25.76856
2890.62500	22.82645	-1.20394	-0.83660	21.40846
2894.53125	19.60286	-0.39607	0.77663	19.98030
2898.43750	19.19974	-0.79695	1.18099	22.29241
2902.34375	17.58784	-4.42132	-0.02626	19.61168
2906.25000	18.39341	-7.23980	-2.03942	20.36307
2910.15625	24.43706	-6.02900	-1.23208	26.92217
2914.06250	24.03381	-6.02700	-0.02180	30.00419
2917.96875	19.19836	-2.80156	0.38257	23.06112
2921.87500	17.58636	-1.18785	0.38405	16.41266
2925.78125	20.40660	-4.00633	-0.01736	20.95091
2929.68750	15.16823	-4.00432	-1.62762	18.28912
2933.59375	11.13859	-3.19646	0.38851	23.52804
2937.50000	13.15292	-0.77684	2.40465	21.06654
2941.40625	17.98772	0.83686	-0.01144	11.21710
2945.31250	13.15224	-0.77284	-0.81591	12.62912
2949.21875	6.30215	0.84086	0.39434	10.41332
2953.12500	7.91362	-1.17178	-1.21592	8.60274
2957.03125	15.97203	0.03904	-2.42326	12.27905
2960.93750	16.77759	4.07036	-3.22764	12.49429
2964.84375	13.15100	1.25188	-2.82329	10.31176
2968.75000	20.40349	1.25387	-2.82186	9.33478
2972.65625	18.79150	2.86756	-2.82044	12.61935
2976.56250	14.76198	2.06373	-1.61020	5.96462
2980.46875	15.97056	0.45396	0.00300	8.96964
2984.37500	17.98499	0.85891	-1.20435	12.39387
2988.28125	20.40244	2.06972	-1.60586	5.78350
2992.18750	10.73194	0.45998	-0.39561	9.37908
2996.09375	2.27024	-1.55267	0.41169	12.99969
