 	TP9	AF7	AF8	TP10	
-1000.00000	-15.89916	-5.77385	-2.02806	-5.95726
-996.09375	-12.67612	-4.56525	-3.23691	-7.16639
-992.18750	-7.84122	-3.35671	2.00106	-8.77855
-988.28125	-11.46791	-2.55098	2.00093	-12.00240
-984.37500	-10.66237	1.88101	4.41829	-9.18229
-980.46875	-6.23039	1.07496	4.01523	-7.57103
-976.56250	-7.84236	-4.96918	-2.02893	-9.98909
-972.65625	-3.41035	-5.37233	-0.82032	-7.16898
-968.75000	3.84214	-2.95492	0.38830	-5.15478
-964.84375	14.31797	-3.76097	-0.01481	-2.73769
-960.93750	17.13824	-3.35826	-1.22368	-2.33517
-957.03125	18.34673	-0.53787	-1.62676	1.69372
-953.12500	22.37570	1.87950	-0.41807	6.93140
-949.21875	14.31673	3.08814	-1.22404	5.72218
-945.31250	11.49588	2.68506	-0.82127	7.33350
-941.40625	11.89849	1.07313	-1.22427	9.75061
-937.50000	7.06298	1.07294	0.38730	10.95899
-933.59375	6.25682	3.08740	0.38716	10.15272
-929.68750	2.22719	3.08721	-2.83643	6.52589
-925.78125	-0.59368	1.47532	-2.03069	6.92847
-921.87500	4.24106	4.69856	6.02788	10.95738
-917.96875	0.21136	2.68370	7.23650	8.53935
-914.06250	-7.04174	-1.74875	2.80418	4.10676
-910.15625	-3.81865	0.26567	3.60991	2.89753
-906.25000	-5.43073	0.26545	4.01274	2.09124
-902.34375	-5.02811	0.26526	1.19208	4.91134
-898.43750	-4.62549	-0.94372	-3.24020	1.68753
-894.53125	-4.22289	-1.74974	1.19189	-1.93920
-890.62500	2.22368	-0.13825	6.02696	0.07505
-886.71875	-0.19427	-3.36190	3.20627	0.88051
-882.81250	0.61128	-7.39140	1.59444	1.68598
-878.90625	2.62559	-4.16814	1.99726	0.07392
-875.00000	-2.61280	-2.55656	1.99713	0.07354
-871.09375	-4.62773	-2.55674	1.59406	0.87899
-867.18750	-7.44860	-3.76575	1.19100	-1.53902
-863.28125	-4.22547	-2.55713	1.19089	-1.53945
-859.37500	-0.19647	0.26320	-0.01804	-3.95745
-855.46875	1.01205	1.47181	2.39943	-3.55491
-851.56250	2.22057	3.88917	6.42858	4.50328
-847.65625	4.23500	1.06854	-0.01846	-0.33222
-843.75000	1.01130	-1.34919	-3.64495	-7.98824
-839.84375	-3.01837	-0.94644	-1.22749	-3.55640
-835.93750	1.81641	1.06797	-0.42176	0.47244
-832.03125	1.01022	1.47070	2.80159	2.08380
-828.12500	3.02455	0.66465	3.60732	4.50094
-824.21875	6.65063	1.47032	-1.63090	2.08298
-820.31250	6.24735	-0.54449	-1.63104	-3.15558
-816.40625	3.02355	-4.57395	3.20396	-1.14140
-812.50000	9.87309	-1.75362	5.62141	3.69327
-808.59375	14.30493	1.46964	5.21831	4.09578
-804.68750	3.02254	-2.96281	4.00945	4.49823
-800.78125	1.41051	-3.36594	2.39757	6.51243
-796.87500	6.24532	1.87199	1.18864	4.09443
-792.96875	4.23032	2.27474	3.60611	1.67636
-789.06250	-1.00812	0.25991	1.59133	-0.33877
-785.15625	-1.00845	0.25972	-2.43809	-2.35390
-781.25000	-2.62048	-4.17272	-3.24407	-3.56319
-777.34375	-6.24721	-4.17291	0.78511	-3.56366
-773.43750	-1.00944	1.06499	3.60548	-1.14655
-769.53125	-1.81563	-1.75571	0.38189	-1.14706
-765.62500	-7.05404	-6.18812	0.38175	-4.37096
-761.71875	-2.62207	-4.97947	1.99338	-0.74504
-757.81250	-0.20483	-3.77085	1.59029	0.86626
-753.90625	2.61542	-3.77104	1.99311	0.46286
-750.00000	7.45028	-2.15953	-0.82759	2.07420
-746.09375	8.65874	-1.35386	-4.05117	3.68549
-742.18750	5.03197	-2.96573	-2.43948	5.69975
-738.28125	13.09035	-2.16007	1.99267	7.31112
-734.37500	15.50759	1.46610	-0.02221	6.90771
-730.46875	7.04570	2.27173	-2.84285	5.29558
-726.56250	5.43368	0.25691	1.99223	7.30981
-722.65625	4.22455	-1.35504	2.79793	6.10057
-718.75000	3.41837	-2.96693	2.39484	5.69717
-714.84375	5.83563	1.86802	5.21521	9.32313
-710.93750	5.02938	1.06195	4.40918	8.11387
-707.03125	-0.20909	-4.17638	2.39435	2.06947
-703.12500	-2.62696	-3.37076	2.79715	-0.34859
-699.21875	1.40202	-2.16216	4.40869	1.26264
-695.31250	9.05734	-0.55062	3.60272	2.87394
-691.40625	5.43070	0.25498	2.39381	6.09696
-687.50000	-4.64289	-2.56577	1.18489	4.48481
-683.59375	-1.41979	-4.17776	0.37891	0.05223
-679.68750	0.99746	-1.76037	-0.42705	0.45476
-675.78125	-0.61453	0.25407	0.37868	1.66320
-671.87500	-0.21199	-3.37255	-0.02441	1.66283
-667.96875	-0.21234	-2.56685	-0.83040	2.06541
-664.06250	2.60795	0.65638	-2.44220	3.67672
-660.15625	2.60767	-0.55263	-3.65112	0.85584
-656.25000	4.62202	1.05884	-1.23368	-1.96506
-652.34375	13.48619	2.26741	0.78082	-0.75673
-648.43750	3.41265	-3.37383	-3.24859	-2.36882
-644.53125	-0.21407	-5.38865	-5.26337	-0.35460
-640.62500	5.82961	-1.76243	-5.26349	1.25664
-636.71875	1.79994	-0.55379	-5.26362	-4.38479
-632.81250	-1.42377	-3.37449	-2.84621	-3.17647
-628.90625	-1.82706	-4.18052	1.18293	-0.75945
-625.00000	-1.02154	-3.37485	0.37692	-4.78926
-621.09375	0.58989	-4.98671	-2.44372	-2.77509
-617.18750	2.60425	-2.16638	-0.02631	-1.16378
-613.28125	-0.61946	-1.36069	1.58533	-3.58181
-609.37500	0.58903	-2.56962	2.79399	0.44706
-605.46875	7.84149	-0.95810	3.59970	6.08771
-601.56250	5.02067	-0.95825	4.80838	6.89316
-597.65625	3.00571	0.25039	4.00241	6.48980
-593.75000	1.39368	2.66780	2.79345	5.68351
-589.84375	-2.23303	2.26464	1.18153	8.50355
-585.93750	-6.66547	0.65278	1.18140	8.90611
-582.03125	-6.66572	2.66727	4.40473	7.29405
-578.12500	-10.69532	0.24947	-0.02765	4.47314
-574.21875	-15.12773	-5.79466	-2.44533	3.66693
-570.31250	-12.71039	-7.80948	0.37502	2.05492
-566.40625	-5.86077	-3.37749	0.77782	-1.97467
-562.50000	-1.83172	-0.15426	1.18056	-1.57210
-558.59375	-4.24956	0.24850	0.37454	-3.18411
-554.68750	-1.02632	1.05416	-0.83443	-4.39322
-550.78125	-0.62355	-0.55774	-0.43160	-0.36419
-546.87500	-4.65301	-1.76675	-0.83470	0.03850
-542.96875	-5.86193	0.24768	-0.83489	1.64994
-539.06250	-5.86193	0.24753	-2.44677	4.06735
-535.15625	-7.47363	-0.96138	-1.64109	1.24667
-531.25000	-5.05606	-0.15567	1.17922	0.03777
-527.34375	-1.42973	-0.96170	-0.43270	0.03758
-523.43750	2.19659	1.85857	1.58174	2.05209
-519.53125	6.22591	3.87303	2.38741	1.24605
-515.62500	2.19665	-2.17108	-1.64205	-1.57456
-511.71875	-0.22091	-2.57413	-1.64219	-1.17169
-507.81250	4.61434	1.05204	-2.85117	0.43993
-503.90625	5.01735	1.05190	-0.83671	0.43987
-500.00000	-2.23526	-0.55991	2.38655	-3.58950
-496.09375	-5.05563	-0.96301	-0.43413	-6.41008
-492.18750	-0.62330	1.05145	-0.83730	-4.79853
-488.28125	-0.22038	2.26002	-1.24041	-3.58987
-484.37500	-1.02623	1.05103	-1.24058	-5.60465
-480.46875	-1.42916	1.45383	0.37097	-3.99312
-476.56250	-4.65267	2.25950	1.98258	-1.97856
-472.65625	-4.65282	1.85634	2.78825	-0.36707
-468.75000	-3.04132	1.45324	-1.64416	0.84147
-464.84375	-0.22101	5.07937	-1.64434	2.45285
-460.93750	3.00225	7.89972	1.17595	4.06431
-457.03125	2.19619	1.85555	-1.24175	3.66101
-453.12500	-2.63928	-0.96513	-0.43606	3.66056
-449.21875	3.80729	1.45230	1.17548	2.45131
-445.31250	3.80695	-0.56248	0.36950	2.45085
-441.40625	-1.83452	-0.15977	-1.64527	6.07675
-437.50000	0.98552	2.25763	-1.24241	7.68791
-433.59375	3.80559	3.06332	-0.03375	2.44925
-429.68750	9.84905	1.85436	-1.24258	1.64287
-425.78125	12.26606	1.45127	-1.24265	3.25409
-421.87500	13.87726	3.46572	0.77189	-0.37289
-417.96875	10.65332	3.86842	-4.06343	-1.58228
-414.06250	9.04106	2.25652	-6.07817	-1.98578
-410.15625	6.62297	2.25629	-2.45189	-5.20988
-406.25000	11.05472	1.85312	-2.85496	-4.80765
-402.34375	17.90405	2.65885	0.77137	-1.98770
-398.43750	4.20390	-0.16187	-0.43748	-7.62935
-394.53125	-4.66100	-4.99717	-2.04929	-9.64458
-390.62500	-5.06442	-3.78854	-0.43759	-7.22757
-386.71875	-2.64727	-2.98286	-0.03475	-4.40768
-382.81250	-2.64772	-4.19183	0.77109	-4.40827
-378.90625	-3.05110	-3.78909	0.36806	-6.02060
-375.00000	-1.84268	-1.37176	0.36797	-0.78305
-371.09375	-4.66356	-2.58068	-0.43799	1.23105
-367.18750	-2.64932	-2.58085	-0.43809	-0.78415
-363.28125	-4.66438	-1.77520	0.36764	-0.78471
-359.37500	0.17037	-3.38714	0.77047	0.42354
-355.46875	7.01977	-3.79020	0.36742	2.43765
-351.56250	-3.05388	-2.58159	-0.03566	3.64589
-347.65625	-3.45719	-2.98473	-1.24453	3.24245
-343.75000	-1.04002	-0.97027	-0.84175	5.65948
-339.84375	-0.23455	0.64129	-0.03603	4.45018
-335.93750	5.40620	1.84984	0.76978	4.85269
-332.03125	7.82359	5.47606	1.97847	6.06107
-328.12500	4.19696	3.46125	-3.25974	-1.99794
-324.21875	2.98801	-0.56823	-5.67746	-5.62470
-320.31250	3.39081	-0.56846	-5.27467	-3.61041
-316.40625	1.37600	-0.16577	-6.88657	-5.22240
-312.50000	-1.44461	-0.16596	-8.09550	-7.23729
-308.59375	-1.84764	1.04264	-6.48392	-5.22285
-304.68750	-3.05646	0.63953	-2.85773	-6.02890
-300.78125	-0.23593	-3.79293	-2.85788	-10.86412
-296.87500	-0.23590	-2.98728	-3.26090	-9.65537
-292.96875	-7.08566	-1.77867	-2.85815	-4.01445
-289.06250	-5.07099	-2.98765	-5.27585	-1.59693
-285.15625	-5.07093	-2.58486	-6.48477	-1.99989
-281.25000	-4.66789	-2.58502	-2.85857	-1.99998
-277.34375	-4.66787	-5.80861	-1.24699	-2.80606
-273.43750	-5.07083	-9.83802	-3.26180	-4.41797
-269.53125	-1.84740	-8.22644	-2.85905	-1.59772
-265.62500	2.58473	-2.18264	5.19938	4.84888
-261.71875	0.97275	-0.97403	5.60218	5.65436
-257.81250	3.39006	-2.58596	2.78152	4.44514
-253.90625	4.19560	-1.78032	5.19893	8.87693
-250.00000	-2.25159	-2.58633	1.97543	10.89112
-246.09375	-3.86359	-1.37775	-0.84522	4.04087
-242.18750	-3.86390	-2.58663	1.16934	1.21985
-238.28125	-6.28185	-1.37806	-0.84539	1.21933
-234.37500	-10.71454	1.84519	-1.24834	0.41292
-230.46875	-9.10324	1.03915	2.37796	2.82994
-226.56250	-5.47739	1.03898	0.76626	1.62058
-222.65625	-3.06029	1.03882	-0.03968	0.41115
-218.75000	-3.46366	0.63574	-1.65143	1.61927
-214.84375	1.37097	2.24726	1.16903	3.63327
-210.93750	7.41441	2.24710	-0.03983	4.84143
-207.03125	5.80227	1.84398	1.57182	7.25841
-203.12500	6.20472	3.45557	2.40152	6.85483
-199.21875	3.78675	0.63491	-7.49114	-2.81613
-195.31250	3.38337	1.84347	-2.61760	-5.63723
-191.40625	3.78585	3.85793	3.95096	-1.20559
-187.50000	1.36777	1.84309	-0.43634	-2.81792
-183.59375	-0.64732	1.44003	-3.62394	-9.66828
-179.68750	0.56104	1.43986	-2.30887	-10.87767
-175.78125	-0.64825	1.03673	0.54864	-6.84897
-171.87500	0.56009	3.05119	0.74369	-5.64073
-167.96875	3.78310	2.24515	-1.17433	-6.44716
-164.06250	-3.87306	-0.17266	-0.77358	-6.04493
-160.15625	-8.30575	-0.97873	-0.74501	-4.43384
-156.25000	-7.09741	-0.57598	-1.52923	-0.00224
-152.34375	-8.70958	-0.57617	1.55353	1.20584
-148.43750	-13.54527	-4.20280	-0.70609	0.39934
-144.53125	-11.93399	-2.59126	-0.33053	4.02513
-140.62500	-10.72572	-2.99441	2.03703	5.63622
-136.71875	-12.74081	-9.44152	1.22407	4.42682
-132.81250	-13.94993	-8.63588	0.73943	2.41162
-128.90625	-11.12979	-5.81550	1.77241	2.41110
-125.00000	-3.47448	-6.62153	4.15110	3.61941
-121.09375	-4.28073	-6.21881	2.81522	3.61891
-117.18750	-2.26636	-4.20433	1.96110	6.43889
-113.28125	-1.86373	-5.41330	1.52515	5.22966
-109.37500	-0.65526	-5.41349	0.21514	3.61743
-105.46875	2.56785	-2.99608	1.38744	3.61695
-101.56250	0.95573	-2.59332	1.18734	4.42228
-97.65625	-1.46220	-3.39943	-1.73388	4.42178
-93.75000	1.76080	-4.20548	0.28492	6.03303
-89.84375	1.35749	-5.81738	4.69381	6.83835
-85.93750	-1.46341	-7.02639	2.65891	4.82319
-82.03125	2.56547	-5.81783	1.58624	6.43435
-78.12500	0.14746	-4.20634	1.82642	4.82210
-74.21875	-3.88224	-2.99772	3.06353	-0.41656
-70.31250	-0.65922	-2.59496	3.52162	-2.43175
-66.40625	-2.67420	-4.20690	-0.09543	-4.84988
-62.50000	-4.28625	-0.98363	1.19123	-5.25331
-58.59375	-2.27193	1.83668	1.76485	-2.43335
-54.68750	-3.88396	-3.80450	-1.01670	-8.47782
-50.78125	-5.89894	-5.41643	-1.69059	-13.71643
-46.87500	-4.28754	-3.80480	-4.45970	-12.10520
-42.96875	-0.25854	-2.59613	-4.83284	-9.68808
-39.06250	2.15873	-2.99927	-2.31962	-7.67397
-35.15625	8.20238	-5.41703	-3.49274	-6.86861
-31.25000	2.56107	-5.01424	-1.27335	-6.86907
-27.34375	-3.08030	-4.20858	1.24875	-7.27244
-23.43750	-1.06592	-5.41759	-1.57815	-7.27289
-19.53125	-3.48377	-4.20897	-5.18680	-2.84113
-15.62500	-3.08118	-3.00033	-3.95956	-1.22981
-11.71875	-1.06683	-4.20929	-1.67399	-2.84199
-7.81250	5.78268	-2.59771	-1.90984	-2.84242
-3.90625	7.39403	-1.79203	-2.74543	-3.64869
0.00000	5.37906	1.83414	0.82008	3.20071
3.90625	6.99049	2.23692	1.61387	6.42364
7.81250	-0.66541	-5.82188	-3.29571	1.58804
11.71875	-2.27743	-7.03087	-3.05863	0.78173
15.62500	-1.06884	-5.82227	-1.08345	1.58714
19.53125	-1.47191	-3.00194	-2.83259	2.79551
23.43750	-2.68091	1.02722	-3.29041	1.58625
27.34375	-7.91925	0.22119	-1.30295	-1.63768
31.25000	-11.14291	-0.98778	-1.79655	-4.45866
35.15625	-9.12848	2.23551	-3.44333	-4.86206
39.06250	-2.68179	3.04125	-3.25014	-2.84784
42.96875	-5.09958	1.02650	-2.55301	-5.26581
46.87500	-11.94957	-1.39122	1.48455	-9.29550
50.78125	-9.93514	-3.40598	4.69552	-9.29587
54.68750	-7.92077	-2.60020	2.26100	-8.49041
58.59375	-4.29465	1.02603	4.00033	-4.05859
62.50000	-2.68305	1.42886	4.23141	-2.85016
66.40625	-5.10083	1.02578	1.03866	-7.68570
70.31250	-1.87764	2.23444	-0.50710	-3.65683
74.21875	0.13669	-0.98917	-2.10440	-0.03084
78.12500	1.34523	-0.58640	0.38380	-0.83713
82.03125	-1.07259	-0.98952	2.96195	-0.83756
85.93750	-5.10207	-2.60137	-2.23674	1.17665
89.84375	-7.11690	0.21899	-4.51198	5.20561
93.75000	-6.71415	0.21886	0.78422	7.62275
97.65625	-2.68510	0.62167	0.40537	8.02527
101.56250	-1.07369	1.02441	-1.92717	4.39839
105.46875	-0.67100	-2.19920	-1.89311	1.98039
109.37500	4.16398	-4.21398	-4.09633	0.77117
113.28125	8.59607	-0.58771	-1.56612	3.18832
117.18750	0.94017	-0.18497	-4.79998	2.78490
121.09375	-1.07472	-5.42323	-6.40484	-2.85658
125.00000	-2.68666	-3.00580	0.86298	-2.45404
128.90625	-6.71624	-0.58836	2.75409	-2.45445
132.81250	-6.71651	-0.18564	0.10991	-3.26069
136.71875	-6.31386	0.62012	-3.14538	-0.84351
140.62500	-3.49353	-0.18592	0.00654	-2.45555
144.53125	-3.09080	1.02276	-2.02540	-3.66472
148.43750	2.55005	1.82847	-4.51015	-1.24748
152.34375	2.14683	0.21664	2.18399	-2.05366
156.25000	-4.70322	-0.99229	2.14432	-2.05403
160.15625	2.95216	-2.60414	-0.01803	1.57192
164.06250	5.36952	-3.41018	2.33787	-0.44311
167.96875	3.35460	0.21608	2.71932	-2.45817
171.87500	7.38359	2.23055	0.62471	1.57071
175.78125	10.60672	5.05088	0.59131	6.00256
179.68750	6.98002	5.45366	-1.23967	-0.44475
183.59375	2.54759	-0.59047	-4.17714	-6.08622
187.50000	0.93558	0.21521	-5.37376	-2.05726
191.40625	4.56169	4.24433	-9.00179	-2.05767
195.31250	3.35263	3.84121	-6.59755	-3.66984
199.21875	8.18753	4.24398	-0.83742	2.37367
203.12500	10.20190	6.25843	-1.01867	5.19378
207.03125	1.74010	1.82603	-3.00056	-3.26817
210.93750	1.73985	-1.80045	-2.52094	-5.68617
214.84375	4.96303	1.82575	-2.09827	0.76027
218.75000	3.35108	0.21391	-5.25818	-0.85194
222.65625	1.33618	-0.99503	-7.52535	-1.25528
226.56250	-0.67870	-1.39814	-6.27706	2.77355
230.46875	1.73864	-0.59240	-5.72157	2.37013
234.37500	-0.27623	-0.18966	-6.05949	1.56386
238.28125	0.93235	-2.60732	-3.62322	1.56344
242.18750	3.75268	-0.99577	-5.56345	-1.25751
246.09375	-2.69450	-0.59300	-5.93412	-2.06379
250.00000	-1.48594	-0.59316	-0.47227	-2.46715
253.90625	0.93139	-3.01091	-0.35132	-2.87051
257.81250	2.94581	-3.01105	-1.17138	-0.05035
261.71875	5.76610	1.01808	0.83930	1.56093
265.62500	6.97458	1.82371	-1.16399	-0.45414
269.53125	6.57149	-0.99698	-4.50262	-0.05156
273.43750	8.98888	-1.80298	-3.10803	3.57442
277.34375	13.01802	1.82318	-0.72425	4.37987
281.25000	10.60021	-2.20630	-4.02991	-0.85864
285.15625	6.16776	-6.23577	-6.06727	-2.47077
289.06250	1.33237	-3.01250	-2.50113	3.16987
292.96875	-0.27961	-4.22147	0.17383	4.37821
296.87500	0.52610	-3.01283	2.14888	8.00420
300.78125	0.52589	-2.20713	3.19979	12.83892
304.68750	2.13734	-3.41605	2.32520	14.85316
308.59375	2.94292	-5.43085	0.69736	14.04689
312.50000	-1.48954	-6.23686	1.83690	13.24059
316.40625	2.13655	-5.83407	0.19366	15.25476
320.31250	9.79199	-6.23721	-2.85546	16.06012
324.21875	0.52432	-5.02859	2.66023	11.22444
328.12500	-5.11694	-5.02875	4.28777	6.38874
332.03125	-3.10253	-4.22308	-0.53821	5.98542
335.93750	-3.10278	-5.43205	-2.56241	3.16453
339.84375	-1.89420	-4.22341	-0.83979	2.35824
343.75000	2.53783	1.41748	3.40177	2.76081
347.65625	-0.68586	1.01437	1.01866	-5.29816
351.56250	-0.28318	0.61134	-1.71451	-7.71614
355.46875	2.53721	0.61122	-1.28624	-4.89604
359.37500	1.73112	1.01400	-1.22967	-4.89644
363.28125	0.11921	0.61100	-0.28364	-5.70267
367.18750	-2.29865	0.20791	-1.45309	-3.68844
371.09375	0.52173	0.61076	0.32140	-1.27120
375.00000	-0.68725	-1.40402	1.60238	0.74312
378.90625	-2.70216	-1.00117	0.40692	-0.06309
382.81250	-3.91116	1.81922	0.06766	2.75705
386.71875	-4.31429	1.41622	0.90378	4.77134
390.62500	-2.70274	0.61026	1.53973	2.35341
394.53125	-3.50878	3.43063	-3.16599	4.36772
398.43750	2.93788	2.22169	-2.78078	8.79959
402.34375	2.93771	1.01277	5.66594	10.41099
406.25000	-5.12104	-1.40494	3.65870	9.20184
410.15625	-7.53881	-2.61379	0.73120	7.18683
414.06250	-9.15068	-1.00220	4.14994	8.39517
417.96875	-7.94207	-2.21115	3.30861	7.99181
421.87500	-5.52477	-1.40546	1.60408	5.97671
425.78125	-4.31622	0.20618	3.18744	4.36455
429.68750	0.11581	-2.61443	2.73108	0.73777
433.59375	1.72725	-1.40582	-0.22459	1.54316
437.50000	0.92112	2.62341	-0.26394	5.57197
441.40625	1.32380	1.01152	0.77687	3.55686
445.31250	1.72645	1.01139	0.29803	4.76520
449.21875	2.12916	3.83175	1.09296	5.57054
453.12500	-0.69155	3.83159	1.03450	2.34661
457.03125	-1.49761	3.02559	1.40819	3.15208
460.93750	-2.70667	1.81663	1.97622	1.13693
464.84375	-3.91573	0.60776	-1.78397	-4.10158
468.75000	-8.75112	-1.40708	-4.98820	-6.92249
472.65625	-3.91626	-2.61601	-4.16231	-7.72875
476.56250	-2.70770	0.20431	1.87608	-2.49104
480.46875	-9.15482	1.41295	3.18762	0.73202
484.37500	-13.99016	-5.03409	-2.65367	-5.31230
488.28125	-11.16984	-7.04887	-3.42357	-4.50683
492.18750	-7.54364	-5.43731	0.30080	-2.89549
496.09375	-8.75256	-7.45210	3.55539	-5.71633
500.00000	-3.11181	-5.84049	3.20245	-3.70202
503.90625	5.75250	-1.00550	1.31765	0.72988
507.81250	4.94644	-1.00565	2.96827	2.34122
511.71875	2.12575	-0.19995	1.93225	-0.07668
515.62500	3.33432	0.20286	-0.80888	1.93762
519.53125	4.13997	1.00859	-1.20353	3.14607
523.43750	3.33394	0.20262	-3.56817	1.13099
527.34375	3.33376	1.81416	-2.73449	1.93651
531.25000	2.52771	3.02279	-1.68646	1.13020
535.15625	2.52749	3.02262	-2.35427	3.54742
539.06250	9.37702	5.44006	-3.18108	1.93538
542.96875	14.21189	6.24576	0.01671	3.94968
546.87500	7.36187	6.64858	2.03461	4.75516
550.78125	2.12357	4.63381	-4.91424	-1.28917
554.68750	0.10869	2.21610	-10.35036	-2.49839
558.59375	-1.10035	2.21594	-4.74618	0.72463
562.50000	-2.30937	3.82745	0.79129	6.36518
566.40625	-3.11540	2.21558	-1.66058	3.54422
570.31250	-5.53316	1.00662	-2.51339	-0.08257
574.21875	-0.69811	1.81231	-2.63823	-1.29179
578.12500	-1.10125	-0.20251	-3.07993	-2.09805
582.03125	-4.32491	0.60322	-0.84031	1.52788
585.93750	-3.92216	1.81178	-0.11783	4.75092
589.84375	-11.17509	-0.60596	-0.52679	3.13880
593.75000	-11.57825	-0.20327	-0.17152	2.73547
597.65625	-7.54923	3.42296	-1.81001	6.76439
601.56250	-7.95237	2.61695	-2.86275	4.74935
605.46875	-9.56433	-1.41256	-0.58771	3.13729
609.37500	-8.75865	1.00490	1.04631	5.15156
613.28125	-2.71498	0.60185	-3.35503	-2.50453
617.18750	3.32875	-1.41301	-6.57968	-7.34006
621.09375	2.92560	0.60156	-3.26136	-5.32579
625.00000	2.52251	-0.60737	-1.05376	-4.92329
628.90625	-1.50695	-1.41338	-3.03119	-5.72955
632.81250	-4.32766	-0.20469	-3.32559	-7.34162
636.71875	0.10444	-0.60771	0.74083	-7.74494
640.62500	3.32768	-1.81663	-2.03616	-7.74530
644.53125	-0.29891	-2.62260	-5.54306	-10.96910
648.43750	3.32735	-3.83153	-4.29606	-13.38704
652.34375	4.13304	-2.62288	-3.71038	-10.96978
656.25000	-4.32865	-0.60836	-4.42925	-11.37312
660.15625	-4.73164	-1.81728	-4.82868	-11.77640
664.06250	-2.71714	-4.63789	-4.38363	-8.95627
667.96875	-3.12030	-4.23514	-5.16415	-5.33025
671.87500	-7.14973	-3.42942	-3.70419	-2.10720
675.78125	-3.12059	-1.01192	2.08366	0.71291
679.68750	-2.71781	-0.60909	0.04504	-0.89922
683.59375	-9.56787	-3.42979	-5.22956	-8.15233
687.50000	0.10232	-1.01231	-6.43951	-7.74972
691.40625	2.92268	1.00220	-4.91899	-2.91493
695.31250	-3.12139	0.59919	0.53381	-0.09469
699.21875	3.72839	0.59909	1.70477	2.32256
703.12500	0.90765	-1.41574	-0.02100	1.51636
707.03125	-2.31600	-1.81878	0.34155	0.71010
710.93750	3.32488	0.19576	0.30097	3.12733
714.84375	0.50417	-0.61021	3.00722	0.70933
718.75000	-3.12243	-2.22210	3.37227	-1.70872
722.65625	-3.92843	-2.22219	0.76677	0.30553
726.56250	-0.70509	-1.81929	0.67578	1.11103
730.46875	2.92112	-0.61056	0.67434	-2.11270
734.37500	1.30932	-0.61067	1.04039	0.70744
738.28125	-0.30251	0.19505	-1.40121	2.72177
742.18750	0.50326	0.19493	1.56642	-0.50197
746.09375	0.90600	-0.61102	6.25014	0.30356
750.00000	7.35274	3.01521	7.08124	5.13842
753.90625	11.38187	4.22389	6.72003	5.94391
757.81250	2.11433	-1.01432	1.88821	3.12306
761.71875	3.72596	-1.41737	-0.84512	5.54023
765.62500	5.74045	-0.61156	0.54676	5.53983
769.53125	3.32267	-2.62632	0.98783	3.12189
773.43750	6.14299	-4.23816	3.12153	4.73319
777.34375	8.96332	-1.82064	-0.86452	7.55329
781.25000	8.15730	-2.62656	-4.45365	7.55290
785.15625	6.14246	-4.64130	1.29631	3.92617
789.06250	4.53055	-3.43268	3.75112	-0.10352
792.96875	1.30687	-4.23864	5.95836	3.11955
796.87500	-3.52849	-4.64162	5.24713	4.32790
800.78125	-4.33457	-6.65637	4.03730	-0.91061
804.68750	-1.51419	-6.25360	7.69499	-2.92568
808.59375	1.30608	-3.03028	7.71734	-0.10554
812.50000	5.33513	-2.22454	2.33642	0.69990
816.40625	10.57301	0.19296	0.07450	0.29653
820.31250	11.78159	2.61044	1.65962	0.29615
824.21875	8.96079	1.40153	1.20937	-0.51008
828.12500	10.16937	5.83364	0.80060	1.50416
832.03125	0.90180	5.02770	-0.89471	-1.31674
835.93750	-3.12766	-0.61338	-3.08768	-4.94354
839.84375	0.09562	2.60999	-1.11181	-4.94395
843.75000	-1.51627	2.20695	-6.07143	-9.77950
847.65625	-2.72526	-1.01660	-4.10351	-6.15357
851.56250	-3.12839	1.40092	2.30895	-6.15398
855.46875	-0.30807	6.23596	-1.42134	-6.55731
859.37500	8.95912	4.22118	-4.68161	-3.33429
863.28125	4.52678	0.59473	-4.07340	-0.91715
867.18750	-7.56127	2.20632	-2.15748	1.90299
871.09375	-5.14379	2.20619	-3.76614	3.51428
875.00000	-1.92048	-1.82323	1.04299	7.54315
878.90625	0.09402	-2.22629	3.84244	8.34858
882.81250	-2.32367	-2.62930	1.96603	3.51305
886.71875	-1.92082	-4.64407	0.99972	3.91561
890.62500	0.09369	-5.04715	-0.18126	3.51227
894.53125	8.55511	-4.64431	0.27420	2.70609
898.43750	10.97256	-1.01810	0.28239	8.34677
902.34375	1.70490	-1.42117	-0.04079	8.34642
906.25000	6.53996	-0.21244	4.56466	8.34610
910.15625	10.56910	1.80213	4.20063	8.34576
914.06250	4.92783	-1.42141	0.30077	-1.32487
917.96875	4.52476	-1.01853	-0.05239	-4.14573
921.87500	5.73344	-1.82445	-5.25913	-1.32546
925.78125	6.53913	-3.03338	-5.56365	-0.51994
929.68750	8.55357	-1.42183	0.91920	-0.92329
933.59375	2.91235	-2.22779	1.52439	-0.52071
937.50000	1.70341	-5.45134	-1.19353	-0.52105
941.40625	7.34433	-3.43680	-4.01943	-0.52142
945.31250	9.76180	0.59246	-2.79017	2.70165
949.21875	7.34405	0.18940	-0.75626	4.31300
953.12500	4.52341	0.99514	-0.48747	2.70094
957.03125	5.73208	0.99502	-0.72560	1.89474
960.93750	1.70256	-0.61679	1.25992	0.28264
964.84375	-3.53560	-0.61691	3.21650	1.49110
968.75000	4.11988	-1.82585	1.59403	3.90838
972.65625	0.89621	-3.43773	-2.10852	2.69924
976.56250	-5.14788	-4.64658	-0.66515	1.08712
980.46875	-4.74509	-5.45260	1.31025	-0.52495
984.37500	-5.95409	-4.24392	3.19007	1.89225
988.28125	-4.74548	-2.63228	-0.48952	2.29473
992.18750	-8.77493	-5.04998	-7.77083	-1.33201
996.09375	-8.77509	-4.24424	-3.83477	1.08517
1000.00000	-5.95474	-1.42386	-3.06437	1.89072
1003.90625	1.70076	-0.21517	-2.86872	0.68157
1007.81250	-0.31406	1.79934	0.65095	1.89003
1011.71875	-7.56697	5.02265	1.46404	4.30722
1015.62500	-3.94069	4.21668	1.44884	4.30687
1019.53125	0.08850	3.00778	0.62523	2.29185
1023.43750	2.50598	0.59015	-0.05096	7.12670
1027.34375	2.90875	-1.02168	-1.83223	11.15564
1031.25000	3.31157	-1.82759	-1.39918	7.93185
1035.15625	2.50559	-4.24526	1.08174	7.12564
1039.06250	9.35525	-5.85704	0.28902	6.72231
1042.96875	7.34045	-2.23078	-0.04153	5.51315
1046.87500	2.90809	0.99258	1.33042	6.31866
1050.78125	4.11679	0.58959	1.77269	5.51245
1054.68750	2.90788	-1.82813	1.10670	3.09456
1058.59375	0.08724	-2.63408	-0.04566	5.51177
1062.50000	4.51938	4.21561	0.78580	13.16715
1066.40625	7.33975	3.00670	-1.14104	11.95802
1070.31250	5.32494	-4.24616	-3.12109	5.10791
1074.21875	8.95118	-2.63449	-2.90908	6.31637
1078.12500	11.36871	-3.44046	-1.58963	8.33072
1082.03125	5.32465	-6.66393	-1.59900	6.71866
1085.93750	3.30982	-4.64939	-1.99235	10.74753
1089.84375	6.13014	-2.63486	1.64994	11.15007
1093.75000	2.90654	-3.44086	1.52430	8.32910
1097.65625	0.08589	-1.82919	-0.31625	7.92582
1101.56250	-1.12310	-1.82927	1.26418	5.91078
1105.46875	-0.72035	-4.64985	3.21002	6.31322
1109.37500	3.30874	-4.24703	3.59705	6.31273
1113.28125	5.72613	-2.63536	1.91639	4.29757
1117.18750	-1.92984	-3.03845	-1.06235	2.28237
1121.09375	-3.54185	-2.63561	0.10685	2.68476
1125.00000	-0.72170	-0.21815	-0.84410	2.28119
1128.90625	0.08379	-0.21824	-2.11286	1.87767
1132.81250	0.48644	-0.62120	-3.34443	-0.13761
1136.71875	0.88895	2.19918	-5.44166	-2.95885
1140.62500	5.32073	6.22834	-2.65494	2.27856
1144.53125	6.12612	6.22820	1.15760	3.48671
1148.43750	1.29051	1.39285	-2.58357	2.27725
1152.34375	0.08129	0.58682	-6.60163	3.88836
1156.25000	8.13948	0.58666	-1.77080	-1.75332
1160.15625	8.54198	2.60116	0.22962	-0.14216
1164.06250	3.30348	2.19806	1.55975	3.08071
1167.96875	3.70610	-1.42850	2.18674	0.25959
1171.87500	7.33216	2.19778	2.21904	0.25907
1175.78125	6.92897	5.82401	1.08434	-0.54727
1179.68750	3.30237	1.39169	-2.52362	-1.35362
1183.59375	2.49633	-3.04071	-2.45840	-0.54824
1187.50000	0.88447	-2.63790	-1.90244	-2.96624
1191.40625	1.69026	-1.42929	-1.86296	-0.95193
1195.31250	6.52542	-1.42944	-0.10110	2.67414
1199.21875	4.10778	-2.23542	-2.85833	-2.16134
1203.12500	0.48142	0.98789	-2.43547	-2.56459
1207.03125	-0.32449	2.19658	-0.34373	-1.35603
1210.93750	-7.57724	-2.63867	-2.72847	-4.57968
1214.84375	-9.99479	-5.86225	-3.31290	-9.01213
1218.75000	-9.59191	-5.45949	-3.99992	-11.02701
1222.65625	-4.75669	-3.04203	-4.01313	-6.59497
1226.56250	-6.77132	-1.83337	-4.82020	-2.96880
1230.46875	-1.53320	-2.23644	-2.79327	-2.56603
1234.37500	2.49608	-3.44536	-1.29876	-2.16326
1238.28125	-5.56261	-2.23669	-2.32411	0.25410
1242.18750	-6.36845	-1.83383	-7.19261	-0.95487
1246.09375	-6.36841	-2.23688	-8.07803	-5.79020
1250.00000	-5.15966	-2.23700	-1.24951	-6.19338
1253.90625	-5.15974	-1.02831	0.70315	-6.19363
1257.81250	-1.53338	0.58336	-1.86252	-8.20853
1261.71875	-1.13055	-0.22262	-3.11093	-7.80585
1265.62500	1.28697	0.58318	-1.65456	-7.00033
1269.53125	4.51033	3.80643	1.90483	-7.40354
1273.43750	-2.74251	0.98582	-2.14195	-9.41849
1277.34375	-1.13092	-0.62599	-2.61684	-9.82174
1281.25000	3.30129	-0.62608	0.17167	-7.80741
1285.15625	8.13643	-2.64081	-3.27803	-5.39009
1289.06250	7.33057	-1.43214	-1.38652	-3.37568
1292.96875	2.49542	-0.62629	2.65766	0.65337
1296.87500	4.51002	-1.43227	3.87295	3.07073
1300.78125	2.49532	-1.43235	2.65362	3.07050
1304.68750	5.71874	-0.22360	2.36363	1.45851
1308.59375	0.07766	0.58222	3.38411	1.05531
1312.50000	-7.57811	-0.22379	4.22404	2.26385
1316.40625	-5.16060	-2.64142	3.09997	4.68119
1320.31250	-7.57826	-5.46208	2.72094	3.06923
1324.21875	-7.57824	-5.05919	2.77926	-1.36326
1328.12500	-3.54889	0.58179	2.92203	2.26284
1332.03125	-4.35484	0.98459	2.96147	3.06849
1335.93750	-4.75780	-3.04481	1.10711	0.24768
1339.84375	4.50956	-2.23906	1.98332	3.06800
1343.75000	-0.32567	-0.62738	0.38625	2.66478
1347.65625	-10.80191	-2.23920	-1.56200	-1.76778
1351.56250	-7.98145	-1.83632	-1.93423	-0.15634
1355.46875	-5.16105	0.17823	-0.49470	1.45501
1359.37500	-5.56404	0.17817	2.05020	-2.17168
1363.28125	-3.95233	-1.43362	0.82457	-2.97789
1367.18750	-3.14654	-0.22488	0.81247	-0.96359
1371.09375	-2.34077	-0.62784	2.43259	-0.15804
1375.00000	-5.56433	-4.25432	-0.09403	-4.18775
1378.90625	-9.99660	-5.06026	-1.10992	-6.60562
1382.81250	-9.99667	-3.85156	2.07848	-3.78544
1386.71875	-5.56459	-2.64285	-0.02636	-2.17399
1390.62500	-2.74417	-0.62828	-2.47082	-3.38308
1394.53125	0.47911	-1.03130	0.69751	-4.59220
1398.43750	-1.53572	-0.22553	3.78321	-3.78667
1402.34375	-5.56521	1.38614	0.52039	-2.57818
1406.25000	4.91085	2.99776	3.57838	1.04781
1410.15625	6.11952	3.80354	5.92188	5.07680
1414.06250	-6.77429	-0.62872	2.28336	3.86766
1417.96875	-7.17736	-3.04639	1.81929	3.86734
1421.87500	-2.74521	-2.24060	0.98362	6.28455
1425.78125	-4.35701	-5.06115	0.74815	8.29891
1429.68750	-7.17757	-5.86707	1.01943	9.10455
1433.59375	-3.55129	-4.65837	-0.17097	9.50711
1437.50000	0.07495	-4.65849	2.66687	5.88047
1441.40625	-0.32802	-4.25568	2.66034	3.05974
1445.31250	4.10422	-2.64400	0.34760	1.04479
1449.21875	3.70127	-1.03239	-2.67073	-2.17885
1453.12500	-6.37210	-4.25591	-7.87322	-3.38793
1457.03125	-6.37215	-4.25600	-4.95730	-4.19413
1460.93750	-3.14873	-1.03263	-0.89841	-1.37390
1464.84375	-5.16340	-2.64440	-4.47315	-6.20943
1468.75000	-6.77515	-4.25625	-4.34070	-11.04493
1472.65625	-5.16357	-5.06220	-2.28697	-5.80721
1476.56250	4.50664	-6.67398	-3.72840	-2.18116
1480.46875	7.32698	-6.27120	-2.03913	-2.18152
1484.37500	-0.73175	-4.25664	0.79088	1.04154
1488.28125	3.29745	-1.03327	2.05529	4.66762
1492.18750	8.53544	0.17543	3.29254	3.45848
1496.09375	8.13238	2.99580	0.71196	3.45816
1500.00000	7.32641	2.59281	-2.37562	6.27835
1503.90625	11.75853	0.57809	1.23059	8.29268
1507.81250	17.39943	3.80142	1.20763	5.87480
1511.71875	12.16119	-0.63083	-4.83206	-1.37831
1515.62500	7.72887	-1.83970	-3.72430	-0.16987
1519.53125	10.95226	0.17490	-2.31295	0.63561
1523.43750	4.90815	0.57781	-1.94649	0.63522
1527.34375	-0.33000	0.98067	-1.64434	4.66411
1531.25000	0.47589	-1.03404	-2.88588	5.06666
1535.15625	2.08750	-1.43706	-3.33730	1.43985
1539.06250	2.49034	2.59223	0.96753	2.24529
1542.96875	-2.34494	2.59219	2.54032	1.43906
1546.87500	-7.58309	-1.43723	-3.27622	-6.21700
1550.78125	-5.16550	-3.04897	-5.37226	-7.02320
1554.68750	-4.35969	-1.03436	-3.36483	-6.62058
1558.59375	0.47542	0.57732	-1.40059	-4.20340
1562.50000	2.89289	1.38309	-3.44261	-0.57735
1566.40625	1.28113	2.99471	-3.28434	1.03400
1570.31250	-0.73356	2.99465	-0.60415	1.03365
1574.21875	-8.38936	1.38288	-1.79143	-2.59303
1578.12500	-7.18075	-0.22898	-2.56907	-6.62263
1582.03125	-6.37513	-0.63199	0.65208	-5.01128
1585.93750	-5.56951	0.57669	3.16654	-2.99698
1589.84375	-4.36093	0.97951	1.75029	-1.78847
1593.75000	-1.94356	-1.43815	-4.25674	-4.60929
1597.65625	-2.34670	-2.24408	-4.15080	-3.80380
1601.56250	-5.16737	0.97929	-3.30937	-0.98365
1605.46875	-0.73524	3.39683	-4.47308	0.22479
1609.37500	2.89101	1.78501	-3.94803	1.83618
1613.28125	1.68215	0.57622	-0.68615	2.23877
1617.18750	0.47332	1.78491	2.71763	3.85022
1621.09375	1.27908	1.38193	2.80275	3.84989
1625.00000	7.72596	7.02284	2.40453	7.87888
1628.90625	1.68193	5.41108	2.85229	5.86392
1632.81250	-8.79422	-3.85637	-0.74812	-2.19496
1636.71875	-7.98837	-2.24470	0.30673	-0.98652
1640.62500	-8.39133	0.97874	2.86898	0.62492
1644.53125	0.07015	4.60512	6.06923	3.84806
1648.43750	-0.33291	3.39629	4.42377	3.84772
1652.34375	-2.75055	2.18745	2.81202	4.65319
1656.25000	11.35190	5.81376	0.30128	8.68209
1660.15625	15.38112	9.84308	-1.50107	15.53151
1664.06250	0.87555	1.78437	6.11699	12.71065
1667.96875	-11.61545	-8.28892	8.02035	-4.61567
1671.87500	-8.79511	-6.27431	4.75824	-4.61599
1675.78125	-4.76594	-2.64791	5.11914	-0.98997
1679.68750	-3.55726	1.38136	3.79343	-5.42252
1683.59375	-1.54274	4.60475	0.12896	-6.63172
1687.50000	-4.76628	2.18711	-1.26517	-9.45259
1691.40625	1.68045	-0.23054	1.86937	-10.66177
1695.31250	6.51551	-0.63350	1.46393	-5.42406
1699.21875	7.32120	1.78397	3.43905	-0.99222
1703.12500	8.12690	3.79855	6.63781	2.23086
1707.03125	2.88869	-1.03665	1.54908	-0.99295
1710.93750	0.47107	-2.24551	-1.82350	-4.21675
1714.84375	-1.54370	-1.43972	-2.20187	-5.42584
1718.75000	-3.15557	-0.63385	-0.14811	-5.42619
1722.65625	1.67948	-1.03685	0.65996	-3.81487
1726.56250	1.67939	-0.23105	-0.86263	0.21404
1730.46875	-0.33528	0.97774	0.93469	0.61666
1734.37500	5.30579	-0.63396	3.39023	1.82513
1738.28125	5.30577	-1.03692	3.50664	4.64524
1742.18750	6.11159	0.57483	1.13077	2.63023
1746.09375	13.36436	4.20117	3.58725	6.25625
1750.00000	16.58784	2.58949	4.10173	6.25592
1753.90625	16.18485	-1.84275	0.51288	1.82338
1757.81250	14.17015	-1.43988	-2.11742	-0.99751
1761.71875	7.72326	-0.63397	-1.62178	0.21095
1765.62500	9.33493	1.78358	1.60177	4.64287
1769.53125	10.54372	3.79823	0.42702	5.04552
1773.43750	10.14075	1.78360	2.86779	2.22469
1777.34375	11.34952	0.97776	3.93157	3.03030
1781.25000	8.12603	1.38069	0.86166	-0.19346
1785.15625	1.27615	-0.63400	-1.58190	-4.62605
1789.06250	6.11126	-0.63404	-0.41775	-3.01471
1792.96875	6.51427	2.99227	0.78644	-2.20912
1796.87500	-1.14144	1.38056	-2.92535	-6.23878
1800.78125	-1.14148	0.57469	-3.50905	-6.64199
1804.68750	-1.14153	0.17169	-1.93578	-6.23941
1808.59375	0.87306	-0.63421	-5.28100	-5.83677
1812.50000	4.09643	0.17156	-6.13192	-2.61363
1816.40625	2.48468	1.38030	-2.54144	-1.00222
1820.31250	7.72275	0.97732	0.57563	-2.61418
1824.21875	9.33444	1.38026	2.15029	-4.62910
1828.12500	0.47005	4.60369	1.95515	-3.42057
1832.03125	2.88757	2.99192	1.85852	-0.19741
1835.93750	4.09636	-0.23155	1.05470	-3.01825
1839.84375	2.08175	0.57435	1.83185	-3.82435
1843.75000	1.27594	2.18603	0.19837	-1.40702
1847.65625	-1.14164	-1.84326	-4.49625	-5.83954
1851.56250	-3.96215	-2.24622	-1.83378	-8.25743
1855.46875	0.87295	-1.03747	1.81981	-6.24310
1859.37500	1.67876	-3.05217	1.86972	-5.84049
1863.28125	-7.58875	-2.24635	0.26494	-6.64666
1867.18750	-4.36544	-2.64928	-0.05639	-2.61770
1871.09375	-1.14209	-3.45521	0.11934	-0.20044
1875.00000	-5.57445	-3.45524	2.17279	-0.20076
1878.90625	-5.97743	-4.26113	1.09092	-2.21571
1882.81250	-3.96289	0.97694	2.75081	1.00734
1886.71875	-5.17181	2.18570	3.18650	4.23041
1890.62500	-6.38067	-3.05241	0.06413	3.82719
1894.53125	-3.96312	-5.87292	1.71230	8.66203
1898.43750	-9.20127	-6.67878	2.31522	9.46757
1902.34375	-12.82764	-7.08174	-1.21057	6.24384
1906.25000	-8.39536	-5.06709	-4.03539	5.43769
1910.15625	-1.54549	-3.45539	-2.80335	5.43740
1914.06250	1.27504	-2.24659	-0.36562	6.64593
1917.96875	-0.73956	-2.24659	-0.90481	3.82519
1921.87500	-3.15712	-1.03778	0.06357	0.19858
1925.78125	-0.33658	1.37982	-1.97955	-1.41332
1929.68750	-6.78340	-1.03779	-6.46715	-7.86042
1933.59375	-8.79801	-1.84367	-4.86487	-8.66648
1937.50000	-1.14232	0.17094	-4.53990	-4.23452
1941.40625	-0.33642	0.17090	-2.29311	0.60044
1945.31250	3.29003	1.37968	-1.52637	0.60022
1949.21875	5.70768	3.39434	-1.25571	1.40584
1953.12500	12.55750	3.79725	2.31910	5.43490
1957.03125	9.73705	4.20022	4.70667	6.64346
1960.93750	0.06676	4.20024	2.99911	5.83738
1964.84375	-2.75367	-1.44079	0.14278	2.21074
1968.75000	-6.78294	-3.85833	1.14671	-0.61000
1972.65625	-0.73898	3.39442	5.87722	3.82203
1976.56250	-3.96244	3.39441	5.48053	2.61299
1980.46875	-12.82695	0.97679	4.25390	-4.64001
1984.37500	-16.05037	1.37971	-0.59989	-9.07251
1988.28125	-16.45341	-2.64962	-4.49737	-9.47568
1992.18750	-14.43881	2.18548	-3.45579	-7.05842
1996.09375	-14.43884	9.84115	-6.24673	-13.50559
2000.00000	-17.66231	4.20008	-2.15681	-17.53519
2003.90625	-20.48279	-0.63505	1.88439	-19.14719
2007.81250	-18.87107	2.58842	-0.45902	-21.56506
2011.71875	-22.09449	4.60307	-1.50207	-23.17703
2015.62500	-16.05052	5.40890	0.95476	-19.14800
2019.53125	-16.05058	2.18545	-2.53437	-19.95411
2023.43750	-24.10923	0.97664	-7.71770	-21.96903
2027.34375	-15.24469	2.99128	-5.27318	-14.71656
2031.25000	-17.25935	-3.05269	-3.57097	-13.10517
2035.15625	-22.09459	-6.67904	-2.73020	-13.91132
2039.06250	-20.48285	-4.26151	-2.52062	-13.10577
2042.96875	-7.18615	-3.05273	-4.02375	-10.68847
2046.87500	-4.36569	-1.03812	-1.21166	-6.65949
2050.78125	-9.60383	-0.63520	1.62124	-3.03344
2054.68750	-6.78327	-6.67915	-0.77959	-2.63075
2058.59375	-4.36570	-8.29090	-2.11606	0.99532
2062.50000	4.09586	-3.05282	-3.95905	2.60678
2066.40625	8.12519	-1.03818	-3.18403	-1.82574
2070.31250	6.51359	-2.24697	-0.83255	-1.82598
2074.21875	3.69319	-4.26160	-4.87644	0.59141
2078.12500	6.11084	-3.05278	-4.54424	5.82927
2082.03125	5.30507	-1.03813	-1.07860	9.45534
2085.93750	4.49926	-1.84398	1.29946	9.05218
2089.84375	7.31979	0.17068	5.99209	12.67830
2093.75000	3.69345	-2.64980	2.30750	11.06640
2097.65625	-1.14177	-4.66446	-1.74603	9.45447
2101.56250	-2.75346	-3.45573	-1.02530	9.85727
2105.46875	0.87291	-1.84399	-1.05954	8.24535
2109.37500	5.30520	1.78233	-2.07978	6.23055
2113.28125	1.27594	-0.23236	-3.40128	7.43917
2117.18750	-5.57390	-3.45589	-2.58514	7.84190
2121.09375	-8.39434	-4.66465	-1.78625	2.60363
2125.00000	-4.76788	-3.45594	-0.99549	0.58878
2128.90625	0.06726	-1.84421	-0.46917	0.18562
2132.81250	3.29070	-1.03838	2.98076	0.99126
2136.71875	8.52878	0.57334	2.60963	4.21446
2140.62500	14.97563	2.58796	-0.54241	6.22881
2144.53125	17.39320	5.40846	3.50404	9.45196
2148.43750	5.70831	0.97622	2.36233	6.63121
2152.34375	-1.54443	-3.05305	-4.33193	0.58700
2156.25000	3.29068	0.57336	-2.68064	0.58668
2160.15625	6.91697	2.99090	-0.11543	2.19807
2164.06250	7.72289	1.78211	-0.05390	5.42124
2167.96875	8.93166	1.37924	1.57925	5.82394
2171.87500	6.91700	0.57341	2.46492	6.22660
2175.78125	4.49945	0.17046	1.28940	7.03226
2179.68750	6.51412	2.18511	-1.31198	11.46422
2183.59375	8.12586	2.18513	-0.79223	15.09039
2187.50000	8.12592	0.97630	-0.40160	9.04616
2191.40625	3.29082	1.37921	-1.20596	7.03119
2195.31250	3.29086	0.57338	0.41904	7.83676
2199.21875	2.48512	-1.84418	0.29978	4.21013
2203.12500	-3.55871	-4.66464	-1.93673	1.38939
2207.03125	0.06772	-0.23242	0.04510	4.61258
2210.93750	1.27667	2.58818	-0.43470	4.61233
2214.84375	-7.18472	-5.87332	-5.69265	-1.83477
2218.75000	-5.57294	-7.08208	-6.96511	-4.65548
2222.65625	-2.75223	-3.45570	-4.29511	-0.62640
2226.56250	-9.19898	-2.64976	0.09750	-0.22364
2230.46875	-8.39310	-1.84390	-0.45823	0.58202
2234.37500	-5.57259	-3.05268	-4.95558	1.38767
2238.28125	-1.94613	-0.23218	-5.37720	-0.22421
2242.18750	1.68031	3.79714	-0.61656	0.98439
2246.09375	3.69510	1.37963	-1.85771	0.98423
2250.00000	3.69515	-1.44093	-1.67858	-0.62766
2253.90625	2.88929	-1.84383	-0.59083	-0.62788
2257.81250	0.87472	-3.05267	0.63202	2.19241
2261.71875	0.47192	-2.24681	0.23293	4.20690
2265.62500	5.71008	1.37961	-0.58434	1.78922
2269.53125	2.88961	0.57376	1.14243	0.98319
2273.43750	-0.73668	0.17082	2.16538	0.98308
2277.34375	0.06919	0.57377	2.60201	2.59473
2281.25000	9.33664	5.00595	5.10175	9.84739
2285.15625	8.93373	6.21475	2.30381	7.02677
2289.06250	0.06936	-1.44093	-2.06828	-1.43492
2292.96875	-0.73639	-3.05260	-2.72872	-3.44974
2296.87500	-2.75097	-1.84378	-3.89806	-2.24111
2300.78125	-1.54209	-2.24672	1.49781	3.39971
2304.68750	-3.95961	-3.05256	2.37228	5.41418
2308.59375	-7.18292	-3.45550	-2.04397	4.20519
2312.50000	-3.95935	-2.64958	-1.16903	5.01089
2316.40625	-1.94456	-2.24667	-0.33182	1.38427
2320.31250	-1.54137	-2.24660	-0.90917	2.59291
2324.21875	2.08515	-0.23191	0.42479	4.20446
2328.12500	-0.73522	0.17107	0.00593	-0.63087
2332.03125	-6.77909	-0.23185	-4.83858	-3.85452
2335.93750	-5.16734	0.17113	-2.81452	-3.04888
2339.84375	0.87666	2.18581	1.10380	-1.03445
2343.75000	5.30897	1.78289	0.08551	0.17414
2347.65625	3.69732	1.78293	1.25973	2.59157
2351.56250	4.10025	5.00642	2.78390	7.82949
2355.46875	1.27975	1.78300	-2.88257	4.60584
2359.37500	-3.95835	-0.63452	-6.56571	-1.84125
2363.28125	-3.95832	2.58892	-6.70602	-1.84143
2367.18750	1.68274	5.40941	-3.11909	-1.43867
2371.09375	5.30922	7.42410	-1.67023	-3.85648
2375.00000	6.11510	6.21534	-2.95129	-2.64790
2378.90625	7.32398	6.21536	-7.39695	-1.03641
2382.81250	12.15923	7.42419	-6.25197	-3.05124
2386.71875	5.71253	3.79784	-2.25301	-1.84261
2390.62500	-0.33134	2.58917	-5.70951	0.17184
2394.53125	3.69809	2.99211	-5.03317	-2.24593
2398.43750	1.28055	0.97747	-2.19508	-2.24618
2402.34375	0.07183	1.78333	0.64012	1.37991
2406.25000	-0.33103	0.97751	1.43848	0.57383
2410.15625	0.87788	1.38048	-1.27517	1.37947
2414.06250	4.50440	2.58931	-0.26183	5.81152
2417.96875	-0.33075	3.39518	2.19109	4.19958
2421.87500	7.32500	7.42450	1.88087	4.19939
2425.78125	7.72804	3.79813	-0.91146	4.60215
2429.68750	-5.56864	-0.63403	-2.46986	1.37849
2433.59375	-4.76265	0.17185	-3.14063	0.16950
2437.50000	-2.74792	0.97774	-4.71317	0.97514
2441.40625	-0.33033	1.78364	-0.91887	-0.63675
2445.31250	0.87853	-0.63385	1.17160	-4.26334
2449.21875	3.69910	-1.03681	-3.65271	-2.24885
2453.12500	2.89322	-0.23095	-4.80320	-2.65202
2457.03125	0.87864	0.17206	-4.37117	-8.69612
2460.93750	0.07283	0.17212	-5.74523	-8.69626
2464.84375	4.50512	-1.03663	-6.01445	-6.68175
2468.75000	4.10223	-0.23073	-4.82494	-5.47308
2472.65625	-3.15045	0.57523	-6.05396	-4.66736
2476.56250	0.07311	1.38112	-5.24267	-5.47336
2480.46875	7.72890	6.21631	1.10130	-0.63838
2484.37500	8.93772	10.24566	4.92783	7.01721
2488.28125	1.68514	6.21640	2.87705	2.58485
2492.18750	-3.95570	2.18713	-1.25040	-2.65343
2496.09375	-3.95563	-0.23044	1.13592	-3.45947
2500.00000	-1.94089	-1.03626	2.69752	-3.45967
2503.90625	-0.32907	-0.23036	0.14993	-3.05700
2507.81250	-3.14946	-1.03617	-0.69492	-5.47481
2511.71875	-9.99914	-3.45375	-2.07668	-3.46042
2515.62500	-6.77553	-1.43906	-1.75333	0.56866
2519.53125	-3.55197	1.78442	0.65583	-0.23741
2523.43750	-3.55184	0.97860	1.00573	-1.44643
2527.34375	-1.13415	2.59038	2.58945	-3.46125
2531.25000	-0.73110	2.59043	1.94420	-3.46142
2535.15625	2.89533	5.41097	1.80612	-1.04406
2539.06250	0.88081	8.63448	3.84154	0.16459
2542.96875	-10.40110	2.59060	1.04658	-5.47656
2546.87500	-9.19222	-2.24458	-1.77731	-10.31193
2550.78125	-8.38626	-3.85621	-1.27549	-9.10331
2554.68750	-10.40076	-4.66199	0.93703	-6.68589
2558.59375	-7.58012	-2.24441	0.16784	-6.28318
2562.50000	-1.93895	1.78491	-2.54932	-2.65697
2566.40625	-1.93884	1.78495	-0.09768	-1.04549
2570.31250	-3.95340	2.59091	0.75497	-0.64276
2574.21875	-4.35628	3.79969	0.47675	-1.44884
2578.12500	-2.34150	4.20269	-1.09635	-2.25488
2582.03125	4.91139	2.59105	-1.32144	0.16250
2585.93750	0.47931	0.97932	0.77644	2.98287
2589.84375	-1.13235	0.57643	0.37940	4.59436
2593.75000	0.07657	0.97936	-4.00529	5.80294
2597.65625	-1.93798	0.17358	-1.96402	2.98224
2601.56250	0.07672	-2.24398	2.31210	-1.85316
2605.46875	0.88267	-2.24394	0.84275	-3.46505
2609.37500	8.53850	4.60597	3.64080	0.16110
2613.28125	13.77673	3.80010	4.41554	-2.25666
2617.18750	7.73288	-0.63204	0.38728	-6.28624
2621.09375	13.37396	2.18850	1.09810	-2.66005
2625.00000	15.38871	1.78556	1.30789	2.17487
2628.90625	8.53902	0.57683	-1.54993	1.36880
2632.81250	4.50985	-1.84075	-0.44988	2.17445
2636.71875	-1.53397	-1.43781	1.52759	2.17426
2640.62500	-7.17489	-0.63186	-1.33656	-2.66106
2644.53125	-11.20405	-1.43770	-3.06776	-5.07880
2648.43750	-4.75706	-0.63173	-1.89730	-3.46722
2652.34375	-3.95111	-1.03466	-1.67726	-3.87036
2656.25000	-1.53339	-1.43760	0.65325	-2.66172
2660.15625	0.07845	-0.63166	0.64959	-1.85603
2664.06250	-5.56249	-1.03460	1.01030	-1.85622
2667.96875	1.69032	2.59182	5.82009	5.39632
2671.87500	1.28745	2.59184	3.55410	3.38148
2675.78125	-2.33891	-0.22869	2.19836	-1.05097
2679.68750	0.07871	1.38309	3.02807	2.17228
2683.59375	3.30218	0.57725	1.85569	5.79850
2687.50000	1.28760	-1.03449	2.66265	6.60420
2691.40625	4.10816	-1.84031	-0.06681	3.78356
2695.31250	7.33171	0.57732	0.92710	7.81270
2699.21875	-0.72675	0.98024	1.36781	11.03602
2703.12500	-3.14423	-1.43732	-1.74172	5.79778
2707.03125	-1.93526	-1.84015	0.31323	2.97714
2710.93750	2.90005	-1.43720	1.56251	4.58869
2714.84375	6.12368	0.17462	1.27379	5.39437
2718.75000	7.73558	0.57764	2.52038	6.60301
2722.65625	9.34739	-1.03404	2.30526	6.60286
2726.56250	8.13876	1.78652	1.59022	5.39391
2730.46875	10.55656	0.98076	1.59150	6.60256
2734.37500	14.18306	1.38377	5.25460	9.42286
2738.28125	18.21252	3.80136	7.29311	8.21384
2742.18750	7.33346	1.38387	0.29606	3.78143
2746.09375	0.48377	1.78681	-0.35850	4.98999
2750.00000	6.93068	-1.43663	2.43672	9.42196
2753.90625	5.72201	-1.43660	1.18603	7.81008
2757.81250	2.90157	1.38403	1.58551	8.21278
2761.71875	5.31932	0.57824	2.70692	6.19792
2765.62500	3.70772	1.38410	1.31485	2.16840
2769.53125	1.69314	1.38414	0.87365	0.15355
2773.43750	0.08164	-0.63044	1.15743	-1.05544
2777.34375	1.69346	0.17545	3.93452	-0.24972
2781.25000	2.09650	0.57845	3.49411	-1.05583
2785.15625	-7.57379	-1.43621	-1.85305	-2.66775
2789.06250	-6.36491	-1.03319	-1.48746	-2.26502
2792.96875	0.48501	2.59325	1.94614	2.97286
2796.87500	-2.33544	0.57868	0.23963	0.95795
2800.78125	-5.96161	-2.24178	-2.98284	-2.26563
2804.68750	-4.34978	-0.22709	-0.99963	-1.45999
2808.59375	-3.54376	-2.24170	0.18658	-1.46024
2812.50000	2.50033	-2.24168	-1.28243	-4.68394
2816.40625	5.32093	-0.62994	-2.64706	-6.69882
2820.31250	-0.72286	-1.83871	-2.21754	-5.49021
2824.21875	-1.12563	-3.04745	-0.96150	-3.47572
2828.12500	2.50092	-1.43571	-5.79096	-3.87886
2832.03125	0.08351	0.57905	-5.70745	-9.52001
2835.93750	-2.33387	-0.22679	1.32057	-9.11728
2839.84375	-1.52782	0.57918	-0.25256	-6.29696
2843.75000	-1.93061	0.57924	-2.94875	-5.08833
2847.65625	0.08421	0.17635	-1.69345	0.55258
2851.56250	1.29321	1.38522	-0.85326	2.56709
2855.46875	-4.34764	-2.24111	-3.16717	-5.08879
2859.37500	-1.92988	-6.27035	-5.54804	-5.08899
2863.28125	-0.31802	-6.27027	-4.94753	-3.47739
2867.18750	-7.57065	-5.46435	-4.04309	-3.88051
2871.09375	-3.94413	-5.46428	-3.24041	-2.26892
2875.00000	-0.31763	-5.46425	-3.21450	-3.88086
2878.90625	2.10012	-2.64364	-1.98481	-3.07516
2882.81250	1.69731	-3.04652	-1.31737	-2.26937
2886.71875	4.51802	-4.25527	-1.96297	-1.06077
2890.62500	5.32400	-3.85226	-3.19964	-1.86675
2894.53125	2.90658	-2.24050	-1.23766	-3.88148
2898.43750	-0.71960	-1.43460	1.17167	-2.26982
2902.34375	-4.34583	-3.85211	-2.13156	-4.28460
2906.25000	-7.97195	-1.03157	-1.49899	-4.68751
2910.15625	-12.40397	-1.43446	0.47671	-4.68754
2914.06250	-10.38905	-5.46371	-1.66753	-9.11981
2917.96875	-12.80641	-5.46367	-0.50861	-8.71686
2921.87500	-15.62672	-3.85188	-0.13709	-5.89638
2925.78125	-11.19428	-3.85181	0.16735	-4.28471
2929.68750	-8.77649	-3.85175	1.34009	-4.28475
2933.59375	-7.97046	-1.43418	2.74932	-5.09067
2937.50000	-6.76147	0.98347	3.45252	-1.46439
2941.40625	-1.12029	3.40113	1.84603	0.14721
2945.31250	-0.31425	3.80408	-1.80096	-2.27044
2949.21875	-2.73159	1.78950	-0.20868	0.14696
2953.12500	-1.52261	0.58082	2.34293	-1.86785
2957.03125	-0.31369	3.40140	2.17797	0.54959
2960.93750	0.49246	4.20734	1.80409	7.39924
2964.84375	0.49271	0.58108	-6.19650	1.75810
2968.75000	0.89578	0.98406	-11.02101	-3.48013
2972.65625	-0.31289	1.38708	-6.51273	-2.27149
2976.56250	-5.55089	2.99884	-2.31523	-2.67461
2980.46875	-9.98297	0.98428	-0.66432	-1.46592
2984.37500	-7.96814	-1.03028	-0.52958	-2.27186
2988.28125	-2.72987	-0.62724	-0.47645	-4.68956
2992.18750	-4.74433	-2.64180	-2.46270	-6.30139
2996.09375	-7.16173	0.58171	-3.17539	-7.91317
