 	TP9	AF7	AF8	TP10	
-1000.00000	11.12330	3.33408	-3.83525	6.82692
-996.09375	9.10827	4.54266	-0.20903	8.43858
-992.18750	4.27274	1.72194	3.82009	3.20039
-988.28125	3.46647	2.12464	2.20824	1.58854
-984.37500	1.85439	2.52741	-0.20952	1.58846
-980.46875	6.28619	1.72136	0.19318	-0.82916
-976.56250	1.45054	2.92996	2.61063	0.78246
-972.65625	-1.77333	1.31799	-0.21001	-0.02344
-968.75000	0.64380	-0.69691	-3.03067	-0.82937
-964.84375	5.47852	2.52631	0.59550	6.02034
-960.93750	6.28408	2.12314	3.01294	8.03495
-957.03125	-4.19249	-1.50345	-0.61364	-2.03839
-953.12500	-4.99881	-0.29489	-1.41970	-4.45612
-949.21875	-1.37279	-0.69807	-1.41991	-2.03860
-945.31250	5.07369	-0.29534	0.59455	0.78179
-941.40625	0.23805	-2.31021	0.99733	2.39343
-937.50000	-7.82098	-3.51922	-0.61461	-0.83015
-933.59375	-2.98621	-3.11652	1.39982	-0.02445
-929.68750	3.46019	-1.50498	5.42888	3.19882
-925.78125	0.23634	-2.71401	3.01112	3.60164
-921.87500	1.84769	-1.90838	-2.22718	1.18394
-917.96875	11.11466	0.91195	3.81657	2.79550
-914.06250	4.26449	-3.92345	4.62222	1.58655
-910.15625	-0.16816	-4.32652	2.20447	1.18353
-906.25000	5.06950	-1.50627	1.80131	2.79508
-902.34375	7.48661	-2.31236	0.18935	5.61551
-898.43750	-0.16943	-5.13314	-0.21374	4.80951
-894.53125	-0.97568	-4.32748	-0.21393	4.40653
-890.62500	4.66488	-2.31306	-1.01996	6.82400
-886.71875	2.64983	-5.93970	-0.61723	8.43569
-882.81250	-0.17105	-4.73111	-0.61739	8.43561
-878.90625	2.64898	-3.11964	-1.42344	2.79446
-875.00000	4.66320	-3.52275	-1.82661	1.98851
-871.09375	1.43937	-4.73174	-2.22970	1.58545
-867.18750	1.03609	-5.94073	0.18763	3.60006
-863.28125	1.43860	-4.32916	2.20214	6.82336
-859.37500	0.22944	-6.34396	-3.84206	0.77933
-855.46875	-5.81486	-5.13540	-9.88622	-2.84713
-851.56250	-6.62106	-3.92676	-6.66297	-4.05606
-847.65625	-3.80087	-5.13571	-6.66313	-5.26497
-843.75000	-6.62171	-3.52415	-8.27500	-7.27975
-839.84375	-9.84557	-2.31555	-3.03708	-9.29453
-835.93750	-8.63711	-3.12163	0.58910	-10.90635
-832.03125	-7.83159	-3.92767	-0.21692	-10.10050
-828.12500	-10.65246	-4.73375	-0.21715	-9.29474
-824.21875	-5.81769	-3.52516	0.99145	-6.47431
-820.31250	-5.01218	-3.52536	1.39419	-7.68316
-816.40625	-9.04180	-1.91384	-0.21766	-9.29492
-812.50000	-3.40110	1.71237	1.39386	-2.04222
-808.59375	2.23958	0.90631	4.61714	-2.04226
-804.68750	-0.98413	-3.52616	1.79649	-9.29510
-800.78125	-4.20796	-5.13812	-3.03881	-12.51866
-796.87500	-2.59668	-1.51192	-3.84490	-12.92171
-792.96875	-0.98532	1.71133	0.58719	-9.69833
-789.06250	2.23768	0.90527	0.18404	-9.69842
-785.15625	-0.58325	0.09912	-1.02497	-5.66922
-781.25000	-4.61297	-1.51279	0.58651	-3.25170
-777.34375	-3.00166	-3.12476	0.18335	-2.04296
-773.43750	-3.40503	-2.31906	0.98908	2.38921
-769.53125	-4.61420	-1.91637	-4.24916	1.18036
-765.62500	-1.79411	-4.33413	-7.47275	-1.64016
-761.71875	1.02600	-3.12562	-0.62315	-1.23731
-757.81250	-3.80966	-4.33459	0.98841	0.77728
-753.90625	2.23382	-1.51434	3.40577	7.22411
-750.00000	0.21873	-1.11168	2.59975	5.61233
-746.09375	-6.63146	-5.94704	-2.23558	0.37415
-742.18750	0.62086	-4.73846	1.79354	-0.02887
-738.28125	1.02338	-2.72401	1.79337	-1.23775
-734.37500	2.23167	-3.53005	-1.02732	-0.02908
-730.46875	6.66350	-5.54489	-0.62463	1.98544
-726.56250	5.45433	-4.33630	-1.02771	-0.83519
-722.65625	11.49785	-2.72484	-1.83379	-2.85003
-718.75000	8.67670	-4.33680	-1.02803	-1.23863
-714.84375	-0.99417	-6.75463	0.98645	-1.64183
-710.93750	0.21399	-5.14317	0.58333	-4.05973
-707.03125	-2.20423	-4.33753	-0.62567	-7.28354
-703.12500	-3.41373	-4.74073	0.98586	-9.70153
-699.21875	-4.22019	-0.30874	1.79152	-7.68719
-695.31250	-7.04131	2.91445	1.38838	-6.88154
-691.40625	-4.22132	0.49662	1.79117	-10.50820
-687.50000	-7.44533	-4.33879	-2.64118	-14.53772
-683.59375	-15.10159	-2.72740	-1.83549	-16.14963
-679.68750	-15.90801	-0.71305	-3.85034	-20.17921
-675.78125	-9.46166	4.12181	-10.29735	-13.32955
-671.87500	-1.40358	4.12156	-9.49167	-0.83887
-667.96875	-13.49196	-8.36951	3.40188	-7.68888
-664.06250	-24.77457	-14.81659	9.04273	-23.40327
-660.15625	-19.13397	-12.39933	2.19274	-18.16540
-656.25000	-14.29920	-7.96737	1.78956	-10.50989
-652.34375	-12.28490	-4.74417	3.80398	-12.12176
-648.43750	-4.22657	-1.52093	3.80375	-12.92781
-644.53125	1.81702	-0.71531	1.78883	-12.12205
-640.62500	-4.63025	-3.93899	-2.24073	-10.91348
-636.71875	-5.03360	-1.92456	-0.22635	-2.04915
-632.81250	-2.21344	-3.13358	2.99682	-0.03467
-628.90625	-1.40799	-5.14846	2.19072	-1.64652
-625.00000	2.62090	-2.73111	0.98169	0.36796
-621.09375	2.62053	-3.13429	2.59312	-3.25860
-617.18750	1.41134	-3.53742	2.59284	-1.24412
-613.28125	-0.20076	-3.94061	0.57793	-0.84131
-609.37500	-2.21578	-4.34371	-1.43696	-0.84144
-605.46875	0.60436	-3.13517	-2.24304	0.36725
-601.56250	1.00698	0.08806	-0.63159	-3.66218
-597.65625	-7.05202	0.08785	1.78576	-5.67690
-593.75000	-15.91683	-3.94165	-1.84090	-9.70629
-589.84375	-21.55821	-7.16533	-7.88510	-11.72104
-585.93750	-19.94675	-5.95676	-8.28828	-13.33285
-582.03125	-14.70900	-3.13647	-4.66220	-13.33295
-578.12500	-15.11231	-4.34542	-4.66242	-14.13888
-574.21875	-15.51548	-4.74858	-2.64800	-11.31848
-570.31250	-17.93336	-6.76343	1.38109	-7.69223
-566.40625	-20.75413	-8.37537	0.97800	-6.08055
-562.50000	-20.35153	-6.36089	-0.23105	-6.88648
-558.59375	-19.54601	-5.55528	-0.63425	-6.08070
-554.68750	-14.30819	-5.15260	0.57435	-2.05145
-550.78125	-8.26449	-2.33226	-0.23171	-2.85736
-546.87500	-2.22094	-0.31785	0.97689	0.36600
-542.96875	6.24021	2.90537	2.99133	4.39518
-539.06250	6.23981	0.48753	-0.23231	-0.84304
-535.15625	5.43351	-3.13912	0.97631	-2.45491
-531.25000	11.07417	-2.73639	0.57316	-0.03742
-527.34375	7.44732	-1.12491	0.57298	-0.84337
-523.43750	5.02932	0.88956	3.39329	-0.84353
-519.53125	7.84939	0.88934	5.40776	1.17098
-515.62500	9.86363	1.29199	5.81054	3.58850
-511.71875	5.02808	-0.72293	3.79571	2.78246
-507.81250	0.59542	-1.93201	0.16912	0.76769
-503.90625	2.60963	-1.52934	0.57190	-2.05291
-500.00000	3.01217	-3.94723	2.58638	-0.03836
-496.09375	6.63815	-7.97680	2.18330	-0.84430
-492.18750	-0.21202	-7.97709	-0.23452	-4.47081
-488.28125	-9.47978	-6.76858	-1.44358	-6.08260
-484.37500	-8.67427	-8.38058	0.57086	-8.50031
-480.46875	-8.67464	-8.38085	3.39119	-5.67994
-476.56250	-10.68968	-8.78402	-1.04120	-8.09761
-472.65625	-13.10766	-9.18722	-3.45902	-13.73880
-468.75000	-14.71971	-8.38162	-2.65339	-10.91843
-464.84375	-11.49666	-5.96427	-0.63894	-9.30679
-460.93750	-13.10877	-4.75570	2.18142	-8.90392
-457.03125	-15.12373	-5.15888	-2.25100	-3.66593
-453.12500	-11.09478	-3.14448	-3.46000	-6.48647
-449.21875	-9.08049	-2.74178	2.58373	-10.51583
-445.31250	-9.48374	-3.14499	4.59818	-8.09831
-441.40625	-7.46947	0.48115	5.80675	-5.27790
-437.50000	-9.08162	3.70434	3.38892	-4.06922
-433.59375	-11.49952	-1.13111	-2.65522	-7.29278
-429.68750	-4.65008	-5.56355	-1.44661	-7.69586
-425.78125	-8.27686	-6.77261	0.16486	-8.50183
-421.87500	-10.69491	-2.34063	2.17935	-5.68148
-417.96875	-3.44253	1.68839	5.40255	1.57113
-414.06250	-3.44289	-1.53532	2.58186	2.37692
-410.15625	-1.42864	-1.93856	-0.64179	3.18266
-406.25000	1.79441	-1.93883	2.98440	5.60013
-402.34375	0.58522	-1.53612	4.19298	2.37653
-398.43750	-5.86206	0.47831	2.58101	-1.65291
-394.53125	-5.86249	-0.73074	2.17794	-6.89114
-390.62500	-4.25120	0.88072	-1.44868	-6.89130
-386.71875	-5.46045	5.31264	-3.06056	-2.86217
-382.81250	-5.05803	2.89482	-0.24024	-6.08580
-378.90625	-6.67022	-2.34353	1.77419	-6.89184
-375.00000	-6.67066	-1.53791	0.96814	-6.48916
-371.09375	-13.11796	-1.13526	-0.24086	-10.92161
-367.18750	-13.52120	-1.94138	-2.25570	-12.53340
-363.28125	-7.07461	-1.13583	0.96758	-11.32464
-359.37500	-7.47778	0.47569	3.38493	-10.51895
-355.46875	-5.46350	3.29601	1.77299	-14.95138
-351.56250	-6.67268	2.48998	-1.04778	-17.77205
-347.65625	-6.67301	0.07216	-1.45100	-13.33995
-343.75000	-4.65872	0.47488	-1.45124	-13.34012
-339.84375	-9.89720	0.87761	-2.25732	-13.74329
-335.93750	-11.91223	0.87740	-1.04876	-10.11712
-332.03125	-10.70386	0.07123	-1.45197	-8.90855
-328.12500	-13.52475	-3.55537	-4.67565	-10.52050
-324.21875	-9.49577	-3.55559	-4.67588	-7.29724
-320.31250	-11.10789	-2.34699	-4.27318	-10.11793
-316.40625	-15.54048	-1.54133	-3.87056	-12.13278
-312.50000	-9.49694	-1.54155	-2.66201	-8.10368
-308.59375	-4.25925	-2.75058	-4.67688	-5.68630
-304.68750	-1.43915	-2.34783	-10.31809	-6.08929
-300.78125	-1.03658	-0.33341	-9.10959	-6.49236
-296.87500	2.99229	0.47220	-3.06583	-3.26904
-292.96875	2.99187	0.87490	-6.28951	-3.26914
-289.06250	-1.44078	1.68050	-5.88686	-4.07510
-285.15625	5.00575	1.68026	-1.45482	-4.07520
-281.25000	3.39361	0.47120	-0.24623	-4.07530
-277.34375	-10.30645	-0.33492	0.15646	-2.86660
-273.43750	-9.90385	0.47074	0.15630	-4.07542
-269.53125	-7.88956	0.06759	0.96204	-3.26957
-265.62500	-5.87532	1.67910	2.97647	1.16265
-261.71875	-7.08455	2.48471	1.76746	1.56550
-257.81250	-10.30848	-1.54481	-1.45618	-2.86674
-253.90625	-11.92066	-5.97729	-1.45635	-0.44924
-250.00000	-7.08598	-4.36578	-1.85947	-0.44931
-246.09375	-6.68347	-0.73967	-0.65087	-4.47869
-242.18750	-15.14542	-2.75456	-0.65107	-6.89635
-238.28125	-9.90770	-3.56065	0.15459	-9.71705
-234.37500	-8.29630	-1.54624	0.15441	-10.12004
-230.46875	-8.69962	-1.14357	-0.65162	-9.31426
-226.56250	-7.08828	0.46795	0.95996	-9.31436
-222.65625	-8.29741	0.87065	2.16857	-6.49398
-218.75000	-9.10374	-2.75603	-1.45806	-8.91164
-214.84375	-7.89535	-3.15924	-1.05530	-10.12050
-210.93750	-1.85179	0.86990	-0.65257	-5.68836
-207.03125	-2.65804	1.67554	-3.07028	-7.30017
-203.12500	-10.71701	-1.54811	2.97348	-9.31498
-199.21875	-3.86769	2.07805	4.18209	-2.86829
-195.31250	-2.65941	2.07779	-2.26500	-3.27145
-191.40625	-8.30083	-1.95183	-1.45931	-8.10676
-187.50000	-5.88368	-1.54914	0.15219	-8.91276
-183.59375	-5.48111	-2.75813	-0.25092	-8.10710
-179.68750	-6.28737	-1.95249	-2.26580	-11.33076
-175.78125	-4.67612	-1.95271	-3.87780	-12.13678
-171.87500	-1.45304	-3.16172	0.95720	-6.89883
-167.96875	-3.87099	0.46445	1.76285	-4.07853
-164.06250	-0.64803	3.28471	0.95678	-4.48174
-160.15625	6.60423	0.46398	1.35945	-4.48199
-156.25000	3.78332	1.26960	-0.25247	-3.67642
-152.34375	-0.64938	-0.74530	0.15018	-4.07960
-148.43750	-1.85863	-1.55138	0.55289	-2.06523
-144.53125	6.19960	5.29819	3.37317	4.78434
-140.62500	6.60208	4.89506	1.35831	3.97826
-136.71875	-0.24814	0.05964	-8.71518	-2.06592
-132.81250	3.37776	0.05943	-7.90957	-1.66317
-128.90625	3.37738	2.07387	-1.86584	-0.45464
-125.00000	0.95947	2.47663	0.14861	-4.08119
-121.09375	-1.05565	1.26758	-1.06033	-7.70780
-117.18750	4.98783	3.68496	-2.67229	-6.49920
-113.28125	7.40496	4.49061	-1.06077	-3.67890
-109.37500	-1.05697	2.07281	1.75953	-4.08197
-105.46875	-2.26620	2.87850	2.16230	-6.49973
-101.56250	-2.26661	3.68413	0.55036	-8.91743
-97.65625	-1.86411	0.86338	-1.46446	-8.51468
-93.75000	-7.10261	-1.15159	-3.07633	-8.91774
-89.84375	-9.11769	-0.34592	-2.67365	-10.93265
-85.93750	-7.90933	-0.34617	-1.46507	-10.12693
-82.03125	-2.26866	2.87703	-0.25647	-5.29195
-78.12500	-1.46314	3.68265	-0.25666	-5.69508
-74.21875	-3.07528	1.26479	-1.06274	-14.15677
-70.31250	0.95351	3.68213	0.54872	-14.55993
-66.40625	-5.49383	6.50239	-0.66030	-9.32200
-62.50000	-6.30007	5.69631	-1.46637	-7.30750
-58.59375	-4.28579	2.06970	1.75693	-7.30761
-54.68750	-2.27152	1.26364	1.75676	-8.51650
-50.78125	-3.88364	2.47221	0.14477	-7.71076
-46.87500	-5.49562	2.47205	0.54743	-8.91956
-42.96875	0.14504	1.66602	-1.06451	-6.90496
-39.06250	-2.27293	0.05400	-1.46762	-4.48755
-35.15625	-1.87053	1.66549	2.96447	-2.87596
-31.25000	7.39638	3.27695	0.14373	-1.26441
-27.34375	2.15785	-2.76723	-4.69162	-5.29387
-23.43750	-4.69235	-5.18504	-0.25960	-4.08523
-19.53125	-1.06636	-2.36468	0.54604	2.76440
-15.62500	3.36541	-2.76786	5.78398	6.39064
-11.71875	6.58843	-2.36514	5.38085	7.19634
-7.81250	4.17048	-1.55953	0.54552	6.39033
-3.90625	2.96134	-1.96273	2.96293	5.18138
0.00000	3.76684	-1.15712	2.96273	2.76365
3.90625	-1.47163	-1.96320	1.35078	-1.66869
7.81250	-1.06906	-1.56048	0.54471	-6.50405
11.71875	-9.93387	-1.56069	0.14156	-8.11588
15.62500	-17.99270	-3.97849	-1.06734	-8.11598
19.53125	-9.12852	-1.56110	2.55882	-6.90730
23.43750	-7.51704	-2.77013	2.55861	-10.13090
27.34375	-14.77006	-7.60550	-4.69434	-15.77212
31.25000	-16.38216	-7.60572	-3.48573	-14.56348
35.15625	-15.57661	-4.78546	-1.06834	-14.96661
39.06250	-7.92131	-1.15935	-3.48615	-17.38433
42.96875	-3.48944	-0.75662	-3.48636	-15.77277
46.87500	-9.93674	-2.36855	-1.47192	-12.14653
50.78125	-11.14591	-4.78639	0.54253	-7.31154
54.68750	-9.93747	-3.17494	0.94531	-6.50586
58.59375	-7.92321	-1.96640	-0.26370	-7.31190
62.50000	-7.92358	-3.57832	-1.47271	-4.89448
66.40625	-7.11812	-3.57853	-5.50219	-4.08880
70.31250	-3.89504	-4.78756	-3.08479	-8.11829
74.21875	-0.67195	-3.57897	0.54135	-8.52143
78.12500	5.37166	-0.75868	0.13820	-2.47762
82.03125	4.96843	1.25574	-1.07076	0.74571
85.93750	0.13289	0.44969	0.13776	-0.46322
89.84375	8.19123	2.06118	4.97277	3.96890
93.75000	0.93814	-1.16251	5.37544	1.55114
97.65625	-17.19411	-5.59490	-3.08624	-12.14859
101.56250	-14.37401	-3.58045	-5.90694	-17.38683
105.46875	-9.53922	-1.96898	-0.66903	-10.53719
109.37500	-7.12207	0.85135	-0.26629	-9.32852
113.28125	1.33910	1.25403	-1.07234	-12.95508
117.18750	-0.67595	-1.16378	-1.47549	-12.95525
121.09375	-10.34670	-1.96983	-3.89330	-12.95542
125.00000	-10.34705	-3.17884	-3.49055	-11.34387
128.90625	-5.51219	-0.76146	2.95615	-6.91181
132.81250	-2.28912	3.26760	9.40285	-5.70325
136.71875	-9.13936	-1.56778	3.35863	-11.34444
140.62500	-13.16905	-3.58265	-0.26790	-9.73294
144.53125	-9.14016	-2.37406	0.94071	-6.50969
148.43750	-7.93180	-2.77727	0.53756	-10.53922
152.34375	-14.78204	-1.97165	1.74616	-10.94240
156.25000	-11.96190	-2.37475	1.74598	-9.33082
160.15625	-11.15645	-6.40423	-1.47763	-13.76323
164.06250	-19.61844	-5.19567	-0.67194	-16.18093
167.96875	-18.00712	-3.18124	0.93961	-17.38991
171.87500	-14.78408	-3.58437	2.14819	-17.79304
175.78125	-12.76981	-2.37579	3.75968	-17.39024
179.68750	-16.79949	-2.77897	3.35653	-17.39037
183.59375	-14.78525	-3.58503	0.53584	-13.76416
187.50000	-6.32413	-1.16770	0.53565	-8.12326
191.40625	-8.33918	-3.98842	4.56476	-10.13807
195.31250	1.33074	-5.19745	3.35576	-12.15288
199.21875	2.53910	-1.16839	0.53507	-6.10910
203.12500	-4.31119	0.04016	-2.28560	-1.67702
207.03125	3.34402	0.84580	-0.67412	-1.27432
210.93750	1.73195	-1.16914	-0.67435	-2.48327
214.84375	-0.68602	-2.37809	-2.68925	-2.08049
218.75000	1.32824	-0.36368	2.14576	1.54566
222.65625	4.14842	0.84488	2.95144	0.33675
226.56250	3.74510	-1.97588	1.33952	-2.88688
230.46875	-1.09040	-3.18491	-2.68995	-4.49883
234.37500	-5.52304	-2.37926	-3.49601	-8.52835
238.28125	-2.30000	-3.18541	-0.67571	-8.93147
242.18750	-1.49453	1.24661	2.14466	-5.70830
246.09375	-11.56819	-0.36532	1.33855	-8.52901
250.00000	-12.37451	-3.99196	-2.69095	-12.55853
253.90625	-7.53972	-3.18636	-3.89996	-10.94706
257.81250	-5.92843	-2.38071	-3.49725	-12.15601
261.71875	-8.74926	-2.38095	-0.67698	-15.37964
265.62500	-12.37601	-1.57532	-1.48306	-16.58861
269.53125	-13.58505	-1.17264	-2.28912	-20.21519
273.43750	-10.76489	-1.57576	-1.88644	-19.40943
277.34375	-10.36240	-2.78479	-1.08075	-16.58908
281.25000	-11.97450	-2.38207	-1.08095	-14.17161
285.15625	-9.15442	-0.77061	0.53051	-10.54543
289.06250	-3.11081	-3.59133	0.53030	-12.15725
292.96875	-5.93174	-3.18865	0.93306	-9.33688
296.87500	-5.52918	2.45216	2.54452	-4.50190
300.78125	-4.32080	-0.36857	-0.27621	-4.09909
304.68750	-8.35048	-3.59223	-1.88819	-2.89044
308.59375	-4.32160	0.43684	0.12622	3.95914
312.50000	-2.71037	2.04830	1.33478	12.42045
316.40625	-0.69614	1.24225	0.93170	12.42026
320.31250	2.52689	0.43619	1.73734	10.00248
324.21875	3.33229	-0.77286	2.54297	13.22573
328.12500	2.92893	0.03275	2.13987	12.82263
332.03125	2.12256	0.83844	2.54256	9.59895
335.93750	9.77780	0.83819	0.52770	10.00161
339.84375	9.77736	2.44964	-1.08419	9.19551
343.75000	4.13592	3.25526	0.93025	5.56891
347.65625	2.52367	1.64333	0.93002	3.95690
351.56250	0.10561	0.83727	-0.68196	3.15083
355.46875	-0.29770	0.43413	-1.89099	-0.47580
359.37500	0.91063	-0.37193	1.33221	-1.68480
363.28125	4.13359	1.64249	6.16717	0.73248
367.18750	-4.32841	0.03049	0.52588	-5.31174
371.09375	-7.55230	-2.38726	-0.28017	-10.14712
375.00000	-5.94103	-0.37278	-0.28037	-7.72978
378.90625	1.71431	0.83583	-1.08647	-8.53580
382.81250	3.72859	-0.77613	-2.69847	-8.13301
386.71875	-3.92759	-2.38805	-4.71332	-7.32733
390.62500	-1.51045	-1.58241	-0.28127	-6.52165
394.53125	-3.92848	-1.98560	2.94197	-6.11889
398.43750	-3.92892	-1.98586	2.94178	-6.11908
402.34375	4.53222	2.84911	2.94158	-5.31341
406.25000	-1.10918	-1.58338	0.52377	-4.91064
410.15625	-7.55655	-6.01588	-1.08814	-6.11965
414.06250	-3.93065	-2.79265	0.12040	-8.94034
417.96875	0.90414	-0.77824	0.12018	-4.50836
421.87500	2.51541	1.23613	0.52289	-0.07636
425.78125	3.32082	2.84763	1.32850	2.34098
429.68750	9.76731	4.05614	1.32828	4.35540
433.59375	7.75226	1.23543	0.11929	3.95222
437.50000	-0.30674	0.83231	-0.28380	1.53438
441.40625	0.09574	3.24961	2.53649	-1.68924
445.31250	0.90121	3.24935	3.74509	-2.49537
449.21875	3.31835	2.84621	4.55073	-4.51023
453.12500	4.52673	3.24883	3.74467	-3.70459
457.03125	0.49696	2.44271	-0.28484	-4.10770
460.93750	-3.93576	0.42781	-1.49386	-9.74897
464.84375	-3.53327	0.02461	-1.09112	-9.74916
468.75000	-3.53368	0.83029	1.72918	-4.51123
472.65625	-4.74288	0.02415	3.34064	-0.48216
476.56250	-0.71395	-1.99072	1.32576	-1.28827
480.46875	4.92672	-1.18509	2.53434	-1.69141
484.37500	0.89702	-0.37940	2.53412	-1.69165
488.28125	-3.53561	-4.40891	2.93687	0.32274
492.18750	-0.31255	-4.40914	3.74248	5.56055
496.09375	0.49289	-3.20065	4.14520	7.57492
500.00000	0.89549	-6.82719	2.53323	5.96290
503.90625	2.90980	-2.79808	3.33886	7.17149
507.81250	-1.11988	-0.78365	6.15918	5.55959
511.71875	-6.76130	-4.41023	3.74130	0.72417
515.62500	-2.32940	-0.78412	3.33807	-0.48485
519.53125	0.89370	-2.79900	3.74076	0.32085
523.43750	-7.16531	-3.60506	1.32289	0.32064
527.34375	-6.35975	0.02105	0.11381	0.32044
531.25000	-5.95723	-1.99384	0.11354	-0.48568
535.15625	-9.58395	-3.20286	1.72504	-3.30640
539.06250	-6.76384	-1.18843	1.72482	1.12563
542.96875	-3.54083	0.42305	-1.49885	0.72246
546.87500	-6.36172	-1.59186	-1.90202	-4.51584
550.78125	-5.15331	-1.99504	1.32121	-4.11309
554.68750	0.48735	0.01936	0.51512	-2.90453
558.59375	6.53090	4.04841	2.93252	1.12453
562.50000	11.76865	8.88340	4.54401	3.94482
566.40625	9.35066	2.83926	-2.70897	-1.69637
570.31250	2.50044	-1.59319	-3.51505	0.31804
574.21875	0.08241	1.22708	-1.09765	2.33243
578.12500	4.51421	3.64448	0.11088	0.31751
582.03125	6.12550	1.22667	0.91655	3.54068
585.93750	4.91622	0.42060	4.54268	6.36090
589.84375	3.70694	2.43502	7.76593	5.95771
593.75000	0.08005	1.22600	6.15401	3.53991
597.65625	-3.14382	0.01699	5.34791	0.71907
601.56250	-1.53261	-0.38613	7.76529	-1.29589
605.46875	2.89919	2.03120	6.15333	-3.31087
609.37500	-1.53343	0.01639	1.72085	-6.13167
613.28125	-3.14550	-1.19259	4.94408	-5.32615
617.18750	-1.93720	2.03065	6.95849	-4.92354
621.09375	-2.74347	0.82170	2.92893	-8.55027
625.00000	-4.35552	1.22438	0.10812	-9.35643
628.90625	-7.17645	-1.99930	2.52548	-9.75969
632.81250	-5.56509	-2.80538	8.56919	-6.53654
636.71875	-1.93913	2.43248	10.18071	-1.70160
640.62500	-5.96877	-2.00000	3.33063	-8.14873
644.53125	-8.38662	-4.82071	1.71872	-9.76070
648.43750	-8.38693	-2.40332	5.34485	-5.73161
652.34375	-3.55209	-1.19479	4.94176	-5.32885
656.25000	-2.34360	2.83434	2.92693	-6.53787
660.15625	-10.80545	3.63996	4.13555	-6.94097
664.06250	-7.17936	0.41631	4.13539	-4.52366
667.96875	0.87900	-0.79271	1.71758	-4.12096
671.87500	3.69911	-1.19588	2.12028	-4.92703
675.78125	0.07232	0.01273	3.32878	-2.50969
679.68750	-3.95737	0.01254	1.31392	-0.09231
683.59375	-5.16657	-1.59935	2.92548	2.32503
687.50000	-0.33178	-2.40539	1.71648	2.32479
691.40625	4.10004	-1.19685	-3.52182	6.75674
695.31250	-0.33268	0.81763	1.31311	9.17407
699.21875	-5.16839	-2.80902	2.92467	1.11519
703.12500	-8.39228	-2.80928	-0.29897	-0.89974
707.03125	-7.98992	0.41391	-1.10501	-1.30299
710.93750	-5.16998	2.02538	0.90945	-1.30330
714.84375	-5.57340	2.02518	0.90928	-1.30358
718.75000	-7.58853	-1.60138	-0.70266	-1.70677
722.65625	-7.18612	-1.60161	0.90886	-2.51304
726.56250	2.08079	0.81575	1.71449	-3.72221
730.46875	7.72142	-0.79621	4.53482	2.72439
734.37500	-0.33760	-2.00524	2.92291	0.70947
738.28125	-3.15853	-2.00547	0.90803	-3.72309
742.18750	-0.74137	-2.40859	-1.91273	-0.90286
746.09375	2.07876	-0.79712	-1.10701	1.51439
750.00000	2.07836	4.03779	5.74260	3.52879
753.90625	-1.14539	0.00827	1.71314	0.70795
757.81250	3.28644	-1.60361	-2.71928	-2.11279
761.71875	7.31533	2.82844	-2.71948	3.12504
765.62500	9.73254	2.02235	-1.10791	8.36289
769.53125	11.74677	1.61926	2.11534	7.55678
773.43750	15.37279	3.23074	3.72683	12.79462
777.34375	25.04272	1.21592	7.35298	15.61489
781.25000	17.38672	-1.20188	6.94988	11.18238
785.15625	6.10431	-0.79912	2.11452	8.36165
789.06250	6.90977	-0.39636	1.71137	5.54096
792.96875	6.10355	-0.39656	0.90531	2.31731
796.87500	8.52068	3.22955	1.30798	2.72002
800.78125	6.50556	3.22932	0.50193	1.51101
804.68750	0.46117	0.00565	-4.73638	-2.11556
808.59375	0.86363	1.21421	-4.33363	-1.30992
812.50000	7.30997	-0.80069	-1.11039	-1.31011
816.40625	4.48901	-2.81559	-1.91648	-3.72790
820.31250	0.45922	0.81059	-3.12540	-4.13098
824.21875	-0.34712	0.00448	-1.11097	-2.51948
828.12500	0.05530	0.40724	-3.12585	-3.72848
832.03125	2.87541	0.00410	-6.34951	-3.72868
835.93750	-1.15425	-1.20487	-7.15564	-2.92303
839.84375	-5.98983	-0.39914	-4.73825	-6.54971
843.75000	-10.01957	-2.01108	0.49965	-10.17632
847.65625	-11.63173	-1.20543	1.70821	-9.37078
851.56250	-12.03508	-1.20563	1.70795	-5.74475
855.46875	-5.58858	-0.39994	-0.30696	-2.52163
859.37500	-1.55969	2.82331	1.70746	2.31321
863.28125	-9.21576	1.61431	3.31894	2.31285
867.18750	-11.63363	-3.22110	0.49820	-2.52269
871.09375	-10.42524	-4.43005	0.09499	-0.50840
875.00000	-6.39628	-1.20685	0.49771	3.92351
878.90625	0.05019	0.80765	2.51214	5.93786
882.81250	2.87041	1.61331	3.31778	8.35520
886.71875	6.49640	4.43359	3.31758	11.98132
890.62500	9.71948	5.23920	0.49688	5.93716
894.53125	5.28684	4.43311	-3.12965	1.50469
898.43750	6.89819	6.04457	-4.33857	-1.71890
902.34375	8.10660	6.04434	-5.54749	-6.95717
906.25000	1.25634	5.23823	-7.15943	-5.34566
910.15625	3.67354	3.22330	-6.35372	-6.95757
914.06250	5.28488	4.02891	-3.53341	-8.16658
917.96875	3.26990	4.02870	-1.11597	-5.34626
921.87500	4.47833	2.81973	-0.71324	-3.73475
925.78125	3.26921	1.61073	-3.53391	-5.74962
929.68750	-1.96922	0.40174	-7.96637	-6.95860
933.59375	2.86558	4.83379	-3.13139	1.09973
937.50000	4.87988	2.41596	2.10649	0.29361
941.40625	-3.17906	-4.83701	1.30039	-2.12426
945.31250	-0.76191	-2.41965	4.52365	5.53117
949.21875	-0.35931	-0.80816	1.70296	6.73966
953.12500	-2.37425	-5.64351	0.09101	3.51607
957.03125	2.05755	-4.03208	0.89678	4.72461
960.93750	3.66886	-2.42060	0.09074	5.53024
964.84375	3.26555	-3.62961	1.70232	5.93281
968.75000	6.48861	-4.03275	0.49328	8.75296
972.65625	6.08528	-5.24176	-2.73039	4.72332
976.56250	8.09948	-3.63020	-3.93941	1.09663
980.46875	10.51660	-3.22751	-1.11910	0.29045
984.37500	3.26344	-0.40716	0.08944	2.30476
988.28125	0.84544	0.39847	0.08922	5.12490
992.18750	-2.78138	-5.64570	1.29776	-2.12818
996.09375	-5.19941	-5.24302	0.49170	-6.96363
1000.00000	-2.78227	-3.22859	2.50614	-2.93463
1003.90625	-2.78267	-1.21416	3.71474	-1.32320
1007.81250	-0.36544	0.80034	3.31161	-0.51761
1011.71875	1.64880	1.20302	1.29676	1.09387
1015.62500	7.69234	0.79991	0.08776	-0.51815
1019.53125	4.46848	0.79970	3.31101	-0.51842
1023.43750	-4.79940	0.79946	3.31078	-0.51871
1027.34375	-3.18810	-0.00672	1.69884	1.49563
1031.25000	-1.57684	0.79894	3.71328	2.70414
1035.15625	-0.77142	1.20161	4.51896	1.09222
1039.06250	0.83996	-0.41028	6.53347	1.49492
1042.96875	1.64538	2.40999	6.53325	5.52400
1046.87500	0.03318	3.21559	4.11548	7.13538
1050.78125	4.86796	1.20069	4.11527	6.32920
1054.68750	10.10563	2.81222	5.32381	9.14938
1058.59375	0.43485	-0.41146	2.50313	8.74611
1062.50000	-2.78908	-2.82930	4.11467	6.32824
1066.40625	3.65733	-0.41193	6.53198	7.13377
1070.31250	6.88030	-2.02390	2.09955	5.11878
1074.21875	7.68568	-2.42700	0.89050	3.10375
1078.12500	7.28231	-2.83015	4.11370	3.50632
1082.03125	9.69951	-2.02449	3.71052	0.68543
1085.93750	7.28146	-0.81590	3.30734	0.68508
1089.84375	9.29567	1.19852	4.51589	4.71399
1093.75000	17.75677	2.40711	3.70982	5.92246
1097.65625	13.72700	2.40690	0.88911	-0.52474
1101.56250	10.50308	4.82431	-0.31992	-4.15140
1105.46875	10.90556	4.82410	0.48564	-2.94294
1109.37500	8.89047	4.42095	0.88832	-2.94326
1113.28125	10.50180	6.83838	2.09688	-2.54062
1117.18750	12.11319	11.27039	5.32002	1.89136
1121.09375	13.32162	7.64385	2.49929	0.27939
1125.00000	13.72418	4.42018	-5.55953	-4.15312
1128.90625	7.27691	7.24046	0.08126	-3.75049
1132.81250	1.23261	2.00216	3.70750	-5.76538
1136.71875	-0.37949	0.79318	-0.32199	-4.95972
1140.62500	-1.18576	2.40463	-0.32220	-2.94532
1144.53125	-1.58913	0.79269	0.48344	-5.36317
1148.43750	-0.38079	1.59830	-0.32260	-0.12532
1152.34375	-1.18706	1.59809	-2.74042	0.68026
1156.25000	-4.41092	-0.81973	-0.72600	-4.55811
1160.15625	-2.39668	-0.41698	2.90020	1.48558
1164.06250	-1.99420	-0.82013	4.10882	5.51471
1167.96875	1.22883	-2.02914	2.09400	1.88810
1171.87500	4.04897	-3.64107	-1.12963	1.08202
1175.78125	-2.80127	-4.04422	-2.74155	0.27592
1179.68750	0.01888	-2.02976	0.07877	0.67856
1183.59375	5.65952	-0.82117	2.09330	5.51350
1187.50000	5.25613	1.19324	0.88429	7.12491
1191.40625	1.62935	1.19300	0.48112	5.91580
1195.31250	4.04652	2.40156	-0.72788	5.51259
1199.21875	4.85193	1.59549	-0.32512	2.28879
1203.12500	3.64268	1.99815	2.89810	1.48253
1207.03125	5.65686	1.59501	0.88320	0.27344
1210.93750	5.65640	3.60942	3.30051	-0.12984
1214.84375	4.44719	7.23555	6.52374	-0.93600
1218.75000	4.04391	1.99726	1.28541	-7.78615
1222.65625	2.43179	0.38537	-3.95292	-11.41278
1226.56250	2.43142	4.81741	-3.95315	-9.80135
1230.46875	0.41638	5.62303	-1.13284	-5.36937
1234.37500	-1.19573	4.01104	-1.53602	-4.56380
1238.28125	-2.80790	4.41374	-5.16259	-6.98164
1242.18750	0.41515	3.60764	-5.16282	-7.38489
1246.09375	0.01180	4.01030	-1.53666	-6.57929
1250.00000	-6.43544	4.81598	-0.73097	-5.77370
1253.90625	-6.03298	1.99520	-2.74584	-5.77396
1257.81250	-0.39234	4.81556	1.28321	1.07566
1261.71875	-0.79562	3.60656	1.28299	6.71643
1265.62500	-5.63114	-2.84056	-3.14942	4.29868
1269.53125	-4.82571	-1.63197	-1.13499	6.31315
1273.43750	-4.42317	-2.43804	0.87945	7.52172
1277.34375	-1.60311	-4.85589	3.29678	7.52145
1281.25000	-4.82700	-6.06493	3.69952	15.17680
1285.15625	-8.45382	-3.64756	2.08763	17.19114
1289.06250	-3.61915	-4.05074	2.08742	11.95276
1292.96875	-1.60496	-7.27442	4.50475	12.75838
1296.87500	3.22970	-2.84241	3.69868	14.36975
1300.78125	10.48198	0.38083	3.29551	15.98111
1304.68750	14.51081	1.58943	5.30996	18.39842
1308.59375	11.68983	5.61854	8.53321	17.59227
1312.50000	6.45125	2.79783	2.89201	10.33919
1316.40625	2.82445	-2.84342	-0.73459	8.32426
1320.31250	2.42104	-1.23194	0.47402	8.72688
1324.21875	4.43522	-0.02338	0.07088	5.10022
1328.12500	7.65818	1.18518	3.69712	7.92040
1332.03125	9.67237	3.60255	6.51744	13.15821
1335.93750	5.23970	3.19937	3.29380	9.53158
1339.84375	3.62758	2.39329	-0.33272	5.09908
1343.75000	4.43300	1.58723	-1.54168	9.53111
1347.65625	12.49124	1.98992	1.68162	9.93377
1351.56250	8.05871	4.00435	3.69610	5.09838
1355.46875	-0.40322	2.79540	2.89008	1.87470
1359.37500	4.02865	2.79522	6.51625	2.27745
1363.28125	4.43118	4.40672	5.30731	3.08310
1367.18750	2.41614	5.61534	2.48667	5.09754
1371.09375	1.20698	6.82393	1.68061	6.70897
1375.00000	7.25060	9.24125	4.90383	7.91752
1378.90625	7.65318	8.83811	7.32114	10.33487
1382.81250	6.84695	1.18219	0.47113	6.30530
1386.71875	5.23484	0.77911	0.47093	3.08160
1390.62500	1.60815	3.19645	2.48537	5.09599
1394.53125	2.81656	2.79336	-0.73828	4.28987
1398.43750	-2.01906	-0.43030	-1.54435	3.48375
1402.34375	-0.81067	-0.02764	-3.55923	1.06586
1406.25000	3.21821	1.98679	-3.15648	-3.76965
1410.15625	2.41199	-0.02805	-0.33618	-4.57577
1414.06250	-0.40889	-0.02827	-0.33639	1.06497
1417.96875	4.02296	0.77741	-0.73957	1.06465
1421.87500	6.03720	1.18008	-3.96324	-5.38257
1425.78125	-2.42478	1.17985	-6.78395	-5.78584
1429.68750	-2.82820	1.58257	-2.35189	-4.57735
1433.59375	-0.00815	1.98524	0.06544	-2.56300
1437.50000	-2.82914	-1.23846	-4.76990	-1.75739
1441.40625	-1.62082	1.98474	0.87097	-0.14600
1445.31250	-1.21829	1.58164	6.10889	-1.35511
1449.21875	-7.26272	-4.46253	2.07941	-8.20523
1453.12500	-0.41329	-4.86572	-1.54717	-7.39972
1457.03125	5.22731	-5.26889	-2.35318	-4.57954
1460.93750	-2.83169	-2.44855	-1.14453	-4.57985
1464.84375	-3.23497	-0.83708	-0.74183	-1.75956
1468.75000	0.79400	-1.24022	-0.33905	1.06068
1472.65625	6.43467	-0.43450	0.46665	4.28390
1476.56250	11.26953	-0.83768	0.86942	9.11878
1480.46875	11.26913	0.37088	1.67508	6.29802
1484.37500	8.85114	5.20576	1.27191	5.49189
1488.28125	13.28302	5.60847	-0.34000	9.11793
1492.18750	13.28268	3.59360	0.46565	9.11766
1496.09375	11.26771	3.59338	-4.36969	9.52033
1500.00000	14.89371	8.02544	0.06233	10.72884
1503.90625	8.84936	8.42813	8.12078	6.29626
1507.81250	5.22257	2.38400	4.09129	0.25199
1511.71875	8.04276	3.59260	1.27054	5.89268
1515.62500	8.84822	7.21873	1.27032	8.71287
1519.53125	4.41557	5.60681	-1.95335	2.66862
1523.43750	2.80347	4.80076	-2.35645	-1.36101
1527.34375	2.40018	7.21811	-0.34201	-2.97304
1531.25000	-2.03236	7.21793	0.06065	-4.98799
1535.15625	-0.82384	7.21774	-1.55126	-3.77955
1539.06250	-2.43584	5.60583	-2.35731	-1.36226
1542.96875	-10.89773	0.36750	-5.58098	-7.00357
1546.87500	-9.68919	2.38195	-2.76067	-9.42146
1550.78125	-3.24259	4.39641	-1.95501	-8.61587
1554.68750	-7.27235	-2.05072	-7.99918	-11.43665
1558.59375	-4.85508	-2.85678	-7.59642	-10.63108
1562.50000	-3.64662	-1.24528	-1.55265	-8.21372
1566.40625	-6.87040	-3.26012	2.47646	-2.97584
1570.31250	-6.06491	-4.06617	-2.35886	-0.55850
1574.21875	-7.67697	-3.66343	-5.58251	-4.58803
1578.12500	-6.87150	-3.66366	-1.55343	-4.99119
1582.03125	-5.26024	-3.66388	0.46101	-2.97682
1585.93750	-5.66353	-2.45529	0.05786	-0.96248
1589.84375	-1.63459	-1.64964	-1.55401	1.85770
1593.75000	5.61777	-0.84399	-5.18057	2.66320
1597.65625	5.21441	1.17043	-4.77792	5.08038
1601.56250	4.00522	1.97605	-1.55469	5.48295
1605.46875	6.01941	4.79638	1.26560	2.66206
1609.37500	3.19842	6.81080	1.66837	3.06467
1613.28125	-2.04017	2.78126	-0.74944	0.24382
1617.18750	2.79453	2.78101	1.26500	2.25816
1621.09375	11.25562	5.19834	1.26483	3.86955
1625.00000	11.25514	3.98934	-0.74999	-0.16005
1628.90625	12.46346	2.78042	0.45867	-0.56324
1632.81250	10.44841	4.39190	-0.75027	1.04826
1636.71875	4.00113	3.58582	-1.15335	-1.77252
1640.62500	8.03001	3.18261	-3.57112	-2.17575
1644.53125	10.44714	4.39117	-4.78008	-0.56431
1648.43750	10.04387	4.39095	0.45785	-3.38506
1652.34375	9.64058	4.39073	3.27816	-2.17650
1656.25000	4.80512	6.80812	5.29261	1.44960
1660.15625	8.83409	6.40497	6.50121	5.07572
1664.06250	10.84844	2.37549	4.88935	4.67249
1667.96875	-2.85147	2.77825	3.68035	-2.58054
1671.87500	-5.67229	5.59856	4.48598	-0.96911
1675.78125	-4.06095	3.58372	4.08290	2.25401
1679.68750	-3.25540	0.76301	4.48560	4.26830
1683.59375	0.77354	2.37450	2.06786	5.47674
1687.50000	1.57905	5.59776	3.27643	6.28227
1691.40625	0.77284	5.59756	4.88803	5.47611
1695.31250	5.20466	2.37391	0.85856	2.25235
1699.21875	4.80140	3.58251	0.45542	2.65493
1703.12500	-0.43708	3.98522	4.48454	4.26636
1707.03125	-2.04929	-2.05890	2.46969	1.44547
1710.93750	-7.28786	-3.67076	4.08124	-0.97238
1714.84375	-8.09413	1.16423	3.67812	-2.18148
1718.75000	-6.07994	0.76117	3.27499	-0.97301
1722.65625	-4.06577	0.35807	0.85724	-1.77920
1726.56250	-0.43985	0.76085	-2.76935	-4.60008
1730.46875	2.78311	-0.85110	1.66271	-3.39159
1734.37500	1.17091	0.35752	4.08014	-3.79484
1738.28125	-0.03831	0.35734	3.67701	-4.19802
1742.18750	1.97593	0.76010	-1.96422	-2.98952
1746.09375	1.97555	2.77458	-2.77021	-2.98979
1750.00000	2.37811	3.17730	1.25892	-2.18425
1753.90625	3.58655	2.77423	-0.35296	-0.16996
1757.81250	11.64477	5.99746	3.67617	1.44138
1761.71875	12.04733	6.40024	4.88480	3.05279
1765.62500	-0.44393	2.77372	-3.57691	2.24658
1769.53125	0.36148	0.35596	-4.78587	-0.97722
1773.43750	3.18159	1.56458	0.04910	3.45470
1777.34375	1.97244	2.37022	3.67533	9.49830
1781.25000	-3.26600	-1.65929	-0.35414	3.05107
1785.15625	-4.47524	-2.86828	-1.56313	1.43899
1789.06250	-4.87852	0.35500	2.86899	5.87095
1792.96875	-10.11693	-0.04814	2.06299	5.06482
1796.87500	-8.50556	0.35459	-1.16068	1.43808
1800.78125	-7.29723	1.16022	-1.96680	-3.39739
1804.68750	-5.68584	2.36881	1.65940	1.84037
1808.59375	-6.49201	1.96568	4.47970	5.86934
1812.50000	-11.32749	-1.66083	-2.77322	-1.38370
1816.40625	-11.32777	-2.46686	-3.98219	-1.78688
1820.31250	-12.13392	-2.86998	0.44988	1.83917
1824.21875	-9.71660	-1.25842	2.06145	2.64476
1828.12500	-8.91103	-0.85563	1.65833	0.62986
1832.03125	-9.31431	-1.66165	2.46403	3.45015
1835.93750	-5.28536	-0.05013	4.07562	5.06158
1839.84375	-3.67397	0.35262	3.26951	1.83785
1843.75000	-4.07727	2.36708	1.65763	3.85221
1847.65625	-3.67467	0.35227	0.44866	5.46369
1851.56250	1.56304	-0.85670	0.04554	3.85164
1855.46875	5.99496	-0.85688	2.46295	2.64253
1859.37500	7.60633	0.35175	0.85106	-0.58122
1863.28125	17.27635	3.17206	0.44793	2.64193
1867.18750	10.82913	2.76896	-1.56690	3.85042
1871.09375	-1.66208	-0.45468	-5.59639	-1.38797
1875.00000	-0.45365	-1.26079	-1.16434	-2.59702
1878.90625	5.18699	-0.05220	-0.76164	0.22328
1882.81250	9.21595	-0.85825	-1.16473	3.84934
1886.71875	10.82737	-1.66431	-0.35907	3.44619
1890.62500	16.06515	-1.66454	-1.97101	3.44592
1894.53125	13.24432	1.55868	4.47568	3.84852
1898.43750	12.84099	3.57312	6.49013	3.04241
1902.34375	16.06409	3.16997	2.05776	2.63917
1906.25000	10.01978	3.57272	1.25164	2.23598
1910.15625	7.19886	2.76667	1.65438	1.83273
1914.06250	3.97511	0.34889	1.65419	3.84709
1917.96875	2.76596	2.76632	4.87743	8.27906
1921.87500	2.76564	1.15440	1.65380	5.45829
1925.78125	-0.45817	-1.66628	-0.36103	5.05504
1929.68750	-0.86152	0.75112	0.84757	5.45769
1933.59375	1.55569	0.34795	-0.36141	-1.79534
1937.50000	-2.47399	-0.45810	0.04129	-2.19858
1941.40625	-5.69780	1.55636	1.24990	1.42748
1945.31250	-1.66886	4.37664	-0.76492	1.02432
1949.21875	-1.26628	4.37642	-2.37684	-0.18472
1953.12500	-4.89306	1.95861	-0.36240	-3.00544
1957.03125	-2.87878	-0.05626	0.04029	-3.81160
1960.93750	1.55314	1.55527	0.04008	-0.58841
1964.84375	1.55279	0.74919	-1.97479	-0.58870
1968.75000	11.22281	1.95770	-1.16911	1.82859
1972.65625	11.62543	1.95748	1.24823	4.24592
1976.56250	3.56656	-4.48954	-2.37829	-1.79831
1980.46875	3.16332	-3.68389	-4.79609	-5.02206
1984.37500	1.95421	-2.07238	-6.40798	-0.99306
1988.28125	0.74519	-0.46079	-7.61699	-1.79925
1992.18750	-2.07564	-1.66979	-5.19959	1.02088
1996.09375	-0.06130	-1.26710	-4.39395	2.63222
2000.00000	0.74425	-0.05850	-4.39416	-1.80033
2003.90625	-3.68839	-2.47623	-3.99145	-3.81542
2007.81250	-8.12100	-4.89404	-1.17104	-2.20403
2011.71875	-2.48031	-3.28257	0.44047	3.43664
2015.62500	7.99551	0.34360	-3.58905	9.07724
2019.53125	9.20389	-0.46247	-5.20096	10.68864
2023.43750	3.56251	-6.90959	7.28960	11.49410
2027.34375	-2.07895	-11.34207	8.90112	3.83803
2031.25000	-4.49686	-12.14811	0.84235	-3.81801
2035.15625	-4.49721	-6.10437	0.03628	-5.43003
2039.06250	0.74051	1.55112	-0.76975	-7.44501
2042.96875	4.36645	2.75970	-0.36699	-0.19261
2046.87500	1.14262	1.95358	0.84163	3.83635
2050.78125	4.36571	4.37099	0.43850	1.41845
2054.68750	8.39465	5.57956	4.06471	2.62695
2058.59375	7.58848	1.95294	4.87039	3.43254
2062.50000	3.15591	-0.06190	-1.17370	1.41749
2066.40625	1.94677	-0.46503	-6.81493	-0.19457
2070.31250	-2.88868	1.14642	-4.80047	-5.43301
2074.21875	2.34910	1.54915	-1.98015	-7.44801
2078.12500	5.16922	-0.86869	-3.59202	-5.83670
2082.03125	0.33368	-1.67476	-2.38338	-5.03117
2085.93750	5.57138	4.36896	0.83992	-2.61399
2089.84375	1.94454	3.15991	0.03386	-5.03190
2093.75000	0.33244	-1.27259	0.83961	-5.83818
2097.65625	2.74965	0.33891	2.85409	-3.42095
2101.56250	3.95808	1.95036	3.65977	-3.01838
2105.46875	3.55481	-0.06451	3.25668	0.20473
2109.37500	-4.50417	-2.88523	-1.17565	3.83074
2113.28125	-3.69872	-2.88544	-2.78756	2.21870
2117.18750	1.53899	-3.28861	0.83869	4.63593
2121.09375	2.34446	-2.08004	4.86782	7.05323
2125.00000	3.55292	2.75494	7.68817	7.45591
2128.90625	7.98480	3.96346	5.27043	11.08197
2132.81250	5.16385	-0.06607	0.03218	8.26116
2136.71875	2.34299	-0.87215	-0.37089	5.84325
2140.62500	13.22176	-0.06652	-1.17690	10.27520
2144.53125	14.02719	0.33621	0.83760	13.90125
2148.43750	-0.88168	0.73891	2.44913	11.08044
2152.34375	-2.09088	1.54453	0.83727	8.66253
2156.25000	-3.70300	1.94722	-1.17752	6.24471
2160.15625	-7.73275	1.54411	-0.77476	3.42393
2164.06250	-4.10685	1.14092	2.85149	5.84119
2167.96875	-0.48087	2.34949	4.46300	5.84087
2171.87500	-4.10769	1.94629	2.44818	-2.21806
2175.78125	-6.52564	1.14020	-1.17833	-8.66529
2179.68750	-0.88503	5.16926	-0.77560	-6.65099
2183.59375	-7.33228	2.34853	1.64185	-6.65133
2187.50000	-16.19708	-3.29275	0.02992	-6.24873
2191.40625	-10.55649	-2.08416	-0.37314	-2.21977
2195.31250	-8.13926	-0.47261	2.44720	-0.20548
2199.21875	-6.52792	-0.06994	2.84995	0.19704
2203.12500	-6.12546	-1.68186	2.44678	1.80830
2207.03125	-6.12589	0.73551	2.04368	3.41968
2210.93750	1.12642	1.54112	-0.37411	1.00171
2214.84375	3.54358	1.13792	2.04330	3.82183
2218.75000	-2.50082	0.73480	2.44601	5.83612
2222.65625	-0.88954	0.33163	-1.18048	2.20944
2226.56250	1.52764	1.94309	0.02808	2.20911
2230.46875	4.75068	3.95751	0.43085	-0.61179
2234.37500	4.75031	8.38953	2.44533	-1.41800
2238.28125	11.19680	10.00103	0.83346	1.40210
2242.18750	12.80809	5.16561	-6.01657	-5.04510
2246.09375	3.94328	2.74786	-5.21083	-10.28357
2250.00000	5.95757	3.15052	-5.21101	-11.89571
2253.90625	3.53962	3.55323	-2.79363	-13.10486
2257.81250	-0.08715	4.35883	-1.98796	-9.47879
2261.71875	0.71834	3.14974	0.83240	-5.85280
2265.62500	-0.08795	3.14945	2.04099	-3.43556
2269.53125	3.13515	6.37264	-3.19728	0.99637
2273.43750	9.17874	3.55188	0.02596	1.80187
2277.34375	0.31397	1.13403	4.86103	2.60735
2281.25000	-2.10396	7.17774	5.26378	10.26269
2285.15625	-3.71601	5.56582	5.66657	7.44183
2289.06250	-9.76031	-0.47836	4.45761	-1.02008
2292.96875	-9.35781	2.34188	5.66625	2.20300
2296.87500	-8.95529	4.35630	4.45727	3.00846
2300.78125	-9.76158	5.56485	3.65123	0.18759
2304.68750	-9.76201	3.54995	5.26274	1.79890
2308.59375	-0.89797	-0.07668	4.85969	4.21612
2312.50000	-0.49543	0.72900	1.63607	2.20108
2316.40625	-8.95743	0.32579	-1.18459	3.00651
2320.31250	-3.71977	-1.28623	-0.78188	3.81195
2324.21875	-1.30260	-2.49523	1.63555	-0.62068
2328.12500	-2.51182	-1.28676	1.23246	-3.03861
2332.03125	0.30825	0.72769	-3.19991	-1.42732
2335.93750	0.71084	-0.88432	-3.20009	-2.63653
2339.84375	4.33684	2.33889	-1.58855	-1.02517
2343.75000	5.54527	7.17380	0.82888	0.98905
2347.65625	5.94792	1.53258	-1.99186	-2.63776
2351.56250	9.57404	-0.07937	-8.84181	-5.05566
2355.46875	8.76790	2.33803	-6.82733	-2.23554
2359.37500	9.57341	-0.07978	2.43990	5.01681
2363.28125	6.34960	1.12881	4.85735	9.04569
2367.18750	5.54339	1.93441	4.05133	9.44824
2371.09375	7.15474	0.32248	5.25990	9.85075
2375.00000	4.73686	0.32228	4.45391	9.44750
2378.90625	1.11012	1.93377	3.24498	8.64127
2382.81250	-0.50191	4.75410	3.24484	6.62630
2386.71875	6.75047	5.55972	1.23004	6.22308
2390.62500	6.75014	3.54485	-2.39644	3.40226
2394.53125	4.33221	3.94754	-4.41123	2.19312
2398.43750	8.76404	5.96196	-2.39673	4.20739
2402.34375	6.74897	3.94709	0.02066	5.41583
2406.25000	7.95736	5.15567	1.63227	11.86230
2410.15625	6.34522	6.36423	0.82626	11.45903
2414.06250	1.10675	3.94637	-0.38272	5.01173
2417.96875	-2.52004	4.75204	2.03471	1.78787
2421.87500	-3.32633	6.36351	2.43743	2.19040
2425.78125	-4.13263	4.34864	-1.18909	-1.83933
2429.68750	-6.14769	3.94545	-6.02449	-3.85451
2433.59375	-5.74519	5.15403	-3.60703	-2.24320
2437.50000	-5.34278	5.55677	0.82506	-3.85540
2441.40625	-2.52266	4.75070	-0.38392	-4.66173
2445.31250	-1.71720	3.94459	0.42173	-3.05041
2449.21875	-3.32921	2.33273	-0.78729	-0.63324
2453.12500	-2.52367	1.92959	-0.38449	0.57519
2457.03125	1.90812	2.73526	1.22712	-1.84280
2460.93750	8.35457	2.73498	1.62995	0.97723
2464.84375	7.14533	3.13757	4.45032	4.60318
2468.75000	-3.73419	1.52563	4.04731	1.78234
2472.65625	-3.73462	-0.48926	2.83843	-0.63563
2476.56250	0.69720	-0.89243	5.65880	0.16987
2480.46875	-1.31786	-4.51898	6.46452	0.16948
2484.37500	-2.12416	-3.31045	5.65858	2.18375
2488.28125	-2.93044	1.12155	1.62915	3.39214
2492.18750	1.50136	0.71840	-1.99736	-0.23465
2496.09375	3.11262	3.53864	1.62896	0.16795
2500.00000	1.09755	3.53838	5.65814	5.40570
2503.90625	-0.51457	1.92639	7.26969	5.80821
2507.81250	-0.11212	2.73208	4.85203	3.39027
2511.71875	2.30510	2.73185	-0.38618	2.58397
2515.62500	3.51351	6.35796	0.41955	6.61289
2519.53125	0.69260	7.16357	4.44873	7.41842
2523.43750	-4.14299	1.11940	0.82229	-2.65524
2527.34375	3.10940	0.71629	-0.78956	-5.47606
2531.25000	7.94426	3.13363	0.82208	-2.25295
2535.15625	3.51168	3.13343	-0.38686	-2.65630
2539.06250	4.31720	3.53617	-1.19284	-2.25374
2542.96875	5.12269	2.73011	-1.59591	-1.44826
2546.87500	4.31654	-0.89649	-3.20773	-0.64278
2550.78125	2.30155	0.31211	-3.20788	-1.04607
2554.68750	5.12167	2.72950	-6.43146	-2.65821
2558.59375	9.95654	0.71465	-4.01406	-0.24099
2562.50000	3.91228	-1.30029	-3.61126	-1.04722
2566.40625	3.10606	1.92296	-4.41725	2.17586
2570.31250	7.13499	3.13155	0.82071	7.41358
2574.21875	1.89653	-2.10676	-1.19406	4.59261
2578.12500	-0.92427	-2.50982	-1.59711	4.59224
2582.03125	3.91061	2.32514	0.01446	7.81535
2585.93750	7.53659	4.33958	1.22314	9.42673
2589.84375	7.13324	2.32469	4.44644	9.82925
2593.75000	7.53580	1.92150	2.83460	8.21718
2597.65625	4.71493	-0.09337	-4.82121	2.97872
2601.56250	-0.92650	-0.49647	-8.04479	3.38127
2605.46875	0.68489	1.11500	-4.01566	7.41015
2609.37500	1.89325	1.11478	0.81939	5.79800
2613.28125	-3.74814	1.51751	0.81924	1.36535
2617.18750	-0.12219	1.51726	0.41614	4.58840
2621.09375	3.10090	0.71121	3.23651	8.61732
2625.00000	2.29465	2.72564	3.63934	5.79646
2628.90625	9.94998	7.56057	4.04217	6.60197
2632.81250	4.71155	1.91932	2.02743	7.40756
2636.71875	-1.73572	-5.33364	-0.79326	2.57197
2640.62500	0.68148	-3.72212	0.41539	1.76570
2644.53125	-0.52773	-3.31947	-0.79356	0.55648
2648.43750	0.27765	-3.31970	-3.61418	-1.45859
2652.34375	-1.33449	-4.12577	-2.80846	-1.05605
2656.25000	1.08266	-2.51424	0.81778	0.55522
2660.15625	-0.12654	-1.70860	-0.79413	-1.45986
2664.06250	-4.15626	-2.11177	-2.80894	-4.28081
2667.96875	5.11077	-2.11197	-2.40615	-1.86365
2671.87500	6.31919	-1.70922	-2.00343	-2.26705
2675.78125	-2.94860	-3.32118	-1.19766	-2.67044
2679.68750	-0.53138	-2.91846	0.41389	-0.65620
2683.59375	0.67708	-0.90404	-0.79504	-0.65658
2687.50000	-0.93501	1.51335	-1.60102	-3.47745
2691.40625	1.07926	1.91603	-1.19827	-1.46321
2695.31250	2.28766	0.70704	-4.82485	-1.86649
2699.21875	5.10777	3.12435	-3.61620	-1.86687
2703.12500	4.30154	1.91532	0.00999	-0.65852
2707.03125	-6.17506	-2.11420	-2.00478	-5.09110
2710.93750	-7.38429	-0.09979	-2.40779	-6.30029
2714.84375	-1.74365	1.91462	-2.81089	-2.27139
2718.75000	-4.56452	-1.30906	-4.01981	0.95166
2722.65625	-7.38546	-0.50338	-1.60236	-0.25753
2726.56250	-5.37121	2.31687	1.62092	-0.66091
2730.46875	0.26941	1.91366	2.42665	0.54743
2734.37500	1.88068	3.52519	2.82953	-3.48233
2738.28125	-4.56656	5.13671	1.62061	-4.69155
2742.18750	-4.56692	4.33067	-0.39418	-1.06556
2746.09375	-2.55269	3.52461	-2.00608	1.75453
2750.00000	-7.79125	1.50974	-4.42377	0.14242
2753.90625	-12.62690	-1.71396	0.00831	-3.08147
2757.81250	-9.40388	-2.11718	2.42582	-2.27601
2761.71875	-5.37498	-2.52033	3.23155	-1.47055
2765.62500	-6.18122	-2.92353	3.23137	-0.66515
2769.53125	-0.94350	0.29970	4.43999	0.94618
2773.43750	3.89133	1.10534	7.66326	0.94579
2777.34375	-5.37650	-4.53585	4.84261	-5.09854
2781.25000	-6.18275	-6.55071	1.21606	-9.53118
2785.15625	-2.55676	-4.93925	-0.39579	-9.12862
2789.06250	-3.36298	-4.93949	-2.41059	-7.92026
2792.96875	-3.36337	-7.35732	0.00679	-6.71185
2796.87500	0.66555	-4.13408	3.23008	-5.10051
2800.78125	3.88865	-0.10498	2.02115	-4.69801
2804.68750	1.47068	-0.10520	2.02097	-0.66911
2808.59375	5.09669	-0.91128	2.82662	0.94225
2812.50000	3.88763	0.70027	4.03521	2.15067
2816.40625	-0.14206	0.70006	5.64672	5.37378
2820.31250	-2.15706	-4.13535	1.21429	-0.67055
2824.21875	0.26027	-4.94141	-1.60637	-1.87963
2828.12500	4.28926	-2.12113	1.21394	1.74634
2832.03125	-0.14337	-1.31550	0.81085	0.94009
2835.93750	-0.14374	-1.71860	-1.20398	-0.67206
2839.84375	0.25882	-1.71883	-4.83057	-0.26954
2843.75000	-0.14453	-1.71904	-2.81609	1.74471
2847.65625	6.70495	-0.91339	-0.39863	1.74436
2851.56250	5.09283	0.29518	-1.20463	1.74397
2855.46875	3.07781	-0.10800	-0.39893	3.75824
2859.37500	4.68922	-1.71992	-1.20492	1.34027
2863.28125	3.88305	-0.10845	2.42128	0.53404
2867.18750	6.70322	3.51773	4.43576	-0.27220
2871.09375	2.27063	-0.10889	-2.81715	-5.51072
2875.00000	-0.14734	-2.92959	-3.62316	-3.49646
2878.90625	0.65815	-1.72101	0.00303	-3.89980
2882.81250	0.65771	-1.72124	-4.02646	-9.54122
2886.71875	-2.96910	-0.51264	-7.65297	-10.34745
2890.62500	-2.56651	2.30767	-2.41499	-7.12436
2894.53125	5.49174	1.09867	-6.84740	-6.31893
2898.43750	2.26799	-2.93081	-8.45924	-6.31932
2902.34375	-5.38799	-4.94563	0.00211	-2.69336
2906.25000	0.65571	-2.12535	2.01663	-0.27616
2910.15625	-0.95635	-0.51382	0.80762	3.34982
2914.06250	-4.58298	-3.33459	0.40447	4.15527
2917.96875	-2.16579	-6.55821	0.40428	4.55781
2921.87500	2.66903	-3.33506	1.61290	4.55745
2925.78125	3.87751	-1.32063	1.61277	4.55711
2929.68750	-2.97265	-4.14137	-0.40202	6.57142
2933.59375	0.25048	1.09647	1.20952	8.18283
2937.50000	0.65315	1.90211	-0.40232	5.76496
2941.40625	-4.18231	-1.72445	-3.22299	3.75005
2945.31250	-5.39140	0.28996	-2.82028	6.97318
2949.21875	-4.98877	-0.51613	-3.62627	5.76404
2953.12500	0.24897	-0.91932	-4.02933	4.55492
2957.03125	-0.55725	1.09504	-3.22358	6.97217
2960.93750	0.24826	0.28893	-0.00041	7.77764
2964.84375	0.24792	-0.11428	-1.61234	5.76263
2968.75000	-6.19931	0.69136	-8.05945	6.16523
2972.65625	-4.18494	1.49698	-5.23908	5.35903
2976.56250	-1.76759	0.28795	-0.80706	2.94107
2980.46875	-2.17080	-1.32401	1.20741	0.52312
2984.37500	-2.57398	0.69051	2.81899	-1.49189
2988.28125	-3.38015	0.28734	-1.21047	-1.49227
2992.18750	0.24590	2.30175	-0.80774	0.52199
2996.09375	0.64854	1.89858	1.60970	-0.68723
