 	TP9	AF7	AF8	TP10	
-1000.00000	3.56314	4.48795	-5.21970	2.96492
-996.09375	3.96519	6.90510	-6.83079	4.57735
-992.18750	-3.69139	5.69594	-4.00968	5.78693
-988.28125	2.35166	4.88976	-6.42667	9.01118
-984.37500	3.15661	6.09826	-8.03777	10.62366
-980.46875	-10.94684	1.66569	-3.20202	8.20688
-976.56250	-5.70961	2.87419	-4.00728	12.63985
-972.65625	-4.90465	1.66509	-6.42437	8.20830
-968.75000	-12.96418	-3.57337	-1.99160	2.56794
-964.84375	-10.14458	1.66434	3.65003	5.79211
-960.93750	-10.95131	6.90209	3.24763	5.38999
-957.03125	-14.98147	4.48423	-3.19871	4.98782
-953.12500	-14.57935	2.06631	-3.60096	3.77985
-949.21875	-14.17728	-0.35161	-1.98860	4.58658
-945.31250	-13.37226	-8.81351	-0.77921	9.42267
-941.40625	-8.94087	-5.59042	0.83305	10.63226
-937.50000	-10.55345	1.66193	0.43074	7.00677
-933.59375	-10.15142	0.45274	-1.58334	10.23106
-929.68750	-5.31705	2.87000	-4.40327	14.66416
-925.78125	-9.34731	1.25790	1.23832	10.63563
-921.87500	-10.15408	-0.75714	3.25355	4.59247
-917.96875	-0.88758	0.85424	-2.38684	3.38445
-914.06250	-0.88846	0.04805	-1.58037	7.01168
-910.15625	-2.09820	2.06230	-0.37098	11.84762
-906.25000	-4.51670	0.04721	-1.98217	10.23674
-902.34375	-4.51764	-4.38548	-2.78742	8.62586
-898.43750	-2.90694	-3.58006	-4.39852	7.82088
-894.53125	-5.32547	-0.75990	-3.18915	0.16610
-890.62500	-8.14697	-4.38668	-0.77095	-5.07114
-886.71875	-5.73034	-8.01341	-5.20263	0.16782
-882.81250	-0.09029	-1.16403	-7.61958	3.39204
-878.90625	-0.49421	2.05901	-3.18677	3.39291
-875.00000	-5.73321	0.04396	-1.17151	0.17044
-871.09375	-5.33114	2.05819	-1.57381	-2.24630
-867.18750	0.30896	5.68411	-3.58788	-1.43961
-863.28125	-2.51239	2.46032	-3.99021	-0.22989
-859.37500	-6.54254	-3.18110	-3.18373	-4.66120
-855.46875	-1.70826	-4.79318	-2.37720	-3.04852
-851.56250	-4.93256	-4.39064	-1.57074	2.19048
-847.65625	-9.76851	1.65297	-2.77897	0.17674
-843.75000	-3.32241	-5.60013	-2.77842	0.98352
-839.84375	5.13828	-8.01803	0.44557	7.83422
-835.93750	7.55508	7.29297	-1.56854	11.46154
-832.03125	3.92794	5.68087	-8.41785	12.67134
-828.12500	-2.51976	0.03953	-1.97039	15.49285
-824.21875	2.71753	1.24797	2.05948	15.49386
-820.31250	9.56653	2.85936	-2.77505	14.68905
-816.40625	7.55108	4.87371	-3.98326	12.67538
-812.50000	3.52095	4.87336	-4.38558	8.24411
-808.59375	3.92310	4.06715	-3.57917	5.02167
-804.68750	1.50464	2.05211	-5.19038	-0.21549
-800.78125	-0.10789	6.48400	-4.38392	-2.63216
-796.87500	3.51765	7.28947	0.04880	0.99522
-792.96875	-3.33295	2.45395	-3.17410	-4.64485
-789.06250	-11.79530	1.64773	-10.02333	-9.47902
-785.15625	-6.15513	0.03569	-8.41106	-5.04580
-781.25000	-3.73834	2.45290	-2.36647	-1.41849
-777.34375	-5.75379	4.46719	0.05163	-3.02923
-773.43750	-2.53119	3.25807	-3.17128	-2.22249
-769.53125	2.70601	4.46651	-3.17072	-0.60996
-765.62500	3.91383	5.27196	-1.15549	0.19666
-761.71875	-0.11644	0.83934	-2.36372	2.21202
-757.81250	2.70318	-0.36980	-0.34859	6.24222
-753.90625	6.73159	2.85331	-2.36274	4.63134
-750.00000	8.34238	2.85296	-2.36220	5.84098
-746.09375	8.34143	2.04678	-2.76461	9.46822
-742.18750	6.32583	-1.98283	-4.77873	11.08073
-738.28125	11.16006	-0.37147	0.45990	11.08154
-734.37500	7.12974	0.43406	0.05752	5.03840
-730.46875	1.08471	-1.98385	-5.58290	4.23334
-726.56250	-2.94564	-5.61062	-7.99996	3.83114
-722.65625	-5.76720	-5.20796	-2.35836	6.65238
-718.75000	-6.97703	1.23862	-0.34314	7.86196
-714.84375	-6.97803	1.23827	-3.96897	6.25108
-710.93750	-9.39663	-1.98552	-2.35669	5.84894
-707.03125	-8.59169	-0.37416	-1.95329	-0.19419
-703.12500	-6.98094	2.84895	-6.38495	-2.20803
-699.21875	-11.81700	3.25158	-7.99605	-2.61018
-695.31250	-8.59447	5.26588	-8.80136	-3.81816
-691.40625	-4.96902	4.05675	-9.20373	1.42083
-687.50000	-8.59622	-3.19630	-3.96503	2.22767
-683.59375	-12.22350	-2.79363	-1.14396	-3.00950
-679.68750	-11.41854	-1.18220	-0.74044	-3.81449
-675.78125	-6.18135	-1.18252	-2.75452	2.23047
-671.87500	-0.94413	3.24940	-3.15688	0.61970
-667.96875	3.48724	3.24911	0.87305	1.82948
-664.06250	-0.94590	-2.39227	-0.33504	0.62163
-660.15625	-2.55847	-2.39258	-0.73739	1.83139
-656.25000	1.46989	0.83055	-0.33384	5.05577
-652.34375	3.48363	2.44193	-0.73624	2.23622
-648.43750	-0.54655	-1.99070	-1.94449	-0.98630
-644.53125	-4.57674	-6.42331	-3.15276	3.04390
-640.62500	-8.60693	-0.78260	-0.33167	5.46242
-636.71875	-11.42836	2.44054	0.47472	5.06045
-632.81250	-4.17646	-1.18617	-0.73350	9.09075
-628.90625	-2.96848	-3.60408	-0.73294	9.49471
-625.00000	-0.14874	-4.81313	-3.55289	8.68983
-621.09375	1.05917	-0.78415	-3.55231	8.69085
-617.18750	-3.77679	2.43902	-2.34294	9.90061
-613.28125	-3.77757	-2.39645	-2.74534	9.49866
-609.37500	-4.58421	-2.39677	-6.77410	9.49962
-605.46875	1.86188	9.69083	-4.75891	15.54449
-601.56250	2.26400	8.07870	-0.72904	7.88972
-597.65625	-3.37775	-2.39785	-1.53436	-2.98840
-593.75000	-0.96093	-0.78638	-0.72797	1.84775
-589.84375	-7.00563	-1.18961	-1.93618	3.46048
-585.93750	-9.82694	-0.38407	-2.74146	1.04393
-582.03125	-5.79845	2.43618	0.48254	9.10353
-578.12500	-10.63441	-7.63744	-0.32277	9.91037
-574.21875	-6.60596	-4.01140	-1.12811	1.04690
-570.31250	-7.81562	3.24096	-0.72456	-1.36973
-566.40625	-11.84575	2.03182	-1.52987	-1.36875
-562.50000	-7.41433	1.62852	-0.72347	0.64688
-558.59375	-7.41518	0.82232	-3.54338	-0.56090
-554.68750	-10.63946	1.62786	-9.98969	-0.96274
-550.78125	-13.46086	2.43347	-1.93054	1.85878
-546.87500	-12.65581	1.62725	4.11393	-0.55778
-542.96875	-8.22447	2.43283	-0.31775	1.05507
-539.06250	-6.21066	7.26763	1.69744	3.47371
-535.15625	-7.42022	3.23794	0.89209	3.07190
-531.25000	-7.42103	-4.82104	-1.52488	3.87880
-527.34375	-4.19847	-0.79211	0.08736	1.05936
-523.43750	2.24760	4.44562	-2.73260	-1.76011
-519.53125	-0.97668	6.05695	-2.32909	-4.57957
-515.62500	-0.17160	5.25073	2.90957	-3.36975
-511.71875	7.88616	4.04158	-1.92506	-0.54821
-507.81250	11.51166	0.81777	-9.17727	3.88504
-503.90625	11.91376	0.01157	-4.74448	7.91531
-500.00000	5.06306	2.42883	-0.71465	0.66355
-496.09375	5.06215	0.01086	-1.11710	-4.17062
-492.18750	6.27006	0.01050	0.49521	-0.94616
-488.28125	2.23994	2.42772	0.49583	-3.76563
-484.37500	0.22445	7.66539	-1.51824	-0.94400
-480.46875	1.83536	6.85923	-2.72651	0.26584
-476.56250	-1.38892	1.21792	-1.92014	-8.19471
-472.65625	-7.43370	0.00878	-3.93427	-8.99961
-468.75000	-5.41990	-4.02086	-3.53075	-3.35753
-464.84375	-2.60023	0.00812	-2.72432	-1.74482
-460.93750	-4.21281	3.23125	-3.12669	0.67378
-457.03125	-5.82537	-2.81304	-3.52902	1.48063
-453.12500	-2.60280	-2.00750	-6.75192	-2.54760
-449.21875	-1.39491	3.63313	-4.33375	-7.38167
-445.31250	3.43931	2.02105	-2.31853	-8.58947
-441.40625	0.61791	-0.39693	-3.52680	-4.15625
-437.50000	-4.62109	1.21444	-3.52624	0.27700
-433.59375	3.03363	5.24335	-5.54035	2.29262
-429.68750	2.22693	8.06349	-4.73396	0.68188
-425.78125	1.01729	8.46609	-1.10709	2.29469
-421.87500	1.41937	3.22763	-4.73294	2.69864
-417.96875	3.03023	-2.41378	-8.76171	3.10267
-414.06250	10.28216	2.01812	-4.73187	4.71547
-410.15625	9.87846	3.62949	-1.10501	4.71657
-406.25000	9.07181	0.40569	-3.11913	11.56750
-402.34375	6.65339	0.00241	-1.90979	7.94215
-398.43750	6.65257	3.22551	-1.90923	4.71985
-394.53125	6.24883	-0.80412	-4.72914	10.76495
-390.62500	-0.60175	-9.26602	-5.13153	2.30455
-386.71875	-3.02014	-2.41656	-3.51926	-3.73836
-382.81250	-0.60333	2.01538	-1.10124	0.29212
-378.90625	-5.84222	-5.23767	-2.30949	1.90495
-375.00000	-5.84301	0.00010	-3.92076	0.69726
-371.09375	-1.00868	6.04373	-1.90566	2.31004
-367.18750	-5.03887	-0.00052	-0.69643	-0.10657
-363.28125	2.61593	-0.40377	-5.12822	-2.52315
-359.37500	6.24140	-0.40404	-5.53061	-0.91036
-355.46875	10.26982	2.41626	-3.11258	-4.13279
-351.56250	18.73047	2.81888	-5.12673	-4.93762
-347.65625	19.53551	0.40097	-3.91741	-1.31026
-343.75000	15.10240	2.81830	-0.29048	-1.30924
-339.84375	10.26632	0.80340	-1.09587	-3.72588
-335.93750	9.45961	0.80311	-3.91581	1.51319
-332.03125	3.41483	2.81744	-1.90061	5.94643
-328.12500	0.99642	0.39952	-0.69127	5.54456
-324.21875	3.81617	-1.21244	-5.92886	3.12795
-320.31250	3.81537	1.60778	-1.89905	0.71133
-316.40625	0.99405	2.01047	5.35423	3.53285
-312.50000	-5.05069	-1.61624	-1.09214	1.51921
-308.59375	-9.48378	1.20398	-3.10627	0.31151
-304.68750	-8.67868	-2.01979	-1.49398	1.52132
-300.78125	-5.85901	-9.67584	-3.91104	3.53702
-296.87500	-8.27746	-4.03510	-2.70170	2.73226
-292.96875	-12.30757	-1.21491	-1.08950	8.37440
-289.06250	-8.27907	-4.03573	-2.70067	6.76372
-285.15625	-4.25053	-0.81259	-0.28254	3.13849
-281.25000	-6.26595	-0.81289	-2.69960	10.39234
-277.34375	-2.23747	-4.03660	-9.54885	5.55827
-273.43750	8.64088	0.79832	-6.32493	0.32127
-269.53125	9.04304	2.81273	-4.30974	1.12821
-265.62500	11.45978	-1.21683	-3.90637	-0.07951
-261.71875	14.68244	-5.64939	-2.69699	-2.09309
-257.81250	15.48749	0.39429	-1.08469	0.32558
-253.90625	7.42808	1.60283	-3.50168	-0.47925
-250.00000	7.42723	5.22896	-5.51578	0.73060
-246.09375	17.90255	13.28725	-5.11235	4.76095
-242.18750	14.67822	5.22832	-11.15580	0.32983
-238.28125	20.72131	1.60163	-9.14061	-4.90720
-234.37500	21.92927	-0.01033	-5.11076	-5.71205
-230.46875	12.25813	-1.62235	-3.90142	3.15352
-226.56250	5.81040	-3.23433	-5.51258	-0.06885
-222.65625	-4.66663	-4.44344	-7.52667	-7.72347
-218.75000	-17.15833	-0.41447	-3.49682	-3.69311
-214.84375	-13.93577	0.39106	-4.30215	-5.70671
-210.93750	-9.50449	1.59958	-7.52507	-3.69101
-207.03125	-19.17567	2.00223	-4.70405	-1.67536
-203.12500	-16.35606	2.40492	-3.49476	-8.52416
-199.21875	-15.14816	-0.41586	-4.70302	-9.73192
-195.31250	-15.55204	-2.83368	-3.89663	-6.50746
-191.40625	-14.34415	-4.84863	-0.26969	-2.88001
-187.50000	-10.71867	-2.43137	-0.26916	-2.07312
-183.59375	-6.69032	3.61224	-2.28331	-0.46044
-179.68750	-8.30297	-0.41744	-1.47693	4.37578
-175.78125	-2.66280	-2.83530	-0.67051	3.97387
-171.87500	-1.45487	2.40248	0.53883	-1.66618
-167.96875	-9.11145	-1.62721	0.94223	-6.50030
-164.06250	-7.09771	-6.86564	-7.51878	-2.46995
-160.15625	-1.45756	-1.62789	-8.72711	0.35168
-156.25000	-1.05551	1.59527	-0.66799	-4.07944
-152.34375	0.15246	-2.43433	0.13839	-2.46663
-148.43750	3.37505	-2.03172	1.34768	1.16081
-144.53125	7.00062	2.40018	-1.87531	5.59410
-140.62500	14.25251	0.78807	-3.48653	17.28006
-136.71875	14.65457	1.59357	-4.29190	14.05763
-132.81250	1.76003	1.19036	-1.87388	-1.65566
-128.90625	-5.89648	-2.43635	-0.26165	-6.08687
-125.00000	-7.50899	-2.43668	-0.26119	-9.71233
-121.09375	-19.59781	-4.85457	0.54511	-19.78461
-117.18750	-26.44850	-2.03441	-0.26028	-21.39536
-113.28125	-24.43474	4.41217	0.14309	-20.58851
-109.37500	-27.65911	4.00890	-8.31793	-23.00509
-105.46875	-20.40738	4.41152	-3.88517	-22.60122
-101.56250	-20.40841	3.60530	-2.27291	-26.62958
-97.65625	-20.81225	1.99328	-9.52511	-29.04608
-93.75000	-15.97790	3.20173	-4.68945	-20.98635
-89.84375	-13.15827	4.41018	-4.28601	-15.74712
-85.93750	-5.90637	5.61854	-6.70310	-15.34303
-82.03125	-3.48958	5.61818	-9.92597	-13.73018
-78.12500	-1.47570	4.40910	-7.50780	-16.14658
-74.21875	2.14988	3.60283	1.35713	-18.96589
-70.31250	-1.88022	4.81124	-4.28339	-23.39700
-66.40625	1.74537	4.81086	-8.71515	-20.97825
-62.50000	3.35625	4.40766	-2.67069	-16.94779
-58.59375	-4.30027	2.79562	-1.46134	-15.33481
-54.68750	-7.92741	-1.23400	-5.08719	-14.93075
-50.78125	-10.74873	-3.65198	-4.68373	-12.91504
-46.87500	-9.54080	-2.44359	-1.45978	-6.86996
-42.96875	-16.39143	3.59997	0.15243	-8.48065
-39.06250	-18.80984	-0.02674	-4.27923	-9.68836
-35.15625	-11.55786	-2.04172	-5.08461	-2.43449
-31.25000	-8.73809	8.03123	-2.26354	-3.23925
-27.34375	-12.76815	6.82209	-4.27765	-11.29678
-23.43750	-10.35138	3.59831	-3.47128	-11.69865
-19.53125	-6.72576	3.19512	-3.87372	-6.45947
-15.62500	-6.32370	6.41824	-1.05271	-0.41452
-11.71875	0.12237	8.83545	3.38004	3.21288
-7.81250	-1.08727	1.58235	3.38052	0.39337
-3.90625	-7.93794	-4.86484	-3.06585	-7.26137
0.00000	-9.14764	-5.67107	-3.87120	-9.27505
3.90625	-11.56612	-3.65677	-3.46777	-12.09456
7.81250	-11.56699	-0.43367	-9.10836	-9.67607
11.71875	-9.15025	0.37186	-1.85513	0.39823
15.62500	-5.52469	1.58034	5.80103	-0.80958
19.53125	-3.91393	2.38588	2.17505	-5.64391
23.43750	-0.69137	5.60895	-1.04794	-2.01660
27.34375	-1.90104	3.59397	-0.64449	0.40196
31.25000	-7.54294	0.77312	-1.85283	2.41754
35.15625	-3.51453	-0.83892	-10.71680	2.01554
39.06250	-1.09784	-4.46568	-9.50749	1.21066
42.96875	-1.50155	5.20432	-3.86597	-0.40010
46.87500	4.94446	10.44210	0.56678	0.00389
50.78125	1.72021	5.20370	2.17895	4.03421
54.68750	-5.93631	3.18875	-3.05865	2.02055
58.59375	-3.11661	3.99429	-2.65524	-4.02244
62.50000	0.91191	3.99399	-4.66948	-6.84196
66.40625	-2.71522	1.97900	-6.68371	-8.04980
70.31250	-5.53655	4.39626	-5.07152	-10.46645
74.21875	-3.92563	3.99300	-7.48855	-8.85380
78.12500	-3.92636	-0.03659	-9.50271	-3.61471
82.03125	-3.52414	4.39537	-3.05534	-2.00198
85.93750	-3.52494	6.40972	-1.04015	-0.79224
89.84375	-5.54037	2.38014	-4.66601	-2.40301
93.75000	-6.74993	1.57396	-0.63626	-2.80487
97.65625	-2.31858	7.61762	5.00526	5.25473
101.56250	4.93327	4.39389	6.21447	9.28501
105.46875	-1.11157	-4.06801	-1.84371	-0.38439
109.37500	2.51398	1.57266	-11.91653	0.82534
113.28125	10.97466	1.57232	-5.87216	4.45267
117.18750	4.52690	1.97494	4.60451	-4.41088
121.09375	2.51140	6.40687	0.57573	-8.84215
125.00000	8.55446	1.97428	-7.88532	-7.63239
128.90625	8.95657	1.97394	-6.67606	-6.42261
132.81250	4.92637	4.79409	-4.66096	-4.40696
136.71875	6.13432	1.97325	-7.07808	-2.39130
140.62500	4.92468	0.36117	-10.70395	-2.79317
144.53125	4.11798	3.58430	-3.45078	0.43131
148.43750	4.52005	0.36051	-2.64452	3.65573
152.34375	0.89275	-4.87788	-6.67339	0.83625
156.25000	2.10065	2.77742	0.98269	-2.78911
160.15625	2.09978	6.40346	2.99780	-2.78810
164.06250	4.11352	7.61187	2.99821	3.65978
167.96875	5.32141	8.01452	1.38691	6.48135
171.87500	4.51469	3.98488	-0.62724	2.85595
175.78125	6.93142	3.17868	-3.44727	1.24522
179.68750	8.54224	5.59592	-4.25271	4.06666
183.59375	8.13843	-1.65716	0.98572	5.67934
187.50000	8.54054	-1.25455	-4.25190	6.88900
191.40625	9.34556	6.80374	-2.63978	4.06947
195.31250	10.95649	7.60930	6.62802	1.24993
199.21875	16.59665	6.80319	3.00211	3.66841
203.12500	16.99879	6.40003	0.98785	2.05766
207.03125	16.19211	5.19095	3.80885	-2.37365
210.93750	15.38533	5.99651	-1.83176	-3.98438
214.84375	14.98156	2.36989	-3.84600	-1.16295
218.75000	13.77186	-2.46561	5.01889	2.06145
222.65625	12.96509	3.17515	5.01931	1.25664
226.56250	16.18766	1.56310	-1.02426	2.46649
230.46875	12.56042	3.17454	0.58794	4.88504
234.37500	9.33617	12.03866	1.39423	8.51242
238.28125	5.30609	6.39737	-5.45513	6.90162
242.18750	5.30531	0.75603	-3.03713	0.85864
246.09375	11.34848	-2.06477	0.58974	-0.75205
250.00000	7.31840	-1.66220	1.39605	-3.57161
253.90625	2.88533	3.17269	3.00825	-2.36184
257.81250	5.30214	4.38121	2.20283	0.86263
261.71875	7.31600	4.38095	0.99453	-1.15100
265.62500	9.32984	3.17182	-0.61672	1.67047
269.53125	8.12023	1.15684	-1.01917	6.50661
273.43750	10.13402	2.76824	0.99598	3.68699
277.34375	12.14788	3.17086	1.39938	2.47919
281.25000	8.92357	2.76753	3.01161	5.70360
285.15625	2.87873	1.15549	6.23545	4.09278
289.06250	3.28085	0.75223	6.23588	3.69070
292.96875	9.32395	7.19883	0.59533	2.07987
296.87500	9.32308	9.21318	0.99870	6.91590
300.78125	4.88992	3.97478	4.22260	7.72266
304.68750	10.12711	5.18325	1.40250	5.70882
308.59375	14.55847	4.77995	-3.43221	7.72429
312.50000	8.51365	-1.66728	-4.23764	2.48704
316.40625	13.34790	-0.45879	0.59792	5.71133
320.31250	16.16755	6.39074	3.82182	7.32390
324.21875	8.91391	5.58451	4.22517	0.47502
328.12500	9.31585	5.18124	1.80806	-0.33002
332.03125	15.76175	6.38966	1.80848	3.70012
335.93750	10.92568	0.34532	0.60012	3.70101
339.84375	6.89550	1.95674	0.19760	-1.53615
343.75000	8.90929	5.17985	-0.20483	-7.17620
347.65625	4.87908	2.76190	0.19856	-3.54888
351.56250	6.89292	3.16450	-0.20389	-1.93615
355.46875	7.29493	-0.46228	0.60237	-5.56163
359.37500	7.29408	3.56666	1.40862	-5.15772
363.28125	7.69623	10.81909	1.00611	-5.96257
367.18750	6.48662	5.17780	1.40954	-3.54404
371.09375	8.50046	2.35701	3.42460	-2.33428
375.00000	8.49966	6.38597	4.63380	-6.76555
378.90625	10.91643	5.17683	1.81374	-1.52657
382.81250	9.30385	1.14722	-1.81222	-3.13727
386.71875	3.66204	1.14695	-2.61760	-10.38901
390.62500	1.24358	5.17591	-4.22882	-11.19383
394.53125	5.67495	6.78722	-1.40788	-9.58110
398.43750	15.74734	6.38398	1.81598	-5.55079
402.34375	12.92602	2.35434	0.20464	-0.71458
406.25000	10.91052	4.36865	2.21970	4.12153
410.15625	18.16232	9.60643	3.83187	8.15170
414.06250	18.16138	7.99429	1.81764	4.52626
417.96875	18.56337	7.59093	-0.59956	1.30381
421.87500	20.57708	8.39644	0.20672	3.72235
425.78125	16.14396	3.56089	-2.61331	-2.32063
429.68750	16.94888	4.76937	-4.62752	-6.34899
433.59375	19.76843	6.38081	1.01388	-0.70703
437.50000	17.75287	2.75410	-3.82080	-8.76475
441.40625	19.76658	1.94790	-7.44669	-14.00190
445.31250	21.37736	0.73876	-0.99946	-9.56886
449.21875	19.76463	2.35023	-0.19312	-11.17969
453.12500	19.36074	3.96160	1.01606	-7.55245
457.03125	13.71869	5.17009	1.41943	-5.93980
460.93750	7.27078	9.60203	-3.01241	-9.16238
464.84375	2.83753	10.00459	-1.80317	-9.96735
468.75000	1.62784	1.54272	0.61489	-11.98108
472.65625	1.62690	4.36296	-2.60815	-5.93623
476.56250	-3.20929	6.78018	-3.41360	-5.12949
480.46875	0.01313	3.95936	5.04837	-5.12861
484.37500	1.22093	4.76490	3.43701	2.52795
488.28125	-1.60055	1.94410	-3.00949	0.11120
492.18750	-8.04844	0.33202	-0.99444	-11.16999
496.09375	-11.67583	-0.07122	1.82654	-12.37794
500.00000	-6.03573	1.13722	1.42403	-9.15362
503.90625	0.41019	4.36029	-1.39602	-5.92930
507.81250	1.61799	4.35989	-2.60441	-5.92846
511.71875	0.00525	3.15075	-1.79823	-10.35991
515.62500	6.45120	1.53865	-1.79790	-1.89757
519.53125	6.85323	-1.28218	1.02301	-0.28510
523.43750	4.03174	3.14976	2.23222	-4.71652
527.34375	2.41915	7.58162	-0.58788	-2.70108
531.25000	-2.41694	6.77544	-3.40801	-4.71491
535.15625	-1.20900	5.56632	-2.60179	-8.74345
539.06250	-0.80689	3.95429	-0.98969	-11.16013
542.96875	3.22155	2.34224	-5.42150	-8.74176
546.87500	8.45880	4.75946	-0.58601	-3.50282
550.78125	10.47257	1.13285	5.05540	-2.29315
554.68750	16.91858	1.13255	-1.39110	0.52823
558.59375	22.15579	7.98202	-1.39074	1.73781
562.50000	20.54319	7.57876	0.22135	-1.48472
566.40625	23.36294	6.36973	-0.18117	-0.67789
570.31250	29.00310	5.56352	2.23672	-1.48290
574.21875	28.19642	7.98079	0.62542	0.53272
578.12500	29.40441	12.41269	1.02871	2.54829
582.03125	29.00062	8.38302	1.83503	-1.07719
585.93750	22.95582	0.32401	1.43248	2.55015
589.84375	19.73153	-0.48219	1.43288	4.16274
593.75000	19.32779	7.17315	1.03030	0.53727
597.65625	18.52105	7.17282	1.03067	1.74697
601.56250	15.29679	5.56072	-1.78943	0.53921
605.46875	3.61100	2.33697	-1.38607	-2.68332
609.37500	7.23649	0.72486	5.06121	-3.48834
613.28125	10.86202	3.54499	7.47909	-4.29333
617.18750	10.05523	1.12709	4.25596	-2.27780
621.09375	17.30713	-2.09671	-0.57887	-3.88860
625.00000	14.48578	0.32050	4.65958	-6.30529
628.90625	19.72305	1.12610	11.10684	-1.06629
632.81250	16.49876	-0.88891	4.25735	-7.91520
636.71875	9.64812	1.52827	-1.38327	-15.57001
640.62500	11.25902	3.54259	-1.78582	-12.34563
644.53125	7.63185	1.93055	1.84098	-13.95634
648.43750	3.19877	4.75066	-2.18792	-15.97007
652.34375	5.21258	5.15326	-5.00809	-18.38663
656.25000	8.43516	1.52650	0.23037	-19.59446
660.15625	10.44899	-0.48847	-2.18680	-20.80231
664.06250	10.04526	-0.08582	-0.97765	-16.77207
667.96875	6.82103	-1.69792	-0.17140	-13.14476
671.87500	11.65529	0.31636	2.24649	-17.17313
675.78125	15.68371	6.36002	7.48495	-11.12826
679.68750	14.87699	3.53914	3.05309	-5.48637
683.59375	14.47318	2.33008	-0.17002	-7.50007
687.50000	13.26349	4.74728	3.85962	-2.26101
691.40625	16.48605	4.34402	8.29215	-1.05129
695.31250	16.08227	4.34364	6.68084	-4.27382
699.21875	8.42567	0.31391	1.04016	-4.27294
703.12500	6.41010	-2.10400	-1.37704	-5.88377
707.03125	13.66194	2.73077	0.23500	-9.50930
710.93750	14.46688	6.75964	1.84710	-12.32894
714.84375	16.07771	7.56509	7.89137	-8.70175
718.75000	14.46504	9.17649	14.33860	-5.47739
722.65625	9.62902	7.16145	7.89207	-9.10280
726.56250	7.21054	5.95226	-0.97204	-14.34002
730.46875	1.97157	8.36948	4.66940	-13.93620
734.37500	-2.05864	9.57790	6.28145	-21.18807
738.28125	-6.08884	9.17458	3.86425	-36.09563
742.18750	-16.56590	13.20350	2.25288	-44.15332
746.09375	-16.96971	18.84415	2.25325	-47.37588
750.00000	-20.59690	13.20271	8.29753	-43.34573
753.90625	-32.28278	8.36721	7.89492	-50.59763
757.81250	-40.34227	7.15805	3.46296	-71.14616
761.71875	-48.80471	3.53126	3.46328	-74.77165
765.62500	-57.26714	6.75433	2.25481	-78.39708
769.53125	-67.74422	4.73931	6.68740	-86.45481
773.43750	-75.40077	-0.09621	15.95513	-89.27435
777.34375	-83.46027	-0.09660	8.70274	-98.54078
781.25000	-95.54908	-2.11168	1.45035	-111.03069
785.15625	-86.68538	3.52895	10.31521	-111.43274
789.06250	-88.70078	1.11109	9.10678	-117.47575
792.96875	-107.23637	-10.57422	9.51002	-122.71292
796.87500	-109.25175	-8.96287	13.53968	-123.51791
800.78125	-111.26717	-4.53106	7.49609	-127.14339
804.68750	-116.10313	-1.30799	0.24366	-131.17183
808.59375	-115.70100	-2.11417	0.24396	-127.94763
812.50000	-113.68721	-5.33800	0.64720	-123.91743
816.40625	-109.65878	-0.10026	2.66215	-121.90191
820.31250	-113.68893	0.30229	4.27417	-124.72163
824.21875	-114.09273	1.91368	2.66282	-121.49736
828.12500	-104.82619	1.51037	3.46902	-113.84079
832.03125	-97.97719	-2.92215	1.45473	-107.39301
835.93750	-94.35170	1.91262	1.85804	-105.78046
839.84375	-92.33787	5.94153	1.45547	-108.19720
843.75000	-85.89181	8.35878	-0.15582	-99.73476
847.65625	-72.59600	9.16427	-2.17008	-89.25767
851.56250	-62.12067	9.56686	-3.78147	-83.21283
855.46875	-59.70391	7.55180	-2.16938	-77.97384
859.37500	-52.04911	4.32811	-1.36321	-75.55532
863.28125	-37.94734	5.13362	-0.15408	-70.71927
867.18750	-30.29254	3.11858	2.26381	-61.45103
871.09375	-21.83186	3.52108	-0.55637	-49.76522
875.00000	-12.16233	6.34130	-8.61464	-37.67651
878.90625	1.93939	7.95263	-2.57034	-16.72327
882.81250	16.04115	2.31125	1.45929	7.85638
886.71875	24.90476	-8.56830	-0.95799	21.55685
890.62500	40.61824	-8.97162	-1.76351	36.86918
894.53125	55.12297	-6.15141	-2.97195	50.97264
898.43750	60.76326	-15.41916	1.86362	59.43509
902.34375	66.40343	-20.65763	3.87858	66.28574
906.25000	68.41725	-15.82286	1.05831	69.51004
910.15625	70.02816	-18.24084	2.26743	72.33139
914.06250	77.28004	-20.25587	2.67074	75.15279
917.96875	82.92015	-22.27087	6.29741	81.19756
921.87500	93.39548	-23.48000	8.31236	90.86872
925.78125	88.15653	-22.27158	3.88049	90.46658
929.68750	84.93224	-18.24266	2.67202	84.42342
933.59375	91.78125	-19.45181	1.46352	86.84174
937.50000	87.34814	-24.28733	1.46380	89.66306
941.40625	86.13847	-22.67598	5.89635	91.27557
945.31250	82.10827	-17.43828	5.49370	89.26179
949.21875	80.09276	-17.03581	8.31443	88.85979
953.12500	85.73293	-12.60397	7.91181	83.62260
957.03125	87.34388	-8.57501	1.46525	74.35611
960.93750	88.95474	-5.75485	-0.54909	77.58039
964.84375	86.53640	-6.15811	3.07761	75.56664
968.75000	78.07411	-8.97904	3.48080	63.88260
972.65625	71.62646	-4.95005	3.48112	64.68929
976.56250	74.44617	-4.14456	4.69027	65.09301
980.46875	77.66887	-3.74205	1.87013	58.64705
984.37500	74.44469	0.28687	1.87047	54.61865
988.28125	70.01176	1.09239	4.28833	54.61953
992.18750	72.83152	-1.72853	1.06518	55.02332
996.09375	74.03957	-0.92294	-0.14327	52.60664
1000.00000	65.98015	-0.52040	-3.36641	48.17539
1003.90625	61.54719	0.68802	-5.78369	43.74406
1007.81250	55.09953	1.49350	-1.35110	41.73032
1011.71875	49.05482	-0.11855	2.27558	41.32826
1015.62500	57.91845	1.89573	2.27590	39.71744
1019.53125	60.33519	2.29830	1.87331	36.09187
1023.43750	56.30504	-3.34316	-0.54401	33.67516
1027.34375	62.75114	-4.95524	-0.94668	35.69068
1031.25000	66.37671	1.08833	1.47124	37.30325
1035.15625	57.10852	2.69966	2.27742	31.66309
1039.06250	52.27257	-2.53880	-0.94579	33.67856
1042.96875	56.70394	0.68427	-0.13962	36.90287
1046.87500	55.09143	7.13082	3.08417	29.65102
1050.78125	48.64374	3.90703	-0.94486	27.63728
1054.68750	41.39021	1.48907	-2.15328	27.63817
1058.59375	40.18061	0.68286	4.69680	31.66836
1062.50000	40.58279	-1.33216	-4.97324	28.84871
1066.40625	38.16446	1.08510	-12.22564	21.99986
1070.31250	29.29924	1.48765	-3.36083	17.16564
1074.21875	26.07498	-0.52737	-2.95766	11.92844
1078.12500	24.46243	2.29285	-5.37490	9.91468
1082.03125	19.22359	1.08366	-2.55408	7.49795
1085.93750	21.23742	-1.33434	-0.53914	5.08120
1089.84375	22.04240	-0.93178	-2.15055	1.05274
1093.75000	24.05614	5.91761	-0.53858	4.27703
1097.65625	24.05523	8.73772	1.47634	5.08371
1101.56250	20.83088	7.12566	2.28247	5.48747
1105.46875	28.88858	7.12531	2.28279	13.14401
1109.37500	26.06720	5.91615	0.67141	12.74191
1113.28125	22.84285	4.30405	-1.34294	8.71343
1117.18750	29.28885	2.28902	-2.95442	11.93769
1121.09375	28.88501	3.90032	-4.16288	13.14731
1125.00000	25.25783	5.51161	-2.14792	17.98330
1128.90625	19.61594	4.70538	-0.13302	19.59586
1132.81250	22.43558	2.69035	-1.34156	13.14989
1136.71875	18.80838	-1.33933	-3.75888	9.12142
1140.62500	12.36064	-4.56318	-2.14686	10.33108
1144.53125	27.67120	7.92728	6.71785	14.36122
1148.43750	25.25288	11.15034	3.09179	7.51232
1152.34375	14.37295	-0.13208	-6.57827	-0.94830
1156.25000	13.56632	-0.93829	-5.77217	-6.99131
1160.15625	12.75969	-1.34163	-2.14553	-9.81090
1164.06250	8.72959	-7.78894	-0.93650	-9.00419
1167.96875	9.53464	-6.17758	-0.13028	-5.77986
1171.87500	11.54850	-0.13400	1.88467	0.66796
1175.78125	13.15942	3.49198	-5.36778	5.50402
1179.68750	12.35277	0.67114	-4.96457	3.08729
1183.59375	13.15779	-0.13506	1.48262	-0.13526
1187.50000	17.58921	3.89389	-1.33762	6.71548
1191.40625	11.94737	4.69935	-1.33736	2.28405
1195.31250	3.48501	2.68432	2.28923	-1.74442
1199.21875	5.09587	-3.76293	3.49829	0.27105
1203.12500	-2.56071	-7.79260	4.30437	-1.33992
1207.03125	-3.77027	-3.36070	1.88708	1.48145
1210.93750	2.67579	3.48879	4.30487	4.30282
1214.84375	-3.77183	4.29435	5.51392	2.28904
1218.75000	-7.80192	-2.95878	-0.52975	-1.73943
1222.65625	-0.95288	-7.79433	-2.54415	-2.54445
1226.56250	-0.55069	-6.58588	-4.55857	-0.12607
1230.46875	-0.14858	-1.75109	-2.14074	-1.73693
1234.37500	2.26824	-0.94554	0.67998	-2.94494
1238.28125	1.46162	-0.94591	3.09780	1.08515
1242.18750	-0.15091	-0.14043	1.88920	-4.95797
1246.09375	-0.15170	1.87380	-0.52820	-6.56884
1250.00000	1.05636	0.26167	1.88965	-1.73283
1253.90625	3.87610	-1.75333	-0.93065	-2.13494
1257.81250	8.71048	-1.35076	-3.75088	-1.32829
1261.71875	12.33600	-0.14234	-4.15354	0.68724
1265.62500	15.55863	-4.57496	-4.15333	7.53784
1269.53125	16.76655	-9.00760	-3.75022	11.16493
1273.43750	15.55684	-0.54649	-0.92947	13.58325
1277.34375	12.73543	1.87064	-6.57020	16.40450
1281.25000	15.55509	-4.17375	-6.16707	16.00246
1285.15625	15.95724	-5.78591	2.69767	16.40624
1289.06250	11.52420	-5.78628	1.08616	19.22767
1292.96875	12.73221	-2.96610	1.89234	21.64607
1296.87500	11.11963	-2.16063	4.31015	18.82642
1300.78125	15.95402	-4.57858	2.29573	16.40967
1304.68750	18.77370	-4.17599	-0.92749	16.41051
1308.59375	17.16109	1.46462	-0.92727	18.42597
1312.50000	17.96613	4.28479	3.10235	14.80048
1316.40625	18.77111	1.86683	1.08790	15.60719
1320.31250	21.18784	-0.95405	-0.52356	21.65198
1324.21875	19.97819	1.46305	-0.52328	18.83234
1328.12500	19.17152	4.28320	-3.34351	12.78926
1332.03125	18.76771	2.67106	-0.92576	4.32857
1335.93750	12.72289	1.86482	1.49206	-2.92334
1339.84375	7.88685	5.49082	1.49231	3.52440
1343.75000	6.67729	1.86416	2.29843	2.31645
1347.65625	7.07934	-5.38891	-2.93943	-4.53250
1351.56250	4.25797	-2.97165	-3.34211	-1.30827
1355.46875	3.85411	-2.56909	-6.56535	-0.50154
1359.37500	1.43567	-0.95768	-13.01204	-7.75347
1363.28125	-3.80327	0.65363	-3.74439	-8.55856
1367.18750	-6.62464	-0.95847	-0.11773	-4.52836
1371.09375	-4.20786	-0.95885	-10.59372	1.11347
1375.00000	4.25288	1.45838	-8.98175	5.54658
1378.90625	-0.58305	-0.55663	1.09182	-0.49648
1382.81250	-5.82190	-4.58631	-1.32549	-2.10737
1386.71875	-8.64320	-2.57202	-3.74292	-0.89771
1390.62500	-10.65860	-1.76650	-0.92222	-2.91148
1394.53125	-10.25638	-4.99024	-3.33952	-0.49299
1398.43750	-1.79560	-6.60241	-6.96567	3.13418
1402.34375	2.23290	-4.58820	-3.33902	5.55263
1406.25000	-1.39425	-3.37981	-0.51827	3.94178
1410.15625	-3.81256	-0.15676	-1.32387	3.53980
1414.06250	1.82765	-4.99230	-2.12949	6.76413
1417.96875	5.05033	-8.21612	-2.53222	3.13860
1421.87500	3.03495	-1.36666	0.28851	3.54244
1425.78125	2.22836	-3.38165	1.49755	1.52872
1429.68750	-3.81628	-3.38202	0.69196	-0.48500
1433.59375	-0.99648	-2.17361	-3.74000	3.54515
1437.50000	2.22621	-3.38280	-1.72511	8.78405
1441.40625	3.43428	-1.36850	1.90154	7.97898
1445.31250	5.04523	-2.17473	-4.54514	-0.48178
1449.21875	7.05911	-3.78688	-2.53032	1.53368
1453.12500	5.44661	-0.56378	3.91679	5.56376
1457.03125	0.61056	-3.38469	-3.33573	3.95277
1460.93750	1.81852	-7.41443	-8.97660	0.73014
1464.84375	-2.21156	-1.77383	1.90275	-1.68669
1468.75000	-10.27086	-4.99758	6.73812	-0.07413
1472.65625	-7.85397	-6.60973	-0.91735	-2.89379
1476.56250	-1.81078	0.64262	-0.11124	-0.07246
1480.46875	-4.63208	2.25398	4.32115	4.76361
1484.37500	-3.02105	2.65647	3.91845	2.74985
1488.28125	-0.60418	1.44729	0.69519	2.75076
1492.18750	-3.42548	-1.77652	-2.52809	3.96037
1496.09375	-6.64969	-5.40325	-1.31912	-0.47095
1500.00000	-10.27680	-5.80659	-3.73654	-4.90236
1503.90625	-13.50102	1.04289	-8.16860	-3.28986
1507.81250	-12.29296	3.46006	-4.94497	-4.49778
1511.71875	-4.23511	3.45967	3.51676	-1.27353
1515.62500	-10.68275	-5.80810	2.71112	-6.51065
1519.53125	-18.33910	-7.42019	-2.12380	-10.94197
1523.43750	-8.26653	2.65271	-2.92944	-9.73222
1527.34375	-4.64085	3.45826	-3.73508	-10.94012
1531.25000	-5.85028	-1.78022	-5.34662	-8.92457
1535.15625	-5.04513	-2.18350	-5.34641	-5.70018
1539.06250	-8.26932	2.24836	-3.33156	-2.47582
1542.96875	-2.22611	2.24801	-3.33138	-2.87785
1546.87500	5.42890	0.23298	-4.53998	-2.07110
1550.78125	0.59298	-4.19954	-4.13683	-3.68193
1554.68750	-2.22827	-4.19989	1.90730	-1.66644
1558.59375	1.39746	-0.57391	1.50456	2.36371
1562.50000	2.20267	0.23160	-3.33036	1.55873
1566.40625	2.60495	-0.97749	-1.31546	3.17133
1570.31250	5.42487	-4.60428	1.10230	7.60447
1574.21875	5.82714	-8.23104	0.29662	9.62001
1578.12500	9.05001	-5.81387	0.69973	7.60623
1582.03125	6.63181	-3.79955	3.11750	5.59240
1585.93750	0.99000	-2.59112	1.10299	5.19021
1589.84375	3.80976	-7.02375	0.70032	8.01156
1593.75000	14.68818	-6.21821	3.92397	12.44451
1597.65625	9.85221	-6.21864	3.52116	8.41593
1601.56250	2.19583	-16.69524	1.10372	-2.86536
1605.46875	5.82143	-16.29278	-0.91074	-7.29679
1609.37500	2.59723	-16.29323	-0.10466	-0.44611
1613.28125	-1.02984	-23.14344	-2.11915	6.80747
1617.18750	-3.85099	-25.96435	-2.11901	0.36139
1621.09375	2.99819	-23.54725	-0.10426	-1.65245
1625.00000	4.60931	-21.53304	0.70171	0.36305
1628.90625	-0.62929	-26.36859	3.52235	-1.65066
1632.81250	0.17594	-28.38364	1.91081	-3.26144
1636.71875	-0.63052	-25.16059	-3.32711	-2.85753
1640.62500	-2.24288	-24.35513	-4.13280	-3.25955
1644.53125	-2.24349	-15.49102	-1.71509	-6.88501
1648.43750	-2.64705	-10.65627	2.31439	-4.06363
1652.34375	-7.88569	-10.65662	3.12043	-6.07739
1656.25000	-7.48341	-4.61300	3.92637	-6.88236
1660.15625	-4.26056	-5.82215	0.70305	-11.71662
1664.06250	-7.08168	-6.22540	-4.13196	-18.56563
1667.96875	-10.30577	-5.41993	-3.32599	-11.31209
1671.87500	-9.09760	-3.40568	-5.74349	-7.28198
1675.78125	-3.86013	-0.18260	-6.54922	-2.44594
1679.68750	0.16850	-0.58588	-0.10220	3.19585
1683.59375	0.97369	-1.39206	-2.92261	0.77909
1687.50000	-5.47385	-6.22758	-4.13120	2.39162
1691.40625	-14.33897	-6.63092	1.50993	0.37780
1695.31250	-11.51912	-2.60195	-0.50455	-0.02433
1699.21875	-6.28167	-1.79645	-1.31027	0.37942
1703.12500	-10.71464	0.21779	-1.31012	-6.46959
1707.03125	-10.71537	-3.00599	-4.13045	-3.64830
1710.93750	-10.71607	-2.20054	-3.32446	-2.84166
1714.84375	-10.31378	3.84300	-0.90679	2.39722
1718.75000	-4.27053	4.64845	3.92855	7.23315
1722.65625	-8.30049	-1.39587	1.91406	-0.42170
1726.56250	-17.97148	-5.42557	-3.72679	-2.43554
1730.46875	-18.37504	-1.39671	-0.10022	0.38577
1734.37500	-11.52588	0.21459	4.73508	-0.01636
1738.28125	-17.16753	-0.59161	2.31766	-4.85070
1742.18750	-19.98860	1.42271	-2.51730	-3.64107
1746.09375	-13.94523	0.21357	-0.09955	-0.01388
1750.00000	-13.13993	-2.20432	1.51225	-2.83355
1753.90625	-7.49958	2.22759	-0.90520	-0.81807
1757.81250	-7.09731	2.63015	-1.30790	-4.84656
1761.71875	-6.29218	-4.22001	0.30396	-8.47221
1765.62500	-4.68127	-2.20571	-2.11346	-2.83047
1769.53125	-1.45864	3.43496	-5.33679	-1.62102
1773.43750	5.39040	3.03170	-6.54542	-6.85840
1777.34375	11.03058	2.22545	-0.09831	-3.63419
1781.25000	11.43263	5.44840	5.54290	2.00750
1785.15625	8.20825	5.44797	1.11082	-4.03582
1789.06250	6.59560	4.23883	-2.11243	-3.63229
1792.96875	16.66792	7.86482	2.31996	2.00928
1796.87500	15.45821	4.23816	0.30553	2.00985
1800.78125	2.16058	-1.00032	-2.51475	2.41334
1804.68750	-2.27261	2.62562	-2.51455	3.62263
1808.59375	-2.67648	3.02822	-3.72318	1.60844
1812.50000	-13.15354	-4.22487	-1.70836	-2.42039
1816.40625	-13.15445	-4.62821	-0.90228	-0.00236
1820.31250	-7.51437	-3.41985	2.72438	1.20691
1824.21875	-14.76802	-3.82320	5.94808	-2.82190
1828.12500	-16.38064	1.41453	5.54538	-2.01557
1832.03125	-12.75523	1.41415	0.71046	-3.62683
1835.93750	-8.72684	0.60790	-2.91577	-6.84990
1839.84375	-7.92186	0.20455	-2.10968	-4.02903
1843.75000	-9.13162	2.21886	-2.51242	-8.46088
1847.65625	-9.53555	-0.60215	-2.10923	-9.26627
1851.56250	-6.71604	-5.43774	2.32319	-6.44523
1855.46875	-8.32876	-2.21472	5.14392	-8.05653
1859.37500	-8.73270	0.60532	1.51771	-8.86195
1863.28125	-2.28670	0.20195	-2.51135	-6.84680
1867.18750	1.33882	0.60449	0.71231	-3.62287
1871.09375	3.35264	-1.81353	3.93599	2.01861
1875.00000	1.74006	-3.42563	3.93626	-3.21895
1878.90625	1.73921	3.02084	3.93648	-7.65059
1882.81250	-3.09675	6.24386	0.31021	-9.26175
1886.71875	-9.14149	1.40824	-2.10723	-10.46994
1890.62500	-9.14224	-8.26247	-2.51007	-5.23121
1894.53125	-4.30779	-6.65124	-6.13633	-4.42458
1898.43750	-3.09964	1.80985	-2.10684	-2.40917
1902.34375	-5.51788	2.61527	1.51959	-0.39375
1906.25000	-3.90668	2.61487	-0.89792	1.21876
1910.15625	-3.50427	2.61449	1.51979	1.21964
1914.06250	-0.28129	3.01705	2.72869	4.04101
1917.96875	-3.90808	-0.20679	1.92293	3.23602
1921.87500	-5.92312	-1.81895	2.32592	1.22231
1925.78125	-4.71478	0.59824	2.72893	0.01443
1929.68750	-7.93856	1.80668	0.31138	-3.61103
1933.59375	-11.16237	-1.41711	-3.31490	-2.80421
1937.50000	-9.55106	-1.01452	-3.31482	-1.99735
1941.40625	-0.28405	1.40269	-3.31471	-5.21981
1945.31250	2.53606	0.99948	-6.13518	-4.81588
1949.21875	0.92398	4.22262	-2.91169	-4.00907
1953.12500	2.13239	3.41635	-0.09109	-7.23158
1957.03125	4.95250	-0.61332	2.72944	-0.78375
1960.93750	0.11700	-1.41948	3.53532	2.84359
1964.84375	7.36942	3.81831	5.14711	3.24741
1968.75000	8.17494	3.01212	5.55004	3.65127
1972.65625	-0.28696	-6.25562	-0.49387	-0.37711
1976.56250	5.75661	-4.24132	0.31198	0.42967
1980.46875	2.53273	3.01108	3.93838	1.23641
1984.37500	-1.89985	-2.22733	-0.09088	2.44615
1988.28125	3.33789	-3.03345	-4.92600	3.65595
1992.18750	5.75507	2.20436	-6.13472	10.90966
1996.09375	0.11372	2.60694	-2.50826	15.74575
2000.00000	-0.69249	4.21839	0.31226	8.49396
2003.90625	-1.49872	4.21806	-1.70238	3.65980
2007.81250	-4.31955	-1.02038	-0.89654	2.04906
2011.71875	-6.73750	-6.25880	-3.31405	4.46769
2015.62500	-12.37882	-4.24447	-5.32864	6.88631
2019.53125	-7.54397	-1.42429	0.31244	5.27556
2023.43750	-4.32082	-1.82752	0.31252	8.09711
2027.34375	4.14043	-2.63364	1.11844	7.29225
2031.25000	8.16944	-2.63390	0.71560	2.05517
2035.15625	7.76614	1.39513	-3.31367	5.68250
2039.06250	14.21263	2.60361	-5.32830	11.32439
2042.96875	9.77997	-2.23185	-0.09016	8.50480
2046.87500	5.34737	-3.84391	4.34207	5.68521
2050.78125	4.94398	-1.82959	1.92456	2.05972
2054.68750	5.74937	-2.63576	-0.89591	3.26945
2058.59375	-0.69795	-4.24778	-0.08993	3.67333
2062.50000	-6.74244	-0.62179	2.32766	2.86838
2066.40625	-5.93699	0.58669	1.92484	5.28683
2070.31250	-7.95209	-3.03998	0.31313	1.66139
2074.21875	-11.57892	-4.24909	-2.10436	0.05053
2078.12500	-9.16173	-3.84651	-1.70138	2.06609
2082.03125	-13.99735	-1.83222	-4.92476	1.26113
2085.93750	-15.20645	2.19680	-7.74523	-1.55849
2089.84375	-8.35703	-2.63877	-1.29828	-1.15474
2093.75000	-11.58087	-6.66841	-1.29816	-3.97439
2097.65625	-13.19294	-10.29507	-4.11855	-7.59984
2101.56250	-13.19331	-7.07202	1.92547	-1.95793
2105.46875	-13.99961	-1.02834	1.52259	-0.34522
2109.37500	-8.35897	-1.43160	-1.29784	2.07326
2113.28125	-7.15055	-2.23773	0.71687	2.88004
2117.18750	-4.73340	-4.65568	1.52278	3.68675
2121.09375	1.31021	-5.46194	-0.49182	1.27003
2125.00000	-5.13711	-3.04474	-1.29764	-4.37010
2128.90625	-9.97276	-4.25393	-0.08880	0.46589
2132.81250	-7.15267	-1.43384	-4.92395	2.88434
2136.71875	2.92008	-1.43423	-6.53559	3.69099
2140.62500	2.91958	-7.07568	-2.10330	2.88593
2144.53125	-0.70727	-0.62919	-0.89453	3.28958
2148.43750	-1.11078	2.59389	1.92607	3.69330
2152.34375	-8.36410	-1.03278	1.52313	-6.37916
2156.25000	-12.39391	-3.85366	-0.08854	-9.60180
2160.15625	-7.15634	-3.85400	-0.49146	-1.54241
2164.06250	1.30467	1.38374	-0.49142	-0.73583
2167.96875	-3.12808	-2.64590	-0.49136	-7.98784
2171.87500	-5.14321	-5.86971	1.12039	-5.97243
2175.78125	6.13836	-5.06417	5.95566	-1.13649
2179.68750	4.12325	-7.88510	3.94107	-6.77668
2183.59375	1.30230	-5.06487	-4.92339	-11.61102
2187.50000	-0.30987	-2.24472	-3.71455	-5.96921
2191.40625	-7.56299	-5.87147	4.34406	-4.35667
2195.31250	-5.14578	-5.87176	4.34409	-9.19108
2199.21875	2.10656	-1.84279	-0.49101	-11.20493
2203.12500	2.91204	0.57447	-0.89392	-8.78654
2207.03125	-0.31177	3.39463	0.31489	-4.75647
2210.93750	-5.14731	2.58844	-0.49096	-2.74105
2214.84375	-3.53598	0.97640	-2.50556	-7.57542
2218.75000	-0.31289	-0.63569	-5.72891	-12.81277
2222.65625	-7.16304	-4.66532	-8.95227	-14.02080
2226.56250	-1.11947	-3.05390	-7.34049	-17.24350
2230.46875	7.34166	2.98969	-1.69948	-12.81053
2234.37500	1.70016	1.78054	-3.71409	-6.76587
2238.28125	6.13197	2.58603	-1.69940	-9.18276
2242.18750	1.69928	3.79449	3.13587	-8.77907
2246.09375	-10.38904	2.18247	-1.29632	-12.00177
2250.00000	-2.33088	0.97332	-3.31091	-12.00105
2253.90625	5.32439	-1.04169	-2.50500	-9.17984
2257.81250	-5.95805	-3.86262	-5.32543	-9.58201
2261.71875	-13.61413	-1.84833	-4.51952	-10.79006
2265.62500	-10.39104	3.38941	0.31569	-10.38643
2269.53125	-9.18262	2.18029	-0.49012	-9.98278
2273.43750	-9.18299	1.37403	-0.49007	-8.77329
2277.34375	-4.75117	3.38833	-0.08707	-3.53449
2281.25000	1.29244	2.17921	-4.51935	-4.74258
2285.15625	1.29207	0.16412	-2.50468	-3.53304
2289.06250	-2.33466	-1.44793	1.92767	3.72046
2292.96875	-3.94668	-3.46290	3.13655	4.12414
2296.87500	2.09693	-4.67203	3.13664	5.33375
2300.78125	0.48482	-1.04599	1.52497	6.54331
2304.68750	-3.94772	0.16239	-0.08669	2.51476
2308.59375	-0.32177	0.96794	-2.50426	0.09792
2312.50000	-3.14264	-0.24123	-2.10126	3.72507
2316.40625	3.70679	0.96722	1.12220	2.51702
2320.31250	5.72105	-0.24193	-2.10112	-5.13794
2324.21875	1.28848	0.16063	-1.69822	-1.10793
2328.12500	0.48222	-1.85436	4.34573	-0.30133
2332.03125	-5.56209	-8.30156	-0.48936	-8.76219
2335.93750	-9.59177	-1.85501	-3.30977	-13.59659
2339.84375	-17.24783	-1.04940	-5.32437	-14.40175
2343.75000	-6.36903	-5.48198	-7.33898	-7.55119
2347.65625	7.73312	-5.88529	-2.10083	-5.93881
2351.56250	4.91220	-4.27391	1.92846	-3.52053
2355.46875	2.09130	0.56087	2.73435	1.71829
2359.37500	-0.32671	-0.24529	-1.69783	-2.71318
2363.28125	-3.14762	-1.45438	-0.89195	-9.56223
2367.18750	-2.74513	-4.27526	1.52568	-7.94982
2371.09375	2.89553	-3.06685	-2.50355	-1.90514
2375.00000	3.70100	2.57380	-0.89179	-1.50146
2378.90625	-2.74627	1.76761	0.72002	-4.32123
2382.81250	-0.73191	0.55850	1.92888	0.91762
2386.71875	-2.34398	0.15523	5.95823	-1.09630
2390.62500	-11.20875	-6.69493	-2.10033	-8.75116
2394.53125	-10.40330	-8.30698	-3.30912	-3.51232
2398.43750	-3.55390	-3.87516	1.52603	0.92065
2402.34375	-4.76309	-4.27845	-1.29444	-0.69038
2406.25000	-12.82212	-6.29351	-0.48853	-1.09267
2410.15625	-8.79322	-0.65287	-3.30899	-2.70370
2414.06250	2.48854	5.79374	-8.95008	-1.49414
2417.96875	6.92056	0.55535	-2.90619	-0.68747
2421.87500	2.89098	-3.47421	3.94366	-0.68670
2425.78125	1.68185	-2.26568	1.52606	-0.68597
2429.68750	2.08450	-5.08646	1.92901	-3.10282
2433.59375	9.73985	-4.28091	1.52605	-1.89328
2437.50000	11.75427	-1.46072	-2.10030	-3.10134
2441.40625	4.50117	-4.28152	-4.11493	-7.93576
2445.31250	8.53028	-3.07301	-0.48856	-4.30857
2449.21875	16.99150	4.98529	3.13784	-2.29307
2453.12500	19.40882	4.17916	-2.10026	-1.08349
2457.03125	15.78222	0.95542	-10.15888	0.12613
2460.93750	14.97599	0.95508	-3.30897	0.12691
2464.84375	20.61673	-0.65701	3.94380	6.57456
2468.75000	16.99007	0.14853	2.73499	10.20171
2472.65625	18.19862	3.37165	3.94377	8.59066
2476.56250	21.42181	3.37136	3.94377	6.97962
2480.46875	14.97470	-1.06111	1.52617	10.20373
2484.37500	13.76575	-5.89664	1.12320	12.62190
2488.28125	27.06223	2.56459	-0.89145	10.20499
2492.18750	28.27079	6.99653	-2.90613	11.41436
2496.09375	19.00315	1.75809	-0.89151	7.38570
2500.00000	14.97356	2.96655	-2.90619	2.95414
2503.90625	19.40555	4.98089	-2.50326	6.58113
2507.81250	18.59949	2.96593	3.94363	5.37304
2511.71875	10.94363	0.54804	2.73483	2.95625
2515.62500	11.74932	2.15952	1.52601	3.35984
2519.53125	2.88457	-1.87015	-2.50330	4.16639
2523.43750	-1.95083	-7.10859	-5.32379	2.55546
2527.34375	2.48113	-3.07957	-2.90626	0.13861
2531.25000	-10.00990	0.54646	-1.69747	1.34816
2535.15625	-8.39832	-0.66265	-3.30914	4.16944
2539.06250	-3.56333	-0.25998	-1.69743	3.36436
2542.96875	-7.59280	1.35139	-0.48865	0.14164
2546.87500	-0.74314	2.96279	0.72014	0.54529
2550.78125	0.86835	2.15663	0.31718	2.96360
2554.68750	-4.77290	0.94752	-7.33847	-2.67672
2558.59375	-1.14671	0.54426	-6.93562	-9.12289
2562.50000	2.47938	-1.87365	-2.10043	-10.73387
2566.40625	3.28506	-1.87401	-0.89170	-8.71857
2570.31250	7.31416	2.55788	1.52589	-3.47980
2574.21875	4.09054	0.13997	-1.69758	-4.28492
2578.12500	4.49325	-1.06911	-3.71227	-5.09018
2582.03125	3.68722	1.75104	-3.30935	-3.88078
2585.93750	3.28417	-1.06979	-5.72699	-1.86549
2589.84375	11.34262	-1.87604	-6.12997	-2.67068
2593.75000	13.35713	1.75001	-6.53288	-7.10227
2597.65625	16.17747	4.57016	-5.72704	-0.25172
2601.56250	19.80371	6.98742	-0.89194	4.98706
2605.46875	15.77426	5.77835	0.31679	-0.25040
2609.37500	13.35649	2.15172	-1.29495	0.95905
2613.28125	9.32703	-3.08673	-2.50378	2.16843
2617.18750	2.07413	-1.07245	-0.89211	0.55739
2621.09375	5.70032	-2.68456	-1.69802	-1.05370
2625.00000	1.67084	-6.31125	-4.92157	-1.45598
2628.90625	-5.58209	0.94117	-2.10107	0.15632
2632.81250	1.67049	3.35837	-1.69822	2.17164
2636.71875	1.26744	0.13457	-6.13048	0.96359
2640.62500	0.05849	-2.68624	-1.69821	1.36721
2644.53125	-4.77683	-0.26893	1.12226	2.17379
2648.43750	-10.82091	-0.67223	-5.32465	-1.04896
2652.34375	-5.98584	-3.49309	-2.90716	-2.25700
2656.25000	-1.15083	1.74467	1.12209	-4.27096
2660.15625	-0.34507	4.16192	0.71917	-5.47906
2664.06250	-7.59794	4.16157	0.31619	-3.46371
2667.96875	-5.58341	5.36998	-0.08672	2.58092
2671.87500	0.46047	3.75796	-2.50431	5.80509
2675.78125	-3.97182	2.54883	-4.11602	-0.64106
2679.68750	-4.77780	0.93681	-0.48971	-6.68428
2683.59375	-2.36024	-1.88408	-0.48976	-10.71285
2687.50000	5.29537	1.33904	-2.90738	-10.71214
2691.40625	7.30993	1.33871	-1.69859	-9.50264
2695.31250	4.48933	-1.07914	0.31604	-7.48725
2699.21875	-2.36049	-2.69120	-2.90744	-8.69534
2703.12500	-6.79277	-6.72079	-2.50455	-10.70933
2707.03125	-3.56932	-4.30349	0.31586	-3.85893
2710.93750	0.05705	-0.27453	-0.89305	0.97683
2714.84375	-0.74882	-1.08072	-2.50481	-1.44016
2718.75000	-2.76349	-3.90162	1.52448	-2.64834
2722.65625	4.08641	-5.51364	-0.89316	-4.66239
2726.56250	12.14502	-1.88760	-4.92251	-1.84126
2730.46875	11.74212	3.35020	-0.49031	0.17405
2734.37500	5.69811	0.12645	1.92724	-4.66047
2738.28125	5.69807	-3.50023	1.12126	-4.25691
2742.18750	1.26583	0.52869	-0.49052	-4.65922
2746.09375	-3.97228	1.33417	-0.49060	-5.06149
2750.00000	0.45988	2.54262	1.52398	-1.03150
2753.90625	0.86283	5.36278	-0.08776	2.99857
2757.81250	-8.00156	2.94489	-3.31125	6.22276
2761.71875	-8.80741	-1.48768	3.13559	0.98541
2765.62500	2.87764	-4.71141	4.74722	-1.43145
2769.53125	4.08645	-1.48831	-0.49093	-0.62492
2773.43750	-2.36046	-0.68283	-2.50564	-1.43013
2777.34375	-16.86596	0.12274	-1.69985	-2.63826
2781.25000	-6.79276	-1.48925	-2.10281	-3.44342
2785.15625	10.53327	-3.10129	-4.52048	-2.23389
2789.06250	2.87749	2.53939	-3.31175	0.58732
2792.96875	9.32428	3.34492	-3.31179	3.81147
2796.87500	10.93586	2.13586	-3.71480	4.61798
2800.78125	-0.34630	3.34426	-2.90903	5.02157
2804.68750	-0.74931	1.73222	-2.90912	0.18700
2808.59375	2.87696	2.13487	-5.32674	-3.03584
2812.50000	12.95019	5.76088	-3.31218	1.80000
2816.40625	16.57659	3.34290	-0.49179	1.80066
2820.31250	-0.74938	-2.29842	-1.29770	-4.64559
2824.21875	-3.56989	-8.74561	3.53739	-2.63028
2828.12500	4.48875	-10.35764	3.94028	2.60845
2832.03125	4.48878	-2.70233	2.73140	5.83252
2835.93750	4.08591	0.92374	-0.49214	4.22140
2839.84375	4.08593	-0.28540	-2.90983	0.99867
2843.75000	-3.56972	-2.70332	-0.49232	-1.01536
2847.65625	2.07140	-2.70363	1.11931	-0.20878
2851.56250	14.56231	-0.28633	-1.29828	1.00065
2855.46875	12.14475	-1.49546	-0.08955	-0.61047
2859.37500	8.11548	-0.28698	1.52204	-1.41569
2863.28125	0.45980	-0.69025	1.92487	-6.25020
2867.18750	4.08626	-2.30226	1.52181	-11.48765
2871.09375	10.13023	1.32376	-0.08998	-7.86066
2875.00000	6.10095	0.92055	1.11872	-6.65123
2878.90625	8.92155	-5.92959	1.92460	-11.48573
2882.81250	4.89234	-4.72106	0.31279	-12.69386
2886.71875	0.86308	1.32258	-2.10484	-9.87272
2890.62500	8.11590	4.14281	-4.11960	-12.28969
2894.53125	8.51891	0.91902	-3.71681	-13.49782
2898.43750	-4.37481	0.11280	-1.29930	-9.06501
2902.34375	-10.01575	-1.09623	-1.70234	-10.27316
2906.25000	3.68401	-1.09656	-3.71707	-10.27249
2910.15625	11.74277	0.11185	-3.31420	-7.85422
2914.06250	10.53405	-2.70897	1.11793	-8.25652
2917.96875	7.31066	2.12595	1.52082	-7.85292
2921.87500	3.68436	5.34906	0.31193	-10.26989
2925.78125	5.69914	6.15465	1.11769	-12.68677
2929.68750	11.74331	3.73674	-8.14978	-13.89488
2933.59375	9.72875	4.13942	-10.16454	-10.26787
2937.50000	10.13182	5.75081	-1.70313	-13.89357
2941.40625	12.95241	3.73585	0.71435	-18.72807
2945.31250	20.60821	3.73553	-0.89751	-16.30989
2949.21875	16.17609	3.73521	1.51999	-12.68285
2953.12500	14.96743	3.73492	1.11696	-11.47337
2957.03125	22.22029	3.33165	-0.49484	-12.27862
2960.93750	18.59406	4.54012	0.71386	-7.84570
2964.84375	17.78835	1.71932	0.31085	-3.81573
2968.75000	18.19141	-2.31026	-1.30091	-3.81508
2972.65625	14.16229	1.31578	1.11655	-0.59096
2976.56250	14.16245	4.53892	1.51943	1.42434
2980.46875	18.99780	2.52397	0.71349	-3.81312
2984.37500	12.55107	-2.31148	0.71340	-8.24476
2988.28125	13.76000	-2.71477	-3.71893	-6.63242
2992.18750	17.78940	1.71712	-0.49557	-5.02013
2996.09375	16.98361	2.92562	4.33951	-3.40771
