 	TP9	AF7	AF8	TP10	
-1000.00000	5.75390	0.98437	10.70127	3.48445
-996.09375	2.93391	-0.62572	8.28564	1.47005
-992.18750	0.11395	-3.44464	7.07880	-3.76783
-988.28125	5.75550	-4.24897	5.46905	2.27641
-984.37500	3.33844	-2.63561	6.27684	3.08256
-980.46875	1.72726	-2.63401	7.08461	-9.40795
-976.56250	6.16010	-3.03535	9.10119	-8.60176
-972.65625	4.95191	-1.82493	10.71489	-2.55749
-968.75000	6.56427	-1.42034	7.09042	0.26335
-964.84375	5.75907	-0.61286	7.89818	1.47244
-960.93750	0.11870	-2.22299	10.31768	-0.94474
-957.03125	-3.90992	-3.43011	8.70784	-1.34740
-953.12500	-2.29759	-3.42850	8.30686	-6.18225
-949.21875	0.92649	-1.81517	8.30879	-10.61419
-945.31250	0.92706	0.60407	9.92239	-2.95827
-941.40625	-2.29585	1.41153	9.52140	-7.39037
-937.50000	-2.29539	7.45709	14.35841	-11.41957
-933.59375	-10.35366	7.45873	13.55439	-18.67234
-929.68750	-25.26190	7.86336	10.73575	-31.56625
-925.78125	-31.30583	11.49140	13.15516	-36.80462
-921.87500	-38.96162	24.78983	24.84204	-44.05783
-917.96875	-59.91440	40.50585	50.22852	-59.77285
-914.06250	-100.61099	20.76400	7.51986	-101.27560
-910.15625	-124.78770	42.12106	-1.74572	-135.12285
-906.25000	-153.39688	74.35704	51.03979	-162.12068
-902.34375	-216.65820	35.27423	24.44796	-219.74135
-898.43750	-250.50555	37.29039	-6.97897	-260.84186
-894.53125	-278.71185	60.25893	20.42185	-280.18396
-890.62500	-311.75320	25.60844	9.54440	-306.37585
-886.71875	-324.24503	34.47435	-21.47956	-333.37347
-882.81250	-301.27884	81.61865	67.97265	-313.63104
-878.90625	-321.42593	16.74826	32.91943	-330.15213
-875.00000	-334.72305	-28.78144	-66.60268	-347.07593
-871.09375	-309.74152	-0.17198	-78.68885	-322.90063
-867.18750	-311.75610	17.55840	-27.91794	-322.09515
-863.28125	-306.92084	43.34741	52.66977	-319.67770
-859.37500	-311.75568	10.30842	41.79232	-326.12451
-855.46875	-294.42914	-17.89530	67.98438	-297.11328
-851.56250	-247.68855	21.19032	122.78456	-253.99934
-847.65625	-233.98811	23.20635	201.35750	-243.11980
-843.75000	-237.61359	5.47879	383.08081	-231.03136
-839.84375	-205.78111	18.77685	629.67578	-197.58745
-835.93750	-175.56030	27.23977	796.08771	-172.60503
-832.03125	-187.64703	5.88586	802.93915	-185.09505
-828.12500	-177.57251	-2.57428	800.12012	-171.79747
-824.21875	-121.16090	19.58826	-845.44598	-117.80386
-820.31250	-101.81895	22.41023	804.15259	-93.62705
-816.40625	-132.03741	-13.44919	804.15417	-120.62241
-812.50000	-137.67711	-36.41486	804.15576	-126.26242
-808.59375	-123.17032	-45.27797	804.15729	-107.32362
-804.68750	-118.33388	-54.54401	804.15875	-96.04053
-800.78125	-104.22998	-56.96023	804.16028	-83.95156
-796.87500	-82.87345	-58.97350	804.16180	-68.63923
-792.96875	-69.17258	-59.37503	804.16339	-50.50639
-789.06250	-57.88929	-64.20886	804.16498	-39.62624
-785.15625	-32.10054	-69.04263	804.16656	-17.06117
-781.25000	-15.98208	-70.25002	804.16809	7.51857
-777.34375	-2.68418	-75.08374	-845.83038	13.16047
-773.43750	23.91037	-82.33504	802.15656	21.21998
-769.53125	38.41700	-87.57166	797.32294	32.90584
-765.62500	49.29727	-89.58485	-843.40814	42.17400
-761.71875	60.17745	-90.38931	641.39178	50.23338
-757.81250	72.66936	-88.77610	309.78156	60.30748
-753.90625	88.38467	-86.76002	28.94058	72.39613
-750.00000	107.32337	-85.95274	-199.51947	86.09650
-746.09375	121.42685	-82.72787	-380.03079	99.79677
-742.18750	132.70987	-76.68249	-517.02563	109.46770
-738.28125	141.97821	-72.24877	-617.75671	117.92993
-734.37500	142.38210	-67.41217	-693.50610	123.57162
-730.46875	147.21815	-64.18728	-741.45325	127.60152
-726.56250	146.81612	-62.17121	-768.44800	132.03439
-722.65625	144.39934	-59.75222	-786.98132	135.66136
-718.75000	145.60892	-57.73621	-791.81500	137.27371
-714.84375	145.60966	-52.09377	-786.97833	137.27426
-710.93750	164.54816	-30.73710	-761.99518	159.43593
-707.03125	181.87482	-8.17166	-728.55048	179.58295
-703.12500	178.24916	-2.52926	-707.99957	176.36008
-699.21875	165.35603	0.69551	-689.06036	167.49606
-695.31250	154.07465	1.50269	-671.73291	160.64671
-691.40625	151.25479	-1.31648	-655.61420	151.37976
-687.50000	147.22621	-3.73276	-643.52484	135.26300
-683.59375	129.49796	-9.77536	-629.01788	120.75803
-679.68750	112.97849	-10.57983	-608.46686	111.08823
-675.78125	106.53235	-8.96675	-590.33344	103.43298
-671.87500	106.13007	-10.57704	-570.18536	100.20997
-667.96875	106.13074	-10.17275	-547.21680	102.22506
-664.06250	97.26691	-9.36551	-526.26294	96.58453
-660.15625	84.77676	-10.97579	-504.90607	86.91462
-656.25000	81.15111	-13.39198	-485.56393	85.30338
-652.34375	79.13716	-13.79349	-470.65396	81.67751
-648.43750	78.33205	-11.37453	-448.08838	78.85752
-644.53125	71.88587	-8.95549	-428.34335	75.63453
-640.62500	58.99276	-9.35701	-410.61295	65.15876
-636.71875	69.06678	12.40267	-369.10971	75.23240
-632.81250	85.99055	50.27961	-325.99469	96.58816
-628.90625	78.73850	73.65099	-300.60858	89.33585
-625.00000	42.07256	61.96749	-289.72806	49.44614
-621.09375	5.40658	39.00190	-281.26508	12.77995
-617.18750	-24.81253	60.35866	-271.19040	-20.25995
-613.28125	-63.89609	59.55431	-264.74213	-64.58181
-609.37500	-107.41188	72.44960	-249.42940	-104.47141
-605.46875	-134.00470	105.08839	-215.58185	-131.06447
-601.56250	-184.77335	58.34994	-216.38635	-182.23633
-597.65625	-236.75082	13.62614	-233.30806	-227.76709
-593.75000	-245.21178	55.12943	-215.98070	-235.42233
-589.84375	-246.41992	69.63638	-187.77417	-243.48064
-585.93750	-252.46335	-0.47203	-162.38818	-245.09201
-582.03125	-260.92422	-11.75263	-151.91060	-247.10632
-578.12500	-265.35587	18.06564	-167.62346	-253.14992
-574.21875	-269.38458	6.78505	-170.84554	-249.92612
-570.31250	-266.56354	-21.01572	-144.65373	-241.86720
-566.40625	-258.50439	-8.92645	-126.92342	-234.21120
-562.50000	-248.83347	25.32398	-109.59599	-220.10829
-558.59375	-237.95381	17.66961	-94.28328	-210.03465
-554.68750	-227.47707	-21.01032	-90.65557	-200.36392
-550.78125	-229.08820	-33.90276	-80.17802	-188.67856
-546.87500	-216.59677	-18.99294	-62.44775	-170.94928
-542.96875	-208.13464	-4.88904	-49.95557	-162.08452
-539.06250	-208.53697	1.96216	-38.26924	-155.23439
-535.15625	-195.64253	-1.25994	-28.19467	-140.32555
-531.25000	-190.40382	-5.28787	-22.14942	-133.07242
-527.34375	-175.09192	3.98089	-11.26897	-115.74608
-523.43750	-159.37706	20.90531	-0.38856	-96.40499
-519.53125	-157.36180	15.66860	2.83622	-88.34602
-515.62500	-131.57364	4.38794	12.10497	-70.61672
-511.71875	-110.62064	8.01576	16.13559	-52.48457
-507.81250	-109.81419	16.88164	15.33107	-40.39626
-503.90625	-98.12861	21.31532	19.76467	-27.90505
-500.00000	-81.60789	24.54016	20.57183	-15.81675
-496.09375	-69.92228	21.72100	18.96144	-1.71374
-492.18750	-55.01329	16.88723	16.94805	11.58331
-488.28125	-29.62811	11.24759	11.71119	29.31262
-484.37500	-8.27233	4.39908	4.86257	46.63895
-480.46875	-3.03369	-5.26989	0.02864	51.87737
-476.56250	17.11341	-19.37117	-8.02873	71.62127
-472.65625	30.81366	-31.45770	-16.48906	84.51530
-468.75000	42.90217	-38.30618	-20.11428	90.55960
-464.84375	61.43757	-50.79564	-20.51599	107.08006
-460.93750	70.30263	-77.79057	-28.97636	113.52721
-457.03125	83.19705	-100.35328	-37.43673	123.60081
-453.12500	76.34788	-104.38121	-41.06189	122.79525
-449.21875	87.63055	-102.36514	-43.47828	132.46585
-445.31250	102.13670	-96.72269	-47.50635	146.97168
-441.40625	106.56959	-91.48322	-53.95203	144.95735
-437.50000	129.53722	-91.07893	-55.96548	154.22507
-433.59375	126.71732	-89.06293	-59.18774	155.03123
-429.68750	119.86810	-87.44983	-65.23052	155.83743
-425.78125	129.13611	-86.23966	-69.66159	162.28461
-421.87500	138.00116	-83.01488	-66.03398	165.91136
-417.96875	146.06035	-75.35779	-66.83869	168.32927
-414.06250	148.07571	-62.05968	-79.32834	163.89734
-410.15625	153.71739	-55.20839	-84.16228	159.06255
-406.25000	153.31512	-53.59525	-88.99619	153.01888
-402.34375	148.07779	-49.56453	-96.65070	146.97530
-398.43750	152.51065	-50.77190	-96.64955	146.16978
-394.53125	147.67616	-47.14405	-99.06593	136.49977
-390.62500	141.22993	-41.90451	-103.09409	135.29134
-386.71875	136.39549	-37.87378	-107.92802	132.87424
-382.81250	137.60506	-32.23129	-115.58256	120.38388
-378.90625	134.78526	-30.61815	-120.01361	116.75797
-375.00000	124.30972	-24.97571	-120.81833	107.89398
-371.09375	125.11626	-18.52755	-124.84641	101.44753
-367.18750	124.31107	-16.91447	-128.47150	95.40411
-363.28125	129.14702	-14.89849	-131.29068	95.00172
-359.37500	132.77405	-8.45028	-136.52747	95.00223
-355.46875	132.37183	-3.61381	-139.34671	86.94416
-351.56250	135.19305	-1.19488	-145.79225	84.12419
-347.65625	134.38789	3.64160	-149.01445	86.13931
-343.75000	135.59735	6.46343	-148.20741	78.08118
-339.84375	128.74814	7.67354	-151.02676	70.82890
-335.93750	115.04913	15.33056	-149.81689	66.80003
-332.03125	116.66153	18.55533	-146.99521	65.18869
-328.12500	120.28848	18.55663	-142.96480	66.39790
-324.21875	115.05099	20.16962	-141.35202	63.57783
-320.31250	111.02236	20.17090	-136.11284	66.39879
-316.40625	101.75559	16.54584	-125.23262	66.39925
-312.50000	90.47417	11.71192	-117.17297	59.95277
-308.59375	92.08648	11.31032	-114.35143	58.74436
-304.68750	96.51935	14.93795	-110.32111	60.75941
-300.78125	85.64090	14.93923	-105.88786	53.91003
-296.87500	75.16531	10.10534	-101.05173	48.67232
-292.96875	71.13660	6.88311	-98.63313	46.25510
-289.06250	65.09325	5.67553	-95.81165	44.24081
-285.15625	63.88509	4.87092	-90.97547	43.03239
-281.25000	62.67692	2.05166	-88.15400	41.01816
-277.34375	61.87172	1.64995	-82.10907	42.63034
-273.43750	55.02248	0.84533	-73.64655	40.21315
-269.53125	47.77031	1.65240	-71.22803	29.33445
-265.62500	47.36800	6.08588	-70.01830	26.51427
-261.71875	46.56273	8.10177	-61.55584	28.52930
-257.81250	42.53410	8.90889	-53.49623	26.11217
-253.90625	32.86448	6.49261	-51.88356	22.48624
-250.00000	24.40361	7.29979	-45.03276	16.03982
-246.09375	20.77793	9.71872	-37.37605	3.54941
-242.18750	29.24020	20.59922	-17.22854	12.81736
-238.28125	7.88560	22.21227	6.94812	-0.47890
-234.37500	-40.46537	-2.76810	-37.77623	-53.66520
-230.46875	-21.12395	19.79730	-20.44936	-35.12997
-226.56250	-24.34671	46.39205	55.30245	-32.71204
-222.65625	-102.51460	19.79984	22.26303	-107.65665
-218.75000	-178.26497	-1.15127	-22.46140	-180.18376
-214.84375	-223.79558	-1.15006	-23.26642	-227.32629
-210.93750	-254.41777	10.53607	12.59514	-256.33691
-207.03125	-309.21579	5.70210	33.54827	-305.49411
-203.12500	-333.79401	-11.62272	35.96655	-324.83441
-199.21875	-338.62857	-6.78636	54.90503	-325.23703
-195.31250	-350.31305	-0.33824	91.97537	-330.07187
-191.40625	-351.92426	-14.43965	111.71970	-324.43051
-187.50000	-350.31201	-30.15271	97.61792	-323.62436
-183.59375	-345.87933	-40.22482	95.60405	-319.19186
-179.68750	-333.38794	-40.62656	108.90150	-301.05972
-175.78125	-324.52301	-44.25182	114.14032	-291.38907
-171.87500	-308.00241	-45.05650	124.61721	-272.04810
-167.96875	-285.84076	-28.93809	129.45303	-251.90131
-164.06250	-274.55820	-38.60709	130.66251	-240.61897
-160.15625	-269.72241	-56.73772	135.09543	-224.90430
-156.25000	-254.81340	-37.39577	137.91658	-208.78677
-152.34375	-233.86049	-36.18581	140.73775	-191.05751
-148.43750	-211.69879	-47.06367	141.14134	-168.09015
-144.53125	-193.56628	-43.43607	142.35078	-146.33156
-140.62500	-179.86598	-39.00256	138.72510	-127.39337
-136.71875	-153.27196	-38.19548	136.71115	-102.81422
-132.81250	-128.28969	-39.40300	133.08542	-80.65263
-128.90625	-100.88990	-41.41652	128.65378	-56.47649
-125.00000	-76.71353	-47.05636	129.86322	-31.09151
-121.09375	-51.73128	-50.68161	127.44629	-13.76521
-117.18750	-31.58415	-51.88920	118.98537	-2.07991
-113.28125	-11.43711	-52.69394	108.10693	22.09626
-109.37500	-0.55749	-57.52791	96.42265	39.42253
-105.46875	3.87519	-59.54140	89.97644	40.63161
-101.56250	20.79879	-58.33144	83.53024	56.74916
-97.65625	22.41116	-61.15081	75.47218	62.39056
-93.75000	26.03810	-66.38765	64.99656	63.59965
-89.84375	39.73830	-65.17771	50.49162	75.68778
-85.93750	55.45310	-59.93841	40.01605	84.95543
-82.03125	64.31801	-61.95182	33.16678	82.13520
-78.12500	69.95953	-60.74181	28.73507	84.15012
-74.21875	83.65966	-53.48788	19.46820	97.44701
-70.31250	93.33044	-54.29253	8.18670	100.67065
-66.40625	94.94268	-48.65037	-1.88601	101.07384
-62.50000	101.39009	-40.99351	-9.94408	107.11816
-58.59375	104.61396	-39.78354	-20.82269	110.34193
-54.68750	111.06127	-36.15606	-28.07492	119.60960
-50.78125	123.14966	-35.34903	-32.10373	130.08604
-46.87500	129.99988	-31.31860	-38.55013	129.28038
-42.96875	132.82079	-27.28819	-42.17595	125.65428
-39.06250	135.23875	-28.09290	-49.02530	128.47505
-35.15625	145.31238	-21.24196	-59.50101	130.08711
-31.25000	142.08932	-14.79393	-67.96204	121.62587
-27.34375	138.06046	-15.19576	-73.19967	126.86429
-23.43750	146.52246	-13.58286	-80.04907	130.89389
-19.53125	147.73172	-4.31433	-87.70425	120.82088
-15.62500	146.12039	0.92487	-93.34485	119.20952
-11.71875	144.50914	1.32890	-97.37370	122.83622
-7.81250	146.52423	6.56814	-100.19373	121.22474
-3.90625	149.74815	12.21030	-105.43138	117.19576
0.00000	151.36034	13.42020	-110.26614	118.80779
3.90625	152.97253	15.03300	-111.07153	118.80807
7.81250	155.39058	16.64585	-114.69742	113.57027
11.71875	163.85254	19.46745	-115.90579	115.18237
15.62500	160.22665	23.90081	-115.90537	115.18266
19.53125	152.97437	28.73710	-117.51672	104.70676
23.43750	146.12502	32.76757	-120.73975	91.00743
27.34375	135.64943	37.20098	-122.35098	84.56086
31.25000	136.85872	41.63432	-118.72411	86.97877
35.15625	139.67982	45.26187	-113.08266	88.59084
39.06250	132.02470	44.05420	-113.08220	80.53255
42.96875	124.36958	38.41434	-119.52865	74.89194
46.87500	123.16139	37.20664	-119.52822	74.08645
50.78125	127.19122	39.22239	-115.09551	76.90731
54.68750	127.99756	42.84983	-116.30386	79.72822
58.59375	121.14826	43.65685	-109.45356	77.31100
62.50000	115.50771	38.41983	-98.57404	71.67036
66.40625	109.06127	31.97402	-94.94724	68.04424
70.31250	100.19726	30.76631	-88.50006	67.64165
74.21875	96.97420	28.75276	-82.05283	64.41846
78.12500	94.15410	26.33629	-78.42607	63.61288
82.03125	90.93103	27.14327	-74.79942	64.41897
85.93750	90.52840	26.33855	-70.76981	61.59865
89.84375	96.57274	26.74261	-59.89034	66.43401
93.75000	111.48164	40.44337	-37.72886	84.16318
97.65625	119.94366	50.51774	-21.20841	94.63962
101.56250	115.91486	49.31009	-15.16412	98.26619
105.46875	115.51237	51.72882	-9.11984	100.28103
109.37500	117.52743	52.13281	-9.11955	97.05782
113.28125	116.31905	48.91043	-7.91047	94.64048
117.18750	107.45506	44.07637	-6.70137	89.40255
121.09375	103.82909	41.25697	-10.73045	87.79101
125.00000	97.38264	39.64631	-10.73023	82.95612
128.90625	87.30984	34.81224	-9.92409	80.94171
132.81250	82.87800	31.99283	-9.11799	78.52433
136.71875	80.05785	30.78507	-8.71481	73.68943
140.62500	76.43185	27.56263	-9.52046	68.45156
144.53125	70.38819	26.35488	-11.93775	62.40775
148.43750	64.34460	23.53550	-9.51998	64.01957
152.34375	61.12155	18.29851	-7.10218	61.60221
156.25000	65.55426	17.89664	-6.29616	57.97606
160.15625	66.36057	18.70365	-1.05787	57.17044
164.06250	57.09361	17.09297	-0.25182	50.72376
167.96875	53.87064	17.49702	-4.28091	46.29176
171.87500	52.66239	13.46884	-5.89238	47.09793
175.78125	48.63350	9.03772	-5.89218	44.27759
179.68750	43.79876	13.06814	-5.89203	37.83088
183.59375	42.99332	13.06926	-1.45964	37.42818
187.50000	48.63470	14.27917	4.98736	46.69576
191.40625	53.06736	19.11541	9.41980	55.56040
195.31250	55.48542	21.13113	13.04639	56.76946
199.21875	56.69466	25.16148	14.65829	55.15802
203.12500	49.84529	27.17718	13.04681	53.54657
207.03125	45.01064	25.56654	12.24109	51.53223
210.93750	42.59349	24.76171	12.24127	45.08562
214.84375	36.95294	21.13633	13.45023	40.65372
218.75000	29.29774	19.92855	13.85335	36.22179
222.65625	22.85134	18.72082	11.03304	22.52246
226.56250	18.41966	15.09544	8.61561	14.46421
230.46875	20.03190	13.08185	11.43628	14.86753
234.37500	15.19730	15.90341	14.25694	8.82388
238.28125	5.52749	17.11329	15.46589	-0.84609
242.18750	-6.96286	21.14365	12.24258	-18.97769
246.09375	-18.64738	32.02385	10.22807	-35.49748
250.00000	-22.27324	40.88933	10.22824	-44.36155
253.90625	-33.15185	43.71092	9.82551	-54.03156
257.81250	-56.92419	39.27970	2.97579	-69.34248
261.71875	-76.66724	44.11591	4.58767	-88.68280
265.62500	-100.03662	46.13161	4.99066	-114.06707
269.53125	-118.16797	48.14731	7.00537	-133.40742
273.43750	-141.94029	54.59526	10.22889	-162.01509
277.34375	-181.02402	47.74650	8.21428	-199.89020
281.25000	-214.06380	41.30062	10.63192	-229.30382
285.15625	-244.68608	42.10752	2.17040	-267.17905
289.06250	-267.65271	40.89978	3.78215	-293.36917
292.96875	-277.32254	42.91543	6.19971	-302.63620
296.87500	-282.15732	43.31937	1.76749	-307.47110
300.78125	-282.15692	40.90278	6.60271	-308.27670
304.68750	-269.26270	36.06862	8.21441	-296.18851
308.59375	-255.15970	29.62270	1.36460	-276.84756
312.50000	-246.29482	23.17680	1.76749	-261.13309
316.40625	-220.90988	20.35731	3.37925	-234.13658
320.31250	-189.07803	19.55242	3.78221	-198.67857
324.21875	-157.64923	15.12111	1.76752	-164.83224
328.12500	-129.04083	11.49569	5.39396	-127.76254
332.03125	-106.47644	5.04970	10.22913	-100.36314
335.93750	-68.19777	-0.99338	7.40864	-71.75507
339.84375	-31.53084	-2.20134	2.17053	-39.11761
343.75000	-18.23391	-9.45322	0.96175	-19.37391
347.65625	2.31581	-13.07877	0.15594	-0.43613
351.56250	33.74471	-12.27205	-5.08216	24.14277
355.46875	49.86221	-17.10630	-6.69384	45.49817
359.37500	60.33875	-18.31417	-13.14071	57.18336
363.28125	76.05342	-17.10443	-14.75245	70.07730
367.18750	94.18567	-18.31231	-10.72314	84.58296
371.09375	110.30317	-17.90845	-13.94651	95.86526
375.00000	118.76501	-19.11632	-16.76702	106.34161
378.90625	121.98872	-20.32418	-14.34943	116.01212
382.81250	124.80952	-19.92029	-11.12602	121.65335
386.71875	128.03328	-20.32231	-10.72316	126.08575
390.62500	135.28636	-20.32139	-10.72322	131.72699
394.53125	138.91304	-20.32045	-11.52915	130.92136
398.43750	137.70464	-18.70774	-14.75267	125.68349
402.34375	132.86983	-20.72144	-14.75273	124.07199
406.25000	125.21455	-22.73514	-16.76745	119.64005
410.15625	121.58846	-18.70491	-20.79685	115.20798
414.06250	118.36537	-19.10694	-18.37932	113.99943
417.96875	113.12763	-20.31479	-17.97651	113.19384
421.87500	102.24887	-17.89624	-17.17073	110.77648
425.78125	95.39941	-16.68648	-17.17086	104.32986
429.68750	93.78812	-15.87969	-15.15637	97.48034
433.59375	92.98264	-15.07293	-11.93306	97.07762
437.50000	89.75954	-13.86324	-9.91852	97.48081
441.40625	86.53649	-16.68285	-6.69517	91.43714
445.31250	82.10464	-21.11419	-5.88943	83.37879
449.21875	76.06103	-20.71035	-7.50134	79.34968
453.12500	74.85255	-21.11239	-3.47222	78.14119
457.03125	74.04708	-19.90267	-1.45771	78.54428
460.93750	67.60057	-17.88711	-6.29311	72.90351
464.84375	57.93057	-17.88622	-5.48746	64.84510
468.75000	50.67818	-15.46775	-3.87589	62.83072
472.65625	55.11074	-13.85518	-4.27902	60.01049
476.56250	50.67875	-14.66016	-2.26454	54.36971
480.46875	43.02332	-15.86807	-1.45882	49.13177
484.37500	44.63516	-13.04667	-0.25035	49.53474
488.28125	41.00888	-8.61349	1.76408	51.54932
492.18750	37.78543	-7.40373	-0.25075	42.68478
496.09375	38.18828	-7.40271	-2.66849	34.22306
500.00000	37.38205	-6.59581	0.15183	36.64024
503.90625	34.96396	-9.01230	-1.05716	36.63958
507.81250	29.32219	-9.81702	-3.87791	34.62408
511.71875	22.87436	-7.80124	-5.48998	30.99663
515.62500	19.64984	-7.39716	-5.08736	25.35443
519.53125	21.26055	-4.57554	-1.46130	19.30930
523.43750	22.87125	-4.17148	-1.86458	19.30813
527.34375	14.40878	-5.37919	-6.29712	17.29245
531.25000	9.16988	-4.57225	-5.08863	12.05343
535.15625	13.60152	-2.95942	-1.86552	13.66436
539.06250	14.40692	-0.94377	-4.28343	14.06651
542.96875	10.78029	-3.36040	-1.46323	12.45428
546.87500	9.97436	-8.19460	2.96857	11.24520
550.78125	8.36277	-8.99958	-0.65813	7.21585
554.68750	13.60131	-8.99867	-0.25557	12.05121
558.59375	16.82539	-10.20650	-2.27059	19.30437
562.50000	16.02030	-6.98223	-16.77644	15.27564
566.40625	18.84172	-1.74323	-13.95624	10.03827
570.31250	17.23113	-4.56280	-3.07752	12.05381
574.21875	18.03822	-8.18825	-0.25741	16.48709
578.12500	18.03951	-9.39614	-2.67534	20.51750
582.03125	14.81742	-10.20105	-5.49625	24.54796
585.93750	24.48923	-9.79722	-4.28784	25.75800
589.84375	23.68481	-6.97581	-4.28824	20.52118
593.75000	19.25403	-4.55729	0.14359	19.71655
597.65625	24.89640	-6.97396	3.36664	24.55294
601.56250	26.91241	-12.21114	-1.46886	25.76305
605.46875	24.09327	-11.00143	-2.67808	24.95842
609.37500	19.66232	-12.20932	2.15664	22.13905
613.28125	17.24598	-15.43178	-0.66428	18.91664
617.18750	16.44121	-14.22210	-1.47057	19.32052
621.09375	18.05410	-11.40062	0.14071	19.32150
625.00000	14.83175	-11.80267	-3.08316	16.90488
628.90625	9.19178	-13.41346	-1.47184	18.92038
632.81250	9.19284	-15.83017	-1.87523	18.51829
636.71875	9.99972	-14.62049	-3.08450	16.50447
640.62500	9.59766	-7.76984	-2.68201	13.68474
644.53125	6.77804	-6.15723	-3.89125	13.28254
648.43750	8.39060	-4.54467	-7.51806	12.47747
652.34375	14.83833	-3.73795	-12.75662	8.44890
656.25000	15.24211	-6.96054	-13.16003	5.62914
660.15625	12.42237	-4.13916	-7.92244	5.22690
664.06250	2.75287	-4.54130	-3.08778	7.64515
667.96875	-1.27562	-6.95808	-1.47650	0.79595
671.87500	7.99256	-7.76311	-3.49171	-0.41219
675.78125	1.54642	-9.77692	-4.29807	4.82656
679.68750	-8.92905	-12.19368	0.13368	6.43895
683.59375	-7.31660	-10.98405	1.74487	4.42489
687.50000	-2.07775	-7.75977	4.16195	1.20201
691.40625	1.95225	-8.16186	7.38488	-0.40917
695.31250	0.34118	-7.75818	8.59315	-2.42329
699.21875	-1.26991	-8.16029	8.59262	-2.42279
703.12500	0.74531	-9.77126	7.38331	-1.21351
707.03125	3.16338	-7.35286	7.78576	0.80159
710.93750	-0.46242	-5.74034	8.18816	-2.82428
714.84375	-4.89415	-5.73952	4.15836	-3.22679
718.75000	-7.31123	-10.17091	0.12851	-2.82342
722.65625	-8.51943	-10.57306	1.33673	-7.65823
726.56250	-6.10139	-7.34882	4.15665	-7.65788
730.46875	-5.69798	-6.94515	5.76783	-5.23994
734.37500	-5.29461	-4.12382	3.34963	-9.67186
738.28125	-8.11463	-0.89958	3.75199	-13.70082
742.18750	-7.71121	1.11586	8.18360	-14.50627
746.09375	-4.89024	2.72834	9.79480	-10.07361
750.00000	-9.32205	1.52029	8.58542	-10.07325
753.90625	-8.11279	0.31225	7.37600	-12.89342
757.81250	-5.69470	2.32768	7.37538	-12.49005
761.71875	-4.08254	5.55180	10.19526	-14.50431
765.62500	-2.47029	3.13501	11.00056	-11.68338
769.53125	1.55951	1.12116	9.38817	-6.04188
773.43750	1.96289	4.74830	9.79043	-7.65322
777.34375	-0.85715	2.33156	10.19258	-8.86161
781.25000	-5.28893	-1.29404	3.34207	-9.26408
785.15625	-4.88547	-2.50204	-0.28503	-2.81676
789.06250	-2.06447	-3.71004	5.35532	-1.20468
792.96875	-5.69031	-4.91797	10.18975	-7.24818
796.87500	-8.10741	-7.73771	10.18905	-6.03893
800.78125	-6.09224	-7.73691	8.57667	-7.24733
804.68750	2.36980	-3.30385	9.38181	-6.03812
808.59375	6.80248	-3.30306	6.56054	-1.60550
812.50000	1.16190	-6.52575	2.12755	-4.42569
816.40625	-2.86685	-6.92791	3.33567	-2.41056
820.31250	10.02752	-8.13589	8.17004	9.67787
824.21875	21.71307	-6.52350	13.00441	20.15455
828.12500	18.89332	-7.73165	13.80947	19.75219
832.03125	10.83561	-12.96913	9.77938	18.54412
835.93750	14.06005	-11.35677	11.39031	22.57428
839.84375	25.74631	-6.11804	13.80712	23.38119
843.75000	20.10680	-5.71464	10.58276	24.18845
847.65625	12.45273	-5.31122	9.37303	25.80160
851.56250	16.88681	-2.08722	12.59554	26.60913
855.46875	22.52994	-2.89254	14.20625	34.26678
859.37500	27.36726	-1.68325	11.78770	37.08930
863.28125	24.95193	-0.47383	9.36900	31.04746
867.18750	22.13382	-0.87614	10.57668	25.40860
871.09375	26.56849	-0.47264	17.82835	23.39617
875.00000	25.36220	0.33403	15.40971	20.17509
878.90625	18.51491	0.73784	8.55882	20.17738
882.81250	16.50261	-0.47020	11.78115	22.59711
886.71875	18.11669	-0.06646	14.19755	22.19633
890.62500	13.28382	2.35194	13.79348	18.57197
894.53125	9.25663	5.17324	14.19511	13.73879
898.43750	14.09383	5.17405	13.38797	15.75522
902.34375	15.70744	3.56307	11.77502	19.78619
906.25000	14.90338	3.16096	10.16198	20.59364
910.15625	10.87579	3.56465	10.16066	16.96880
914.06250	8.45979	1.14795	9.75644	12.94082
917.96875	13.29647	-0.46292	7.74042	16.16539
921.87500	17.32717	1.55262	10.15659	13.74895
925.78125	19.34311	0.74771	10.96113	12.13816
929.68750	24.17939	0.34568	10.95978	18.58594
933.59375	24.18037	3.97299	12.16718	15.76622
937.50000	24.58422	4.37687	13.77762	10.52876
941.40625	19.74988	5.58653	14.17925	8.51472
945.31250	12.90079	7.19922	10.55169	10.12697
949.21875	12.09554	8.40893	10.55050	9.72451
953.12500	10.48427	9.61858	12.56400	3.68084
957.03125	8.06710	5.59005	10.95124	2.47233
960.93750	7.26157	2.77038	9.74143	2.87544
964.84375	8.47070	0.75657	10.54628	6.09903
968.75000	5.24742	-0.45140	10.94825	5.29321
972.65625	4.44163	-1.25646	10.94731	7.30783
976.56250	6.05340	-2.06154	9.33466	10.53122
980.46875	6.05341	2.37146	8.93088	4.48720
984.37500	6.45631	5.19268	9.33310	5.29294
988.28125	2.82998	4.79044	7.31775	7.30748
992.18750	2.82994	7.61163	8.12289	5.29271
996.09375	6.45616	7.20939	11.34562	6.50133
1000.00000	5.65017	5.59828	10.94200	6.90404
1003.90625	6.45585	8.01657	9.73245	6.90388
1007.81250	6.85860	5.59965	9.73169	2.47148
1011.71875	2.82906	2.37693	10.93969	0.85946
1015.62500	-1.20053	2.78048	10.13295	1.26210
1019.53125	-3.61841	-1.65109	6.50578	-1.55871
1023.43750	-4.82747	-3.66504	7.71375	-5.99128
1027.34375	-3.61890	0.36496	7.71292	-6.79749
1031.25000	2.42482	-2.85772	5.29449	-8.00666
1035.15625	0.00697	-4.46880	7.71125	-7.60410
1039.06250	-3.61960	-0.43882	10.12792	-4.78388
1042.96875	-6.03738	-1.24397	10.93295	-9.61940
1046.87500	-8.45508	-1.24328	11.73794	-10.42554
1050.78125	-12.08170	-2.04842	10.93124	-10.02290
1054.68750	-13.29078	-2.04772	11.33327	-7.20270
1058.59375	-8.85875	1.57933	15.36166	-2.77070
1062.50000	-6.44136	1.98299	16.56956	-3.57687
1066.40625	-8.45623	-0.03095	12.94231	-3.57716
1070.31250	-11.27704	-0.03025	12.13546	-1.15990
1074.21875	-12.08316	2.79092	13.74626	0.04851
1078.12500	-10.06877	4.80623	12.53653	0.04812
1082.03125	-7.65141	0.37466	8.90917	2.06239
1085.93750	-10.06932	-4.86268	7.29647	3.27081
1089.84375	-7.24916	-5.26491	10.11598	5.68801
1093.75000	-4.42895	-1.63786	8.10034	6.49342
1097.65625	-5.63814	6.82436	5.68178	-3.17738
1101.56250	0.00254	10.45144	4.06901	-3.98369
1105.46875	8.06091	8.84036	-3.99059	1.65686
1109.37500	17.73087	8.43814	-5.20043	7.29745
1113.28125	25.78926	9.64760	-3.58979	14.54979
1117.18750	24.58024	8.84233	-3.59086	14.14645
1121.09375	20.55075	5.21665	-2.38313	11.32564
1125.00000	18.93887	6.42610	-4.80182	14.95175
1128.90625	18.93877	5.21794	-3.19127	21.80130
1132.81250	22.96809	2.39812	-0.37185	23.01001
1136.71875	29.41514	2.80165	0.83585	23.41294
1140.62500	23.77425	7.23448	-2.38870	19.38376
1144.53125	18.93936	10.45844	-1.58391	17.77222
1148.43750	18.13406	8.04133	0.02669	14.95212
1152.34375	18.53786	7.23605	2.44322	18.57914
1156.25000	24.98572	10.05707	4.05374	17.37118
1160.15625	26.19588	8.84882	0.02321	13.34304
1164.06250	21.36241	6.43190	-1.18690	14.95626
1167.96875	18.14071	10.86466	-0.78537	14.55495
1171.87500	18.94841	12.87985	0.42192	17.78012
1175.78125	22.97966	12.47748	3.24072	19.79659
1179.68750	25.39937	10.46355	4.44785	21.41021
1183.59375	18.95468	9.25554	4.04340	25.03859
1187.50000	14.92756	10.86801	7.66832	27.05524
1191.40625	11.30334	8.45121	11.29304	23.02787
1195.31250	8.08198	5.63128	8.87372	19.80625
1199.21875	5.66648	6.03488	6.45448	20.21106
1203.12500	3.65390	5.22980	8.87031	19.80990
1207.03125	6.47644	3.21590	9.67442	16.99112
1210.93750	3.65796	-1.21562	8.06085	14.57522
1214.84375	1.64520	-4.84126	9.67078	14.97980
1218.75000	1.64697	-3.63183	6.84832	13.36953
1222.65625	3.66327	-0.00475	2.81710	12.96800
1226.56250	6.48529	0.39884	6.03861	14.58093
1230.46875	11.32196	4.02594	8.05127	17.80553
1234.37500	17.36729	4.83248	6.43761	13.37438
1238.28125	15.75682	0.40097	1.60046	5.71976
1242.18750	12.13169	-2.01584	0.38972	3.30307
1246.09375	13.34159	1.61121	3.61117	5.31854
1250.00000	15.35722	6.04418	5.62387	11.76620
1253.90625	15.76092	7.25372	6.83069	14.58728
1257.81250	12.94108	5.23980	9.64937	15.39351
1261.71875	13.34464	3.62882	12.46805	17.00562
1265.62500	10.52455	4.43552	8.03406	13.78244
1269.53125	7.30139	4.83915	6.42062	10.55912
1273.43750	13.34560	4.03405	6.01595	15.79728
1277.34375	15.76327	3.22894	3.59679	15.79730
1281.25000	12.13700	2.82671	5.60985	10.96205
1285.15625	7.30183	3.63328	9.63759	9.75324
1289.06250	6.09310	2.42525	8.42726	8.54436
1292.96875	12.94290	0.41124	8.42576	17.00583
1296.87500	15.36051	4.03831	10.03597	18.21452
1300.78125	11.73409	14.11223	7.61700	6.52948
1304.68750	16.56920	16.12757	2.37751	6.12639
1308.59375	23.41900	14.91946	-0.44439	9.75269
1312.50000	22.21013	13.30845	0.36025	12.17011
1316.40625	19.79243	14.92080	-2.05859	12.57294
1320.31250	18.18059	16.13025	-3.67161	10.55811
1324.21875	13.74816	10.48989	-3.26991	12.16958
1328.12500	12.13627	6.86410	-0.45065	14.98994
1332.03125	11.73308	8.47646	3.17455	17.00436
1335.93750	11.73280	7.26828	3.17338	14.98942
1339.84375	6.49442	6.46304	2.76930	12.57150
1343.75000	2.46478	8.47827	3.97701	8.13894
1347.65625	6.09081	7.67295	5.58772	3.70636
1351.56250	8.10505	5.65890	4.37791	6.52653
1355.46875	8.50746	9.28590	6.39157	6.12318
1359.37500	10.11867	9.28650	6.79355	3.30223
1363.28125	13.74447	6.86950	5.98683	3.30175
1367.18750	13.74388	7.67593	7.59771	7.33059
1371.09375	7.69932	5.25898	6.38803	9.74768
1375.00000	3.66942	1.63316	2.76080	7.32953
1378.90625	4.47461	4.05127	1.95420	4.91138
1382.81250	1.65345	6.46935	5.57990	2.09034
1386.71875	0.84692	5.66390	3.96742	4.50739
1390.62500	2.05492	5.66437	2.75787	6.11851
1394.53125	2.86012	4.45610	3.56307	5.31214
1398.43750	-1.16986	1.23308	2.75647	6.11753
1402.34375	-2.78232	-1.58706	5.17340	5.71416
1406.25000	1.64928	-2.79541	5.17272	-4.35963
1410.15625	-0.36601	-3.60092	2.75442	-6.77762
1414.06250	-0.76964	-5.61514	5.17134	-0.73410
1417.96875	-0.36737	-10.85284	4.36478	-0.73455
1421.87500	3.66129	-11.65830	0.73764	-0.73495
1425.78125	7.69000	-10.04618	-0.47190	-0.33240
1429.68750	6.88354	-12.46343	0.33324	0.47315
1433.59375	3.65947	-10.44845	-1.27930	2.89036
1437.50000	2.45005	-8.43352	-4.50354	0.87539
1441.40625	-3.99745	-9.23906	-2.89266	-5.57183
1445.31250	-9.63896	-12.46214	0.32983	-4.36331
1449.21875	-6.81894	-11.65589	1.94061	4.90381
1453.12500	-0.37254	-8.02906	1.93976	4.50065
1457.03125	6.47682	-5.61111	5.56536	3.29158
1460.93750	7.28229	-6.01361	7.57917	9.33529
1464.84375	5.26730	-6.81912	4.75768	8.52929
1468.75000	1.64065	-6.41578	1.13036	3.29105
1472.65625	-1.58302	-7.22123	1.93520	4.90255
1476.56250	-2.38903	-2.38566	4.75465	7.31998
1480.46875	0.83429	2.85286	5.96243	8.52866
1484.37500	0.83414	2.85325	7.97604	4.90212
1488.28125	-4.80709	-1.57863	5.15442	3.69322
1492.18750	-5.21022	-3.99580	3.13862	6.11076
1496.09375	-1.98692	-4.39838	0.31691	2.88721
1500.00000	4.86281	-2.78625	-0.08729	4.49891
1503.90625	-7.22521	-1.98002	3.53784	-3.55978
1507.81250	-28.17761	-5.60601	5.14825	-23.30342
1511.71875	-38.25097	-6.41143	2.32642	-38.21183
1515.62500	-53.96531	-4.79922	2.32502	-49.89685
1519.53125	-71.69421	-6.00757	3.53242	-60.37306
1523.43750	-82.57335	-9.23058	-0.09539	-75.68439
1527.34375	-86.19975	-12.05071	-0.49981	-82.93717
1531.25000	-95.06419	-12.45318	-3.32181	-96.63683
1535.15625	-105.13741	-8.82642	-8.96430	-111.94813
1539.06250	-108.36088	-8.82601	-14.60685	-113.96272
1542.96875	-111.58430	-14.86953	-18.23477	-113.55978
1546.87500	-113.59885	-18.89839	-20.25099	-113.55973
1550.78125	-105.13721	-18.49501	-21.86425	-109.93323
1554.68750	-92.24334	-14.46529	-21.05997	-98.24813
1558.59375	-85.39331	-15.67369	-18.24108	-88.57769
1562.50000	-75.31985	-16.88209	-21.06315	-83.33943
1566.40625	-66.85807	-13.25521	-19.05013	-76.08655
1570.31250	-60.41098	-13.25471	-10.99325	-65.20726
1574.21875	-49.53168	-16.07476	-10.59201	-54.73093
1578.12500	-40.26399	-16.47717	-9.38493	-46.26922
1582.03125	-36.63721	-16.87963	-7.37202	-39.41923
1585.93750	-33.81644	-15.26738	-9.38843	-34.58392
1589.84375	-30.99572	-12.44636	-9.79322	-30.55447
1593.75000	-26.56317	-13.25168	-4.95988	-26.52487
1597.65625	-20.51888	-13.65417	-1.73825	-22.09237
1601.56250	-20.92150	-13.25080	-1.74001	-18.46570
1605.46875	-21.72715	-13.25039	-1.74177	-17.65961
1609.37500	-22.53265	-12.84707	0.67402	-16.85345
1613.28125	-23.74107	-12.84662	1.88109	-16.45012
1617.18750	-18.50257	-10.42859	1.47640	-20.07619
1621.09375	-16.89044	-8.41350	6.71272	-18.86707
1625.00000	-19.71065	-10.83064	10.33732	-15.64329
1628.90625	-20.51618	-9.62138	7.51501	-12.41956
1632.81250	-15.27781	-5.59163	7.91606	-11.61344
1636.71875	-10.44241	-4.78531	7.91420	-12.01603
1640.62500	-15.27727	-5.59081	3.07721	-10.80701
1644.53125	-10.84473	-5.18745	3.88122	-5.16568
1648.43750	-10.44155	-6.39583	8.71453	0.07272
1652.34375	-14.47051	-6.39539	8.30976	-1.13583
1656.25000	-9.63495	-5.18612	7.09907	-0.32970
1660.15625	-5.20241	-8.40908	9.11184	-1.53817
1664.06250	-5.20208	-9.61740	6.28945	-3.95551
1667.96875	-8.02230	-11.63157	1.85533	-3.55237
1671.87500	-9.23087	-11.63107	1.45052	-4.35800
1675.78125	-7.21601	-9.21300	2.25464	-5.96954
1679.68750	-3.99238	-8.00373	4.26744	-5.16363
1683.59375	-8.02162	-3.97396	3.45970	-8.38708
1687.50000	-12.05094	-5.18221	-1.37731	-14.43108
1691.40625	-10.43939	-1.95818	6.27664	-11.20778
1695.31250	-15.67780	1.66872	14.33342	-11.61111
1699.21875	-22.52825	-1.55415	7.48183	-23.69962
1703.12500	-38.24329	-2.76227	1.03315	-43.04107
1707.03125	-48.72038	7.31160	5.46363	-48.68312
1710.93750	-66.04741	16.57966	11.10283	-65.20435
1714.84375	-102.31228	18.19204	10.29515	-102.67810
1718.75000	-128.50397	25.44541	12.30796	-132.09335
1722.65625	-167.58943	31.48998	11.90319	-171.98470
1726.56250	-210.70421	35.92271	9.48386	-213.08484
1730.46875	-238.50743	33.90858	6.25866	-242.49979
1734.37500	-260.66946	31.08860	10.28619	-265.46774
1738.28125	-271.95233	29.47740	13.10490	-281.58582
1742.18750	-266.71484	23.03097	9.47672	-279.57178
1746.09375	-262.28305	23.03141	10.68367	-267.08142
1750.00000	-248.58386	20.61420	11.48768	-250.15874
1753.90625	-221.18477	-6.78473	15.91802	-226.38606
1757.81250	-184.51817	-38.21292	18.73669	-192.13705
1761.71875	-153.89540	-49.49469	17.92893	-161.11139
1765.62500	-126.09306	-56.34431	20.74754	-127.66795
1769.53125	-96.27584	-55.53826	22.76032	-94.22430
1773.43750	-61.22020	-51.91161	18.72917	-61.58631
1777.34375	-30.99954	-55.13487	14.29505	-28.94803
1781.25000	-9.64316	-50.70265	12.68144	-10.00920
1785.15625	14.93689	-46.27045	6.63550	7.31817
1789.06250	36.29378	-45.46461	2.60427	31.89860
1792.96875	50.80110	-44.25591	0.99065	50.83828
1796.87500	66.51744	-46.67361	-4.24936	64.94298
1800.78125	81.42815	-47.88252	-4.65421	77.43618
1804.68750	83.04217	-43.85328	-1.83557	85.09434
1808.59375	90.29729	-41.83868	-0.62881	92.75253
1812.50000	101.17890	-39.42110	-1.83953	100.81365
1816.40625	107.62825	-37.00349	-4.25910	106.86009
1820.31250	113.27163	-36.60057	-2.64939	112.50356
1824.21875	114.07983	-36.60054	-2.24847	114.92346
1828.12500	111.66434	-37.40635	-3.45932	112.50813
1832.03125	109.24863	-36.60045	-1.84958	110.49545
1835.93750	110.05620	-32.57107	-1.04577	110.90011
1839.84375	111.66953	-28.94452	-2.65958	109.69290
1843.75000	104.82107	-29.34730	-2.66160	106.47086
1847.65625	97.97246	-26.12362	1.36565	106.87511
1851.56250	102.00279	-20.07939	4.18415	108.89087
1855.46875	101.19786	-18.46733	2.57035	106.07126
1859.37500	93.14004	-21.69046	2.16539	95.99874
1863.28125	88.70848	-21.69011	2.56622	92.77595
1867.18750	84.67977	-18.46629	0.14662	88.74721
1871.09375	84.68016	-16.45127	0.54745	87.53886
1875.00000	83.47163	-15.24209	2.15715	87.13636
1878.90625	79.03964	-14.83885	2.96089	81.89864
1882.81250	73.80171	-13.62973	2.55581	79.48126
1886.71875	69.36965	-12.42059	1.74785	72.22868
1890.62500	63.32576	-11.21142	2.55158	66.18482
1894.53125	56.47599	-10.00225	2.95244	66.18484
1898.43750	55.26717	-7.18137	3.35329	62.96141
1902.34375	53.25250	-2.74871	5.76870	58.12627
1906.25000	44.38807	-0.73363	5.76653	51.67937
1910.15625	39.15007	-1.94197	3.74970	48.45593
1914.06250	40.35892	-1.53861	1.32990	48.05302
1917.96875	40.35889	2.49119	0.92481	39.99438
1921.87500	39.95586	0.87984	4.14609	39.99434
1925.78125	32.70303	-1.13442	4.54680	38.38255
1929.68750	28.67372	2.08943	1.32117	31.53271
1933.59375	29.47955	1.28396	2.52779	30.72675
1937.50000	29.47944	-1.13332	2.12275	29.51794
1941.40625	29.47928	2.49339	1.31470	29.92082
1945.31250	23.83814	0.07609	0.10378	24.68279
1949.21875	20.61470	-2.34119	0.50451	19.04184
1953.12500	21.42052	-0.72910	4.12879	19.44475
1957.03125	21.42049	-0.32586	3.72373	19.04192
1960.93750	22.22628	1.68912	1.70693	22.66837
1964.84375	23.83791	2.89825	0.09305	22.66843
1968.75000	23.43498	2.49573	-1.52090	17.83337
1972.65625	24.24086	2.89898	-1.92600	14.20708
1976.56250	25.85268	4.10814	-2.73411	12.99849
1980.46875	23.43515	7.33196	-3.54216	14.61036
1984.37500	21.42064	10.95869	-5.96199	14.20759
1988.28125	23.03247	12.16787	-4.35246	16.62536
1992.18750	23.83843	10.95944	1.28633	15.81965
1996.09375	23.03273	8.54228	2.89589	18.23735
2000.00000	18.60069	7.33384	3.29666	17.02880
2003.90625	14.57152	6.12540	5.30911	13.40259
2007.81250	12.55708	5.31992	5.30687	12.99992
2011.71875	14.97490	5.72317	2.88702	14.61188
2015.62500	20.21326	4.11183	2.88483	15.01514
2019.53125	11.75201	0.08289	5.30026	10.58323
2023.43750	8.52886	-1.93139	4.49219	13.40407
2027.34375	14.97603	-0.72224	1.66953	12.59857
2031.25000	16.99096	-2.73657	1.66736	10.98717
2035.15625	15.78247	0.08426	4.48569	13.40516
2039.06250	13.36519	2.50222	5.69228	13.00263
2042.96875	11.75373	0.08494	0.85494	15.42056
2046.87500	9.73938	-0.72060	0.85277	15.42096
2050.78125	10.54553	-2.33208	5.28283	11.39205
2054.68750	10.94884	-6.36110	6.89237	9.78072
2058.59375	2.08468	-6.76379	5.68143	4.54299
2062.50000	-5.16777	-3.13714	1.24699	-3.91821
2066.40625	-3.55574	1.69821	-5.20206	-7.54431
2070.31250	-2.34667	6.53363	-7.62187	-7.14105
2074.21875	3.29460	5.72795	-6.41528	1.32078
2078.12500	6.11546	1.29596	-5.61163	7.36505
2082.03125	-1.53996	-1.52439	-6.01679	5.75369
2085.93750	0.07199	-2.73291	-3.60143	3.73932
2089.84375	0.47514	-1.92688	-3.20077	-0.28964
2093.75000	0.47534	-1.12087	-3.60603	-2.70687
2097.65625	-1.13612	-1.92659	-1.99661	1.32281
2101.56250	-4.76225	-4.34404	0.01570	-0.28858
2105.46875	-2.74731	-2.32917	-0.79260	-3.10885
2109.37500	-2.74711	1.29752	0.81667	0.92060
2113.28125	-5.16455	2.10366	3.63466	-1.89967
2117.18750	0.47670	0.49218	2.82634	-1.89942
2121.09375	6.11801	0.49245	-2.41428	2.13015
2125.00000	5.71538	0.89569	-8.46081	-2.70469
2128.90625	1.28342	0.09012	-6.04587	-5.52498
2132.81250	-1.53683	1.70210	-1.21328	-1.09250
2136.71875	-2.74533	2.50830	0.79871	-2.30104
2140.62500	-1.53617	4.52325	2.00486	-1.89783
2144.53125	0.47884	6.13527	3.21104	-1.49460
2148.43750	-1.93844	4.52390	1.19372	-3.10610
2152.34375	0.47953	8.95640	-2.43524	2.53523
2156.25000	9.34436	12.58311	-0.42322	8.57949
2160.15625	12.16524	8.15115	3.20056	11.40030
2164.06250	9.34502	5.33097	3.60086	4.95377
2167.96875	5.71904	5.73416	4.40414	0.52195
2171.87500	2.89889	5.73443	6.01333	0.92514
2175.78125	5.71974	6.54064	3.99611	2.53718
2179.68750	3.70542	7.34678	1.17297	2.94040
2183.59375	-2.74112	3.31773	2.37918	2.13491
2187.50000	-3.54663	2.10918	4.79422	0.12062
2191.40625	-1.93461	2.10947	0.35938	-3.50548
2195.31250	0.48332	1.70680	-0.85200	-1.08756
2199.21875	4.51295	2.11001	1.16011	5.76265
2203.12500	4.91626	0.09563	0.35174	4.95714
2207.03125	0.88729	0.90173	1.15501	-1.08641
2210.93750	0.88762	0.49903	1.55534	-2.29484
2214.84375	0.48503	-1.11241	2.76154	-4.30913
2218.75000	1.29120	2.11130	5.17659	-4.30874
2222.65625	3.30615	6.94670	5.17402	-5.92007
2226.56250	4.51531	8.15575	3.96263	-5.11386
2230.46875	6.93331	8.15597	3.55707	-1.08419
2234.37500	1.29263	4.12689	3.15156	-5.11315
2238.28125	0.08418	4.12710	-0.07450	-3.90402
2242.18750	12.57539	9.36541	-6.52402	1.73728
2246.09375	10.15817	8.55979	-1.69151	4.55821
2250.00000	-9.58510	3.32191	5.15570	-5.51473
2253.90625	-23.28443	0.09866	7.57058	-17.19928
2257.81250	-25.29879	-1.51289	8.77669	-17.19893
2261.71875	-23.68684	-5.54200	12.40039	-16.79576
2265.62500	-29.32756	-11.18282	20.45632	-20.82474
2269.53125	-32.95366	-17.62954	21.66248	-22.83901
2273.43750	-29.32695	-23.27041	21.65982	-20.82402
2277.34375	-35.37062	-24.88192	25.28349	-23.24128
2281.25000	-36.57914	-28.10518	26.48962	-23.64380
2285.15625	-35.37005	-26.89618	27.29278	-25.25520
2289.06250	-40.20500	-28.10481	27.69304	-21.62846
2292.96875	-38.59297	-30.52227	28.09325	-17.19583
2296.87500	-32.14582	-30.52209	30.10522	-16.79250
2300.78125	-22.87812	-27.29848	27.68500	-7.12175
2304.68750	-19.25154	-18.83677	25.66765	-4.30090
2308.59375	-20.46002	-17.22484	26.47081	-7.92686
2312.50000	-19.65385	-19.23938	24.45352	-11.95577
2316.40625	-17.63895	-20.04504	24.45090	-14.37303
2320.31250	-21.26504	-19.64189	24.44828	-8.32876
2324.21875	-20.45891	-18.43289	24.04271	-7.11965
2328.12500	-20.86149	-16.01517	21.62251	-7.11930
2332.03125	-20.05532	-16.01501	20.41103	-5.10427
2335.93750	-6.35539	-16.01484	22.82592	1.34301
2339.84375	-2.32578	-14.40287	20.40570	5.77566
2343.75000	-7.56352	-13.99975	16.37370	6.17899
2347.65625	-7.16024	-15.61123	17.17684	8.99990
2351.56250	-2.32466	-16.81983	17.17415	9.80622
2355.46875	1.70495	-15.20790	13.54507	8.19488
2359.37500	4.52575	-12.79019	13.94534	11.41871
2363.28125	4.52609	-10.77535	17.97193	13.03084
2367.18750	2.51179	-8.76051	18.77506	10.61362
2371.09375	0.49749	-9.56618	15.95186	9.00224
2375.00000	4.93007	-9.96891	15.14331	13.43487
2378.90625	10.57138	-7.14823	15.54351	18.27041
2382.81250	5.73658	-5.93923	17.15259	17.86794
2386.71875	3.72227	-7.14786	17.95575	13.43611
2390.62500	5.33423	-8.75947	15.13256	11.01887
2394.53125	5.73748	-9.16219	12.30937	15.45146
2398.43750	2.91733	-7.14739	10.69492	15.45178
2402.34375	-4.73798	-5.53555	9.88636	12.22864
2406.25000	-3.93173	-7.95292	6.66019	8.19969
2410.15625	-3.12547	-9.96739	7.06044	5.37955
2414.06250	0.90416	-6.34088	8.66942	9.00630
2417.96875	3.32206	-5.53486	9.87549	7.39502
2421.87500	0.09892	-5.53469	9.87276	3.76896
2425.78125	2.91974	-3.92277	10.67587	6.18689
2429.68750	7.35216	-3.92261	9.86723	2.15793
2433.59375	6.14371	-3.51958	9.05853	3.36708
2437.50000	4.53231	-6.33995	6.63807	3.36744
2441.40625	5.74145	-7.95152	5.82937	0.95020
2445.31250	5.74179	-4.72797	9.45282	2.96523
2449.21875	5.74213	-2.71322	8.64407	1.75685
2453.12500	4.53369	-2.31022	8.64115	1.75729
2457.03125	3.72823	-1.10129	9.44406	6.18998
2460.93750	3.32568	0.91349	8.23236	2.16113
2464.84375	0.90854	2.92829	8.22946	-1.06187
2468.75000	2.11770	6.55488	7.42071	-1.86726
2472.65625	3.72989	6.55504	7.82077	-1.46383
2476.56250	3.73025	2.12293	11.04134	1.75998
2480.46875	0.91012	1.72010	8.21793	2.16333
2484.37500	-2.31297	2.92902	5.39459	0.14907
2488.28125	-1.90974	2.92910	8.21226	-2.67106
2492.18750	-0.70059	3.73502	10.62704	-1.05894
2496.09375	0.50855	5.74975	10.62418	-4.28193
2500.00000	-0.29699	5.74981	8.60669	-5.08734
2503.90625	1.31499	5.34699	11.82729	1.35998
2507.81250	4.53872	5.34708	11.82442	-1.46011
2511.71875	2.12137	3.73542	10.20986	-2.26560
2515.62500	4.13627	3.33263	11.41576	6.59934
2519.53125	2.12177	1.72096	11.41291	4.18216
2523.43750	-5.53362	0.10932	7.78373	-0.24966
2527.34375	-10.36854	-0.29355	6.57209	0.55668
2531.25000	-10.36821	0.10951	7.37507	-1.86044
2535.15625	-9.15906	1.72131	10.59565	-3.87462
2539.06250	-4.32352	2.93023	11.80156	0.96095
2542.96875	0.91490	4.13917	8.97819	0.55845
2546.87500	-3.91999	0.51290	7.76652	-5.48517
2550.78125	-1.09910	-1.50167	6.15189	-5.08181
2554.68750	1.31876	-0.29278	5.74614	-5.08143
2558.59375	-2.30732	-1.09854	8.56377	-3.46935
2562.50000	4.54274	1.31917	10.17264	0.15744
2566.40625	7.76650	3.73682	10.57265	3.38132
2570.31250	3.73750	2.93106	10.16685	2.17293
2574.21875	5.34947	3.73697	10.56682	5.79970
2578.12500	7.76737	5.34880	8.95224	11.84401
2582.03125	3.73839	3.33423	8.54637	4.18869
2585.93750	2.12692	-0.29208	8.94634	-0.24318
2589.84375	-2.70792	-0.69487	6.52574	0.56312
2593.75000	-5.52808	-2.30653	5.31396	0.96642
2597.65625	-3.11016	-2.70932	6.51978	-0.24195
2601.56250	1.72527	2.52889	6.51682	0.16142
2605.46875	8.57532	1.32020	6.51387	6.60873
2609.37500	11.79903	-0.29143	6.91384	9.42962
2613.28125	8.97882	3.73799	7.31374	10.23582
2617.18750	0.92053	7.36452	11.34006	4.99809
2621.09375	0.51790	3.33538	15.36637	4.59558
2625.00000	8.57677	-1.49968	18.18394	14.26628
2628.90625	10.59170	0.91805	16.16632	11.84909
2632.81250	8.57735	0.11233	12.93989	9.43186
2636.71875	4.14544	-2.70804	10.92227	3.38834
2640.62500	0.51930	-0.69328	11.72515	-1.44635
2644.53125	0.11668	4.14197	15.34850	6.20975
2648.43750	0.92294	5.35086	17.76310	12.65709
2652.34375	6.56426	5.75383	18.96893	13.46341
2656.25000	7.37043	2.53050	15.74250	9.83755
2660.15625	0.52095	0.11295	9.69553	3.39109
2664.06250	0.92424	-0.28994	9.28957	3.39152
2667.96875	-0.28424	-2.70742	10.09249	2.18316
2671.87500	-2.70153	-0.69275	7.26898	2.98948
2675.78125	-0.68653	1.72485	6.05720	11.85447
2679.68750	6.56658	0.51611	8.06884	13.06376
2683.59375	9.79034	1.32205	5.24530	13.06427
2687.50000	4.14968	1.32208	0.81003	12.25887
2691.40625	6.56759	0.51620	6.85104	12.25936
2695.31250	9.79143	0.91919	8.86266	15.08037
2699.21875	10.19478	2.12803	7.24786	15.48376
2703.12500	12.20986	2.93390	8.05066	17.09606
2707.03125	10.59850	4.94856	10.86816	20.32004
2710.93750	11.00183	7.76907	14.49146	15.88831
2714.84375	11.80806	7.76909	10.45912	10.65074
2718.75000	8.98796	7.36621	8.84439	13.87475
2722.65625	10.60012	8.97790	10.05017	14.68120
2726.56250	14.22709	10.18667	9.64413	13.47309
2730.46875	11.40724	9.78376	6.41758	11.86217
2734.37500	11.00509	8.97782	6.01151	11.05715
2738.28125	41.22586	35.97410	36.63113	39.26334
2742.18750	77.89360	65.38794	72.08585	74.72243
2746.09375	77.08904	70.22295	76.51485	75.52966
2750.00000	67.42018	69.41692	73.28825	67.06971
2753.90625	68.63047	65.79035	69.25575	67.07145
2757.81250	69.03511	64.98422	66.02923	68.68504
2761.71875	65.41045	60.14887	65.22016	66.26934
2765.62500	58.15927	55.31352	62.39654	56.60090
2769.53125	54.13156	52.08990	58.36409	57.00557
2773.43750	50.10370	49.26921	49.09352	53.78374
2777.34375	47.68743	47.65738	46.26991	44.11489
2781.25000	43.84026	40.00157	48.68436	39.82623
2785.15625	38.98534	36.37516	45.05491	36.91753
2789.06250	34.59211	37.18098	40.21658	32.59831
2792.96875	32.89619	34.76336	37.79591	26.18567
2796.87500	27.02029	32.34583	34.97219	21.52464
2800.78125	25.19530	30.33118	34.56616	23.61470
2804.68750	23.94692	29.52535	33.75720	19.86578
2808.59375	16.08395	27.91365	28.51600	13.67312
2812.50000	15.72133	23.48144	27.30408	16.65642
2816.40625	15.01001	18.64633	24.07749	16.77520
2820.31250	10.99559	17.03466	18.43329	10.64007
2824.21875	3.65823	16.22877	16.01258	7.23655
2828.12500	3.19188	13.40831	14.80060	6.00630
2832.03125	6.59712	12.19953	12.78275	2.28258
2835.93750	4.22510	15.42299	11.57071	3.57866
2839.84375	1.64761	7.76733	11.16453	12.59058
2843.75000	-2.13231	-0.69408	13.98187	13.94279
2847.65625	-6.90277	5.75284	12.76983	-2.48832
2851.56250	-6.96870	11.79691	4.70802	-11.69913
2855.46875	-5.33503	11.39399	-0.53326	-12.42461
2859.37500	-0.42798	10.18523	-6.58046	-14.04749
2863.28125	-0.27033	11.39411	-14.64230	-20.04803
2867.18750	-0.49919	13.81180	-21.09245	-21.47939
2871.09375	4.03245	19.45290	-26.33381	-21.66436
2875.00000	6.87706	23.88524	-26.73992	-21.16366
2878.90625	18.47005	29.12339	-21.90801	-9.23652
2882.81250	24.15614	35.97322	-19.49369	-5.28203
2886.71875	24.01543	38.39089	-15.46768	0.20631
2890.62500	35.16597	41.21148	-8.62116	12.67758
2894.53125	37.23252	42.42035	-3.38632	24.90487
2898.43750	35.77850	43.22624	-2.18079	29.44192
2902.34375	38.91605	42.82338	-2.58695	21.98030
2906.25000	38.03450	40.40580	2.24491	22.27759
2910.15625	40.89830	40.40582	4.25627	26.05031
2914.06250	40.60004	38.39119	2.64132	25.85154
2917.96875	39.00686	35.97359	0.62334	23.41667
2921.87500	37.96873	34.76476	1.02303	22.65792
2925.78125	35.51604	29.92960	3.03444	24.99331
2929.68750	38.55379	26.30325	3.83705	23.69070
2933.59375	37.92940	23.48265	3.43091	17.13160
2937.50000	25.33500	20.25915	4.63648	13.38354
2941.40625	18.89990	17.03569	5.84199	11.66232
2945.31250	19.28302	17.03559	3.82407	7.14692
2949.21875	15.64030	16.63255	1.80612	8.01521
2953.12500	17.53269	16.22950	2.60874	20.09745
2957.03125	19.74438	16.63234	3.00835	16.26529
2960.93750	15.15592	19.04982	2.60214	7.53120
2964.84375	11.49904	18.64674	5.41931	6.21367
2968.75000	8.82304	13.81147	7.43062	2.39270
2972.65625	6.40223	18.24357	11.45661	3.31672
2976.56250	0.07183	21.46695	12.66212	-3.39840
2980.46875	-5.49573	22.67570	14.67342	-9.88082
2984.37500	-17.24734	22.27270	9.02901	-21.32095
2988.28125	-37.10033	18.64629	-2.65927	-43.54394
2992.18750	-50.66663	32.74879	12.64872	-57.38945
2996.09375	-83.64737	39.19566	25.13623	-87.11081
