 	TP9	AF7	AF8	TP10	
-1000.00000	-9.92496	5.87547	-3.97022	-7.91791
-996.09375	-14.12921	6.27834	-6.79031	-10.33535
-992.18750	-16.71321	7.08420	-7.99863	-11.54389
-988.28125	-11.30373	7.08416	-6.78936	-9.52901
-984.37500	-7.30545	5.06949	-7.59473	-8.31999
-980.46875	-6.07461	4.26356	-5.98255	-10.73742
-976.56250	-4.73156	3.05474	-6.38496	-11.14025
-972.65625	-2.81245	1.44292	-6.38451	-9.12543
-968.75000	-5.72203	2.24875	-1.54893	-9.52815
-964.84375	-10.15841	1.44288	-3.96602	-8.31919
-960.93750	-11.46884	0.63702	-7.18904	-7.11026
-957.03125	-7.81972	3.05460	-4.36810	-6.30419
-953.12500	0.19087	5.06920	-1.95004	-3.88648
-949.21875	4.27541	4.66620	-4.36718	-3.48336
-945.31250	6.33756	1.84568	-6.38136	-1.46853
-941.40625	5.72425	0.63689	-5.97800	0.14336
-937.50000	-2.43752	2.24857	-4.76872	-1.87109
-933.59375	-8.10398	-0.16898	-3.55943	-3.07961
-929.68750	-0.25142	-0.16896	-0.73845	1.75578
-925.78125	6.31763	2.24858	1.27665	2.56181
-921.87500	5.61403	-0.97490	-0.73753	1.75609
-917.96875	2.95689	0.23391	-0.73704	5.38255
-914.06250	0.10798	-1.37773	2.48690	4.97977
-910.15625	4.06566	-6.21289	3.69620	3.77106
-906.25000	10.72996	-6.21287	2.08496	-0.25816
-902.34375	11.97189	-3.79526	1.27950	-1.06392
-898.43750	6.35170	-3.79528	0.47411	-1.06380
-894.53125	7.90647	-5.40699	-2.74889	-2.27248
-890.62500	13.19601	-1.78067	-3.15132	0.95109
-886.71875	12.31761	-2.18360	-0.73329	3.36875
-882.81250	13.91699	-2.58660	1.68480	3.36887
-878.90625	16.61448	0.23385	2.08823	5.38363
-875.00000	16.90760	-1.37787	-1.13475	4.17502
-871.09375	30.36373	-0.57206	-0.32843	2.96637
-867.18750	40.89459	-2.58675	-1.13383	6.18996
-863.28125	41.26476	-4.19847	-2.74514	7.80179
-859.37500	43.41833	-2.18383	0.47876	7.39898
-855.46875	47.26207	-1.78096	0.07632	7.80209
-851.56250	44.28739	-2.18385	-1.13203	3.77293
-847.65625	44.47922	-2.98976	-0.32572	3.37008
-843.75000	46.06319	-0.16921	0.88353	11.02591
-839.84375	44.85979	1.03954	0.88394	10.22021
-835.93750	47.39834	-3.79559	-1.53326	8.20570
-832.03125	46.50608	-5.81021	-3.54750	6.59412
-828.12500	43.61750	-5.81023	-3.14419	2.16203
-824.21875	56.11105	-7.82490	-2.33796	2.16219
-820.31250	58.81512	-7.42194	-2.74049	2.56535
-816.40625	47.54040	-5.81027	-4.75479	-0.65786
-812.50000	46.28933	-7.01913	-1.53091	1.76009
-808.59375	49.99181	-4.60161	1.29002	4.58087
-804.68750	45.61728	3.45691	-4.35051	-0.65690
-800.78125	44.18568	9.50076	-7.17055	-1.86529
-796.87500	47.28895	13.52990	-7.57306	0.55276
-792.96875	50.48936	15.94731	-12.40772	0.15029
-789.06250	51.10964	16.75294	-15.22775	-5.89314
-785.15625	46.81290	16.34984	-18.04773	-9.51892
-781.25000	48.92034	16.34967	-21.67361	-8.71259
-777.34375	60.75051	18.76710	-19.65855	-10.72685
-773.43750	63.94432	18.36413	-21.67279	-10.72656
-769.53125	58.65344	18.76696	-25.29879	-9.51765
-765.62500	49.61883	16.75230	-22.07495	-11.12955
-761.71875	43.19798	10.70833	-17.64232	-9.11519
-757.81250	37.15556	5.47022	-15.62726	-6.29495
-753.90625	29.03459	5.87322	-15.62688	-9.11590
-750.00000	19.02912	7.88793	-16.83529	-10.32523
-746.09375	14.13840	7.88799	-18.84955	-6.69946
-742.18750	11.30139	3.85873	-16.83449	-7.90892
-738.28125	0.68245	2.24701	-12.40181	-9.52132
-734.37500	-8.70390	2.65003	-9.98387	-7.10455
-730.46875	-9.33686	-0.17037	-9.58054	-5.09069
-726.56250	-10.47265	-1.78204	-11.99772	-5.09148
-722.65625	-20.17681	-2.99076	-10.78850	-4.28639
-718.75000	-24.89219	-1.78186	-6.35587	-0.66085
-714.84375	-20.25488	0.23289	-5.54962	1.35300
-710.93750	-19.59264	-0.57288	-6.35506	1.35222
-707.03125	-22.60473	1.03888	-8.77228	-0.66317
-703.12500	-17.79456	2.24776	-7.96607	-5.09609
-699.21875	-17.80670	2.24782	-3.93635	-9.52890
-695.31250	-25.35592	0.23322	-3.93599	-11.54412
-691.40625	-22.61409	-0.97554	-5.14442	-9.93288
-687.50000	-14.20038	1.84504	-2.32355	-5.09811
-683.59375	6.76117	1.44210	-2.72613	-2.27788
-679.68750	45.31065	0.63626	-0.71108	1.34820
-675.78125	56.58346	1.84508	3.72156	3.36262
-671.87500	38.01091	-0.16956	2.91604	3.36249
-667.96875	25.61640	-1.78134	3.72223	0.54190
-664.06250	24.07215	-0.57255	5.73723	-2.27864
-660.15625	26.65709	-2.58722	4.52874	-3.89039
-656.25000	26.11591	-2.18430	0.90271	-0.26392
-652.34375	26.09401	1.84496	3.32068	2.55672
-648.43750	28.74827	0.23317	4.93271	1.34809
-644.53125	26.07614	-0.16974	1.70962	3.76590
-640.62500	22.93564	0.63608	0.90416	2.55737
-636.71875	17.82401	1.03896	2.91920	0.94598
-632.81250	16.58354	0.63604	3.72543	2.15506
-628.90625	16.54928	-2.58745	4.12875	1.75251
-625.00000	13.97784	-3.79628	5.74082	-1.47058
-621.09375	11.98350	-7.42267	4.53238	-4.69365
-617.18750	11.96675	-9.84032	3.32398	-2.27566
-613.28125	13.51150	-8.63157	2.92138	-0.66357
-609.37500	11.98488	-9.03458	2.92174	-2.67782
-605.46875	9.53076	-8.22879	2.51913	-5.49790
-601.56250	13.13877	-4.60245	-0.30100	-6.70631
-597.65625	14.59017	-3.39369	-1.50939	-6.70589
-593.75000	10.83735	-3.39371	-1.91186	-7.10840
-589.84375	12.23424	-0.97620	-6.34372	-7.51088
-585.93750	13.93962	1.84431	-7.95508	-6.30170
-582.03125	9.47542	2.24717	-5.53708	-4.28670
-578.12500	10.78730	1.03833	-5.53664	-1.06290
-574.21875	12.19073	1.03828	-5.53619	-2.27134
-570.31250	20.92386	0.63536	-1.90936	-6.70321
-566.40625	24.78316	1.84415	0.10573	-5.09114
-562.50000	15.89869	3.05294	0.10619	-9.12008
-558.59375	12.24461	0.23235	-1.50515	-14.76072
-554.68750	5.48785	-2.58819	-1.10175	-14.35749
-550.78125	-2.64076	-2.58824	0.10754	-17.98349
-546.87500	-14.75506	-3.39412	-4.32423	-24.02709
-542.96875	-22.79636	-2.18531	-3.51791	-19.99744
-539.06250	-20.12154	2.64983	1.31771	-15.56485
-535.15625	-20.14647	2.64979	0.91527	-18.38508
-531.25000	-13.32934	3.85857	0.10988	-20.39940
-527.34375	15.39612	11.11131	0.91617	-20.80195
-523.43750	16.68358	7.88784	0.11076	-26.03970
-519.53125	-4.11313	2.24679	-1.50055	-31.68042
-515.62500	-11.11865	3.85853	-0.69425	-30.06833
-511.71875	-11.13927	1.44092	-1.09667	-22.00943
-507.81250	-16.12081	-2.58840	0.91845	-15.96522
-503.90625	-30.86707	-0.97675	4.54525	-25.23234
-500.00000	-38.04585	9.49944	-1.90113	-32.48484
-496.09375	-25.04427	12.72288	-8.34758	-22.00840
-492.18750	-15.81104	7.88773	-7.13834	-15.15834
-488.28125	-18.24468	7.88770	-9.55550	-22.41085
-484.37500	-17.17368	5.87302	-10.36091	-24.82826
-480.46875	-17.96517	4.66421	-8.74878	-22.00750
-476.56250	-15.58334	9.09647	-13.98645	-20.39559
-472.65625	-11.62693	11.91696	-14.79188	-23.21586
-468.75000	-11.52580	8.29056	-13.17977	-24.42447
-464.84375	-12.75309	6.27593	-12.37346	-24.42430
-460.93750	-14.78873	4.66419	-8.34374	-23.61823
-457.03125	-10.93857	3.85827	-7.53741	-19.99160
-453.12500	5.04300	3.45525	-7.93986	-15.96208
-449.21875	15.31800	1.03758	-9.14810	-11.93254
-445.31250	17.44596	0.23166	-11.56518	-4.27662
-441.40625	24.66769	-0.57427	-10.35587	4.58804
-437.50000	29.18521	-0.57437	-7.13191	7.40878
-433.59375	24.53261	-0.57448	-5.11675	5.79738
-429.68750	21.99442	-0.17166	-3.10158	9.42399
-425.78125	24.66536	-0.97769	-7.13036	9.42425
-421.87500	25.85873	-0.57483	-12.36796	7.00698
-417.96875	23.39722	1.43973	-10.75576	7.41011
-414.06250	16.22305	-0.17204	-9.94941	6.20159
-410.15625	16.16057	-0.57505	-10.35182	6.60471
-406.25000	22.19897	1.03656	-7.12787	11.44015
-402.34375	23.83599	-1.38106	-3.09804	13.85793
-398.43750	24.48196	-0.57526	-1.48584	12.24646
-394.53125	17.99360	1.03638	-1.88822	15.47015
-390.62500	10.30928	-0.57539	-3.49949	17.08209
-386.71875	3.19433	-0.97843	-3.09607	16.67936
-382.81250	2.88123	-0.57556	-2.28976	15.87374
-378.90625	16.32202	0.63317	-1.48343	18.29155
-375.00000	26.62465	1.03597	-0.27415	21.11227
-371.09375	30.23092	0.63302	1.33801	18.69497
-367.18750	30.50697	1.43886	0.12977	17.08345
-363.28125	27.45964	0.23005	-3.49612	16.68072
-359.37500	24.30140	-1.38170	-3.09266	18.29269
-355.46875	21.56983	-1.78471	-3.09215	21.11339
-351.56250	15.48865	-0.97894	-1.07701	18.69600
-347.65625	13.87869	-0.17314	1.34103	19.09902
-343.75000	14.96608	-3.39668	0.13281	17.48747
-339.84375	10.54276	-1.78506	0.53623	16.27883
-335.93750	14.11431	1.43834	1.74555	18.29366
-332.03125	16.85553	0.22950	0.13434	14.66743
-328.12500	16.97259	-2.18808	-0.26813	13.45887
-324.21875	18.58430	-3.39694	-1.07348	13.45903
-320.31250	18.56137	-3.79991	-3.08765	12.65330
-316.40625	19.16953	-1.38231	-1.87837	12.65348
-312.50000	18.21850	-0.57648	-0.66916	12.65364
-308.59375	18.03050	-4.20282	1.34597	11.04209
-304.68750	17.35770	-3.79993	1.34646	7.41582
-300.78125	17.73114	-4.20288	0.94403	7.81889
-296.87500	26.26043	-5.00883	0.94448	8.62489
-292.96875	36.10100	-0.57662	-0.66680	7.01336
-289.06250	33.57303	2.64682	-1.06922	4.59589
-285.15625	29.41476	1.84095	-3.08340	4.99898
-281.25000	30.61311	6.67606	-2.68002	7.41666
-277.34375	31.76202	9.49653	2.15567	9.02856
-273.43750	29.81116	3.45254	4.17079	10.64041
-269.53125	29.35277	-0.57679	4.17122	16.28160
-265.62500	25.74178	0.63196	6.99211	13.05836
-261.71875	15.70232	3.04950	4.97788	1.37359
-257.81250	12.30522	5.46700	-1.87145	0.97086
-253.90625	15.06763	5.86996	-5.09445	2.58273
-250.00000	20.68372	4.25823	-7.51162	-1.44641
-246.09375	26.08002	5.87000	-7.10825	-1.04330
-242.18750	26.18153	8.69051	-5.49617	0.16559
-238.28125	23.89683	7.48171	-4.68992	-1.04300
-234.37500	12.42322	3.85535	-6.70416	-2.65458
-230.46875	7.56805	3.04949	-4.68909	-3.05731
-226.56250	19.95133	1.84066	-4.28573	-1.04251
-222.65625	26.18592	1.43767	-5.49413	1.37518
-218.75000	20.60183	4.66111	-5.49370	2.18120
-214.84375	11.00178	5.06402	-8.31374	2.58432
-210.93750	10.96114	6.67566	-5.89574	0.56983
-207.03125	12.18954	6.67562	-4.28356	-0.63880
-203.12500	13.29378	5.46680	-3.88018	2.18184
-199.21875	19.34166	5.06386	-3.07388	4.19664
-195.31250	18.46202	7.88432	-1.86465	2.58505
-191.40625	4.67638	10.30190	0.95623	2.58530
-187.50000	-2.84669	9.09308	-0.25219	1.77966
-183.59375	3.21599	7.07843	-3.47522	1.37692
-179.68750	10.84734	5.46670	-2.66896	5.80941
-175.78125	10.22833	6.67554	-1.86267	2.98917
-171.87500	11.68506	8.69025	-1.05648	-0.23406
-167.96875	25.20977	5.86979	0.95847	1.37785
-164.06250	26.57175	5.46688	0.55581	2.18391
-160.15625	13.65065	7.48160	-2.26440	3.39292
-156.25000	6.44847	7.48164	-4.68169	1.78148
-152.34375	10.63537	3.45240	-7.09889	0.97589
-148.43750	13.35549	0.22903	-6.29272	0.57320
-144.53125	5.99462	0.22908	-5.48651	-3.85881
-140.62500	3.16927	2.24374	-5.48616	-4.66449
-136.71875	7.12297	6.27303	-3.47118	-2.64972
-132.81250	2.73945	4.66133	-2.66501	-6.27595
-128.90625	-0.12990	1.03491	-1.85878	-9.49929
-125.00000	1.92077	0.63199	-3.06724	-13.93147
-121.09375	2.76910	-0.97981	-7.09619	-15.94609
-117.18750	0.97013	-1.78567	-8.30463	-14.73724
-113.28125	-2.73136	-1.38272	-9.11014	-15.94598
-109.37500	-6.37952	-1.38268	-8.70690	-16.34880
-105.46875	-7.00689	-2.59142	-7.09475	-15.13993
-101.56250	-4.47613	-1.78556	-6.69144	-13.12532
-97.65625	-7.98063	-0.97972	-8.70566	-12.72240
-93.75000	-8.59357	-3.39729	-8.70521	-11.51363
-89.84375	-9.82292	-7.02373	-7.49595	-10.30495
-85.93750	-15.95546	-8.63548	-7.09252	-10.70791
-82.03125	-16.95915	-7.82973	-4.67447	-10.30509
-78.12500	-9.25457	-7.82986	-5.47981	-9.09643
-74.21875	-8.80051	-5.81536	-5.88229	-8.29063
-70.31250	-14.48632	-5.00964	-5.47884	-8.69365
-66.40625	-13.24080	-8.23321	-6.28418	-9.09664
-62.50000	-12.11956	-5.81574	-4.26904	-10.70831
-58.59375	-9.70262	-1.78656	-1.04512	-7.88775
-54.68750	-6.97486	-4.20417	0.97000	-3.85834
-50.78125	-13.91809	-7.83062	0.56754	-5.46990
-46.87500	-22.63495	-8.23365	0.56805	-6.27563
-42.96875	-21.79172	-5.81614	2.18027	-5.87266
-39.06250	-18.99675	-5.41325	-1.04271	-6.27546
-35.15625	-16.81379	-6.21920	-5.47446	-5.06660
-31.25000	-12.94998	-4.20455	-5.87692	-3.45474
-27.34375	-7.47156	-1.78704	-1.44419	-0.63416
-23.43750	-4.88081	-0.57827	5.80904	2.99232
-19.53125	-8.12922	-2.59296	1.37726	5.00705
-15.62500	-9.30480	-6.62231	-6.68088	1.38071
-11.71875	-10.77204	-5.41357	-6.27745	-2.64850
-7.81250	-13.28062	-2.19018	-3.45646	-0.23078
-3.90625	-14.57684	-2.99611	-3.05303	-0.23067
0.00000	-9.33754	-5.81665	0.57376	-0.23055
3.90625	-5.39911	-5.81672	3.79768	-1.43920
7.81250	-4.96262	-2.99630	5.81282	1.38146
11.71875	4.66511	-0.57873	5.41043	4.60506
15.62500	14.39241	-1.78757	2.18748	-0.63290
19.53125	10.81808	-4.60814	-0.63260	0.97899
23.43750	2.15635	-4.60818	0.17373	3.79964
27.34375	0.04969	-2.59356	1.38288	0.97932
31.25000	0.83642	-0.57899	-2.64601	-5.87035
35.15625	1.43809	0.62974	-0.22799	-3.45256
39.06250	0.35514	-0.98206	4.20471	3.80040
42.96875	2.07854	-0.17620	3.39932	4.20356
46.87500	4.26797	3.45010	3.39972	3.80077
50.78125	1.82911	2.24124	2.19130	0.17456
54.68750	2.16263	1.03238	-0.62887	-2.24279
58.59375	4.39777	3.85289	-1.83719	-2.64555
62.50000	5.64846	2.24107	3.40132	-1.03363
66.40625	5.68100	-0.57949	4.61050	-3.85402
70.31250	4.02047	0.62926	1.79045	-7.88317
74.21875	12.93919	2.64386	0.58210	-6.67421
78.12500	40.67144	0.62913	0.58254	-5.06236
82.03125	63.63403	4.25538	-3.04334	-4.25629
85.93750	73.59592	6.67293	-1.02825	-3.04732
89.84375	77.92721	5.86705	0.98681	-7.07654
93.75000	52.30233	4.65821	-1.02738	-8.68810
97.65625	24.55683	3.85232	2.19653	-3.04692
101.56250	16.47224	3.85227	0.98818	0.17657
105.46875	13.39897	3.44926	-0.62313	-2.64381
109.37500	11.20824	0.62877	-0.21975	-5.06131
113.28125	11.05782	-0.98296	-1.83103	-1.03186
117.18750	15.68359	1.83757	0.18406	-1.03169
121.09375	9.61778	4.65802	2.19919	-5.86668
125.00000	8.42530	5.86679	0.58791	-9.49285
128.90625	15.40623	5.86678	-0.62042	-9.49270
132.81250	25.39753	6.67260	0.58887	-6.26909
136.71875	30.97192	4.65791	0.58935	-4.65725
140.62500	40.64993	3.44905	-0.61896	-3.85129
144.53125	55.45229	4.25484	0.59034	-4.25411
148.43750	59.90233	3.44896	1.79961	-4.65699
152.34375	56.64185	5.06067	2.60593	-3.44810
156.25000	48.66077	7.88111	0.99474	0.98425
160.15625	45.90193	6.67226	1.80110	7.83412
164.06250	32.39208	5.06052	1.80161	5.01369
167.96875	15.35951	6.26921	1.80212	1.38737
171.87500	19.37171	4.65746	1.80262	1.79037
175.78125	22.81382	2.23981	0.19139	1.38745
179.68750	18.52025	0.22510	1.40058	-3.85057
183.59375	14.59256	-2.99837	3.81863	-9.49147
187.50000	16.36061	-0.98371	5.02789	-8.28262
191.40625	20.77021	4.25436	5.43134	-3.44740
195.31250	19.51061	5.46312	6.64058	0.98493
199.21875	13.70243	1.43379	5.43233	-2.23846
203.12500	7.29034	-2.59556	2.61224	-7.87945
207.03125	5.28907	-2.19267	1.40387	-8.28230
210.93750	12.48802	2.23949	-1.81909	-8.28226
214.84375	19.00577	3.44827	-3.83331	-6.67054
218.75000	12.90921	1.03063	-3.42998	-6.26757
222.65625	27.80946	0.62771	-1.81774	-5.46166
226.56250	38.15521	0.22474	-0.20556	-4.25280
230.46875	28.37567	-2.19279	1.00367	-3.44688
234.37500	21.70287	-0.17816	2.21287	0.98544
238.28125	12.10837	2.64229	3.01913	4.20894
242.18750	1.60607	1.03050	1.00490	-2.23791
246.09375	2.14112	-0.58122	-0.20347	-2.23784
250.00000	4.77446	-0.17826	0.19996	0.17982
253.90625	2.21800	1.03049	-0.20254	-1.83479
257.81250	3.64052	2.23925	-6.24607	-3.04353
261.71875	5.63670	2.64213	-7.85742	-3.44645
265.62500	2.00981	2.64207	-2.61890	-5.05815
269.53125	-3.11098	4.65666	-3.02135	-3.44633
273.43750	0.03897	5.05956	-3.42385	-1.83454
277.34375	4.42527	5.05949	-1.81168	-2.64028
281.25000	5.64857	6.26812	1.00923	0.58328
285.15625	6.73636	7.47681	5.44189	2.19508
289.06250	13.18510	8.28258	5.44226	3.40398
292.96875	18.39142	5.86501	3.42804	7.43351
296.87500	15.26641	3.85033	3.83141	8.23976
300.78125	13.32383	0.22379	1.01132	9.44885
304.68750	17.12790	-0.98521	-0.19711	11.46406
308.59375	21.03079	1.43219	4.23555	13.47944
312.50000	16.18102	0.22317	7.45940	10.25692
316.40625	7.55602	0.22292	5.04217	1.79649
320.31250	4.08251	2.64024	5.44549	3.00656
324.21875	1.35512	4.65465	6.65457	6.23137
328.12500	-0.92343	3.44563	6.25204	4.62113
332.03125	-2.96127	2.23661	3.83485	3.01100
335.93750	-1.38042	3.04229	1.01479	1.40078
339.84375	-2.33628	3.44496	1.82104	-0.61241
343.75000	-14.39456	3.44476	0.20975	-2.22278
347.65625	-26.88984	2.63871	-2.61040	-1.81871
351.56250	-31.38026	2.23559	-1.40118	-1.41476
355.46875	-34.51541	3.44425	-0.99775	-1.01096
359.37500	-40.19040	1.83245	-1.40023	-3.02486
363.28125	-43.02165	1.02647	1.42076	-4.63600
367.18750	-44.78225	0.22057	2.22717	-3.82967
371.09375	-45.30271	-6.22638	1.42173	-3.42636
375.00000	-45.51439	-9.85277	-0.18945	-3.42615
378.90625	-43.80738	-3.80889	-0.59190	-1.00842
382.81250	-44.23602	1.02620	-4.62070	1.81210
386.71875	-44.92793	-0.18259	-5.82897	1.40908
390.62500	-43.91813	0.62323	-1.39619	-1.00857
394.53125	-42.83721	-0.98852	-0.99271	1.00588
398.43750	-38.17098	-1.79438	-0.58930	3.42314
402.34375	-32.94771	-0.58556	1.02299	4.63166
406.25000	-34.17392	-0.18259	0.62056	3.42253
410.15625	-39.30931	-0.58552	-0.99064	-0.20420
414.06250	-38.16635	-0.58550	-0.18432	1.81005
417.96875	-32.14790	2.23498	3.03961	5.03307
421.87500	-31.32062	5.86141	6.26352	5.83848
425.78125	-33.06837	3.84682	3.44348	2.61458
429.68750	-31.87423	0.62342	-0.18244	-3.02686
433.59375	-26.26087	-1.39117	0.22100	-1.81858
437.50000	-22.91903	-5.01751	-1.39031	1.40444
441.40625	-17.59884	-4.61449	-2.59868	2.20988
445.31250	-2.52559	1.42951	1.02815	1.00073
449.21875	9.01427	5.86180	-1.79192	-1.82026
453.12500	19.47575	1.83252	-2.19442	-2.62653
457.03125	25.37459	-1.39085	-2.19391	-0.61227
460.93750	29.56887	0.62390	-3.80512	1.40197
464.84375	30.05419	0.62400	-2.59589	-1.01599
468.75000	30.97879	1.42995	-3.80412	1.40113
472.65625	34.57777	5.05644	-3.40075	9.05634
476.56250	36.57779	3.84772	-1.78860	11.07041
480.46875	35.63603	1.83314	1.43518	8.65208
484.37500	34.44881	4.65372	3.85330	7.44249
488.28125	33.61759	1.83338	-0.57840	4.62110
492.18750	31.93995	-1.79286	-2.99546	3.41125
496.09375	31.63957	-2.59857	-0.57741	4.61886
500.00000	29.20418	-3.00135	-1.38272	3.00583
503.90625	27.57719	0.62522	-1.38220	5.42189
507.81250	29.42240	3.04298	3.45353	9.04672
511.71875	35.74094	1.43137	7.08042	10.25395
515.62500	39.57063	1.83448	6.27508	10.65525
519.53125	34.04296	3.04345	3.05212	8.63900
523.43750	29.58455	4.25235	4.26145	7.02580
527.34375	29.27651	6.67008	5.47075	6.21851
531.25000	26.24387	5.05849	8.29172	4.60538
535.15625	30.96107	6.67029	19.97723	6.61873
539.06250	35.24393	9.49088	20.38065	7.82633
542.96875	25.15953	6.26752	13.12838	-4.66560
546.87500	8.60510	11.90864	5.87610	-22.79844
550.78125	-11.45346	15.13214	3.86192	-38.11074
554.68750	-27.22630	15.53506	5.87700	-52.21404
558.59375	-39.31896	21.57913	10.71259	-63.09381
562.50000	-59.43612	29.23486	13.93633	-82.43496
566.40625	-82.15035	36.08480	13.13078	-105.40237
570.31250	-112.40096	33.26428	13.93690	-129.17552
574.21875	-136.19705	31.24965	13.93717	-154.15746
578.12500	-154.18962	34.47311	19.17550	-175.10999
582.03125	-184.71869	34.47311	14.34058	-189.61545
585.93750	-207.53198	37.69657	5.07342	-202.10622
589.84375	-217.36459	38.90541	2.65602	-206.94122
593.75000	-221.40721	36.08500	0.64158	-200.89706
597.65625	-226.76996	34.07040	-1.77572	-198.88216
601.56250	-219.33745	30.44402	2.25379	-188.80849
605.46875	-203.14568	28.02644	1.04520	-171.48212
609.37500	-196.19498	27.22059	0.23960	-161.40849
613.28125	-179.30119	26.81768	-4.59536	-147.70845
617.18750	-155.12079	19.96780	-5.40095	-128.36739
621.09375	-139.52484	15.93847	1.04620	-111.04085
625.00000	-124.59905	16.34138	-1.37116	-91.29675
628.90625	-104.09254	11.50613	-2.57968	-69.13508
632.81250	-88.04588	5.86509	-1.77351	-49.39091
636.71875	-71.80843	4.65623	-1.37033	-30.04959
640.62500	-53.67403	2.23858	-3.78757	-16.34936
644.53125	-38.37792	-0.17901	-4.19020	-2.64908
648.43750	-24.86413	-1.38785	-2.98103	11.45414
652.34375	-13.71768	-6.62598	-4.59240	18.30455
656.25000	-2.21674	-10.25242	-5.39788	30.79601
660.15625	7.18598	-13.47593	-7.41217	41.67568
664.06250	14.01298	-17.50527	-8.21765	47.31728
667.96875	23.35964	-17.10233	-4.59095	54.57056
671.87500	36.03093	-15.08769	-0.56129	64.24145
675.78125	43.17796	-15.08772	-3.78430	67.86834
679.68750	43.45395	-15.49071	-3.78391	67.46597
683.59375	49.09038	-14.28198	-2.57481	71.89867
687.50000	60.72650	-12.67029	-6.60373	76.73439
691.40625	63.21869	-17.10261	-8.21505	74.72024
695.31250	65.58610	-18.71445	-4.58832	78.34706
699.21875	74.46767	-15.08813	1.05313	85.19730
703.12500	76.52084	-15.89402	4.27698	86.80950
707.03125	69.91068	-20.32630	2.26276	86.40697
710.93750	67.04325	-23.14682	1.05440	83.18392
714.84375	67.02438	-19.11756	3.87532	83.99020
718.75000	63.55808	-13.87949	4.68158	86.81106
722.65625	64.06643	-11.86487	2.26443	87.21437
726.56250	63.00020	-10.65612	-0.15279	88.02055
730.46875	55.97016	-11.46209	-0.55531	85.60330
734.37500	54.74823	-14.68553	0.65393	83.18605
738.28125	57.06034	-14.68560	1.46018	80.36588
742.18750	52.01595	-11.46228	3.47529	72.30757
746.09375	50.87286	-8.64178	4.68444	69.08439
750.00000	51.35746	-9.44772	2.67020	67.87586
753.90625	47.69804	-10.25373	1.86477	63.44388
757.81250	41.67579	-10.25381	-2.56705	59.81781
761.71875	37.94717	-11.05972	-5.79005	54.98293
765.62500	36.75004	-9.85098	-1.35735	51.75974
769.53125	34.67281	-6.22469	-0.55107	46.52191
773.43750	30.16261	-6.62761	1.46399	42.49287
777.34375	27.88004	-8.64231	5.49377	40.88136
781.25000	29.10919	-5.41892	5.89709	39.26991
785.15625	29.09145	-2.59845	4.28584	38.46430
789.06250	23.64821	-1.79262	2.67454	33.22640
792.96875	19.06980	-3.00146	3.07796	27.18257
796.87500	20.50964	-4.21024	3.48136	25.57105
800.78125	20.66415	-3.80739	3.07882	23.15357
804.68750	15.00154	-2.19568	-0.95010	15.90090
808.59375	9.42166	0.22185	-6.18782	8.64822
812.50000	10.79759	-2.59866	-4.57572	7.03660
816.40625	11.10400	-2.59873	2.67746	7.84253
820.31250	9.78821	1.83344	3.48381	5.02209
824.21875	6.56476	1.43043	-0.94800	3.41042
828.12500	8.91693	-3.40479	-2.15637	6.63393
832.03125	7.76706	-6.62831	-5.37942	1.39588
835.93750	4.49953	-1.79321	-3.76725	-6.66266
839.84375	12.59535	0.22140	-2.15511	-1.42453
843.75000	11.43320	-3.40500	-0.54298	1.79896
847.65625	6.82347	-3.00216	1.06918	0.99313
851.56250	6.75912	-0.18163	0.26375	2.60484
855.46875	5.13114	-1.39045	2.27882	11.06641
859.37500	2.49046	-3.80810	3.08508	14.69274
863.28125	1.80136	-3.00229	-0.54095	11.46936
867.18750	8.78226	-1.39058	-3.76394	13.48404
871.09375	16.23903	-5.01703	-4.16648	14.28992
875.00000	23.07495	-6.62878	-5.37483	16.30460
878.90625	30.24098	-5.01712	-6.18023	23.55737
882.81250	30.44896	-5.01716	-0.94171	28.39252
886.71875	27.68588	-6.22602	1.47625	25.16902
890.62500	39.43333	-7.03191	3.08839	33.22762
894.53125	51.08117	-6.22606	7.52105	45.71842
898.43750	54.74654	-7.83775	11.55078	49.34472
902.34375	59.89931	-9.44947	10.74537	50.55349
906.25000	63.53258	-3.80848	8.32823	50.55347
910.15625	62.64518	0.62378	7.11989	47.33002
914.06250	58.53077	1.42962	7.92620	42.89774
917.96875	51.02540	0.62376	8.73249	40.48014
921.87500	48.64693	1.42959	6.71824	37.65953
925.78125	42.18111	3.04130	3.49524	36.85363
929.68750	34.30185	3.04130	6.31615	39.67411
933.59375	32.93663	0.22076	10.34586	40.88292
937.50000	34.38904	-4.21143	11.55506	38.46536
941.40625	38.19003	-3.80853	11.55547	37.25657
945.31250	37.76782	-2.59974	13.57055	40.07708
949.21875	37.00591	-5.01740	13.97387	38.86832
953.12500	40.38352	-5.82332	12.36258	34.43612
957.03125	49.16109	-5.82337	9.94538	38.06259
960.93750	49.07487	-7.83808	8.33408	37.25682
964.84375	45.85740	-9.04694	9.54326	30.00412
968.75000	47.79126	-7.83819	10.34950	27.18361
972.65625	53.87889	-7.03237	11.96159	29.60127
976.56250	57.06445	-6.22655	13.97665	36.45111
980.46875	52.69027	-3.80901	10.75367	35.24239
984.37500	48.31391	-3.40613	8.33646	30.40722
988.28125	42.48218	-3.40617	10.35150	29.60143
992.18750	36.75972	-3.40622	10.75487	28.79561
996.09375	31.91106	-2.19749	9.54648	27.18391
1000.00000	28.88773	-4.21215	7.12928	27.18403
1003.90625	25.39038	-4.61509	5.11503	26.78128
1007.81250	19.06409	-4.21210	7.13005	24.76677
1011.71875	16.42928	-5.42088	5.92162	21.94633
1015.62500	20.04104	-2.60040	5.51911	22.34940
1019.53125	25.61428	0.22007	5.92239	23.96123
1023.43750	26.64312	-0.98875	1.89346	21.14088
1027.34375	27.49903	0.22003	3.50560	21.14105
1031.25000	34.39245	2.23464	7.13234	24.36464
1035.15625	37.17165	1.83171	5.52107	23.15596
1039.06250	35.61621	4.65220	3.90973	20.73854
1042.96875	33.93645	6.66683	5.11893	17.11226
1046.87500	29.10410	2.63752	7.53693	11.06845
1050.78125	28.60073	-2.19765	9.14895	13.48619
1054.68750	29.31394	0.21986	7.53759	15.90387
1058.59375	28.27047	1.02569	8.34382	15.90402
1062.50000	27.92575	1.02567	9.15005	14.29247
1066.40625	26.29451	5.45791	7.53873	9.86037
1070.31250	27.66438	3.44326	6.73319	10.66638
1074.21875	28.70616	-0.98898	6.33066	9.86067
1078.12500	24.12685	-0.58601	6.73393	7.44319
1082.03125	24.72456	-3.40651	6.73432	8.65215
1085.93750	25.11121	-1.39187	4.72007	8.65231
1089.84375	23.92933	2.23449	3.10879	5.83197
1093.75000	20.04085	1.02569	3.51216	0.59401
1097.65625	15.12780	1.42864	4.31844	-2.22637
1101.56250	14.65938	1.83158	4.31888	-1.42042
1105.46875	13.05992	5.45788	1.49876	0.19135
1109.37500	10.54615	6.66663	-2.53011	2.20607
1113.28125	11.78296	3.44313	-0.91794	3.01202
1117.18750	14.97419	2.23430	-0.51464	3.81796
1121.09375	12.63532	2.63719	-2.52887	6.63857
1125.00000	20.35647	2.23414	0.29209	8.65330
1128.90625	46.74616	1.83114	-0.11045	8.65340
1132.81250	47.45314	2.23392	-0.91588	7.44470
1136.71875	35.35397	1.83092	2.30795	9.05657
1140.62500	29.52997	-2.19844	2.30833	10.26550
1144.53125	20.80721	-3.81027	2.71164	5.02755
1148.43750	19.70885	1.42773	3.51797	5.02770
1152.34375	24.30834	2.23347	2.71246	10.26596
1156.25000	24.69541	1.42755	0.69826	6.23682
1160.15625	22.22880	3.84510	-0.51009	4.22231
1164.06250	18.43787	1.42741	1.50498	4.22242
1167.96875	18.07791	1.42728	4.72884	1.40198
1171.87500	20.92299	3.03892	6.34101	-1.41842
1175.78125	21.27980	4.65055	7.55023	0.59634
1179.68750	20.54704	5.85928	3.11841	3.01408
1183.59375	19.69063	7.87385	0.70125	2.61127
1187.50000	22.10732	9.08259	3.11930	6.23786
1191.40625	19.97329	8.27659	2.31390	5.43212
1195.31250	11.41096	7.87362	1.10555	1.80594
1199.21875	12.79951	6.26181	4.32946	5.02959
1203.12500	16.50320	4.65007	6.74747	8.65612
1207.03125	10.03651	2.63535	3.12158	5.02993
1210.93750	8.56764	2.23235	1.91321	0.59784
1214.84375	12.82168	4.24697	2.71949	5.83608
1218.75000	16.31257	3.84401	0.30236	7.04501
1222.65625	17.73626	1.42636	2.72030	3.82168
1226.56250	12.88795	0.21753	4.33246	1.40419
1230.46875	12.09200	-1.39422	0.30356	-2.22208
1234.37500	12.62188	-4.21477	-1.71069	-3.83379
1238.28125	16.17887	-2.60313	1.51312	-3.43080
1242.18750	23.78966	1.42610	1.11067	-4.63956
1246.09375	18.57059	0.62019	-0.90357	-6.25123
1250.00000	14.02725	-0.18570	-0.09737	-5.04249
1253.90625	14.44228	0.62011	1.11183	-3.43071
1257.81250	11.99774	-1.39457	0.30639	-3.02775
1261.71875	10.88820	-0.58878	-0.49914	-3.83367
1265.62500	10.56071	2.63460	-2.11044	-5.44539
1269.53125	10.74734	1.82868	-2.51300	-6.65425
1273.43750	9.42212	1.02271	-4.12432	-8.26600
1277.34375	9.41253	2.63443	-2.91515	-6.65437
1281.25000	6.83184	2.63437	-3.72064	-6.65445
1285.15625	10.20992	1.42554	-8.95838	-2.22229
1289.06250	14.33975	4.24602	-10.16682	1.40398
1292.96875	-2.43471	4.64894	-8.55474	-17.93669
1296.87500	-18.16686	-1.79801	-3.71915	-36.47152
1300.78125	-29.88250	-4.61854	-2.91290	-46.54480
1304.68750	-44.13416	-8.24499	-4.52424	-60.24432
1308.59375	-54.57414	-9.85672	-1.70327	-69.51168
1312.50000	-63.43320	-8.64792	-0.49417	-75.55566
1316.40625	-71.54332	-14.69185	-2.50848	-82.00246
1320.31250	-79.51241	-15.09481	-9.76086	-88.85225
1324.21875	-85.18636	-9.45378	-17.01322	-96.91077
1328.12500	-86.80238	-8.24508	-16.20692	-100.53710
1332.03125	-83.71724	-6.23047	-14.99778	-92.07542
1335.93750	-83.42374	-8.24515	-17.81783	-90.06065
1339.84375	-80.40945	-10.25982	-21.04087	-89.65765
1343.75000	-70.64259	-8.64808	-22.24930	-84.41953
1347.65625	-60.58904	-7.03638	-21.44303	-73.94329
1351.56250	-49.18230	-3.81291	-19.02513	-61.45242
1355.46875	-46.55166	-7.03633	-21.03944	-58.22898
1359.37500	-46.27301	-7.43919	-23.85963	-52.18509
1363.28125	-35.56172	-2.20107	-19.83002	-38.48552
1367.18750	-26.70674	-3.00698	-16.60623	-27.60645
1371.09375	-20.66975	-4.61871	-16.60591	-21.15963
1375.00000	-12.09561	-2.20118	-13.38210	-15.11580
1378.90625	-5.30728	-1.79835	-10.15828	-14.31006
1382.81250	-6.94329	-5.02185	-12.97849	-18.33944
1386.71875	-12.55839	-6.23070	-14.99279	-20.35417
1390.62500	-14.69906	-5.02189	-9.35136	-21.16011
1394.53125	-12.68883	-6.23070	-4.91872	-17.53390
1398.43750	-5.45864	-5.82777	-4.51543	-11.49005
1402.34375	-5.33918	-2.60433	-8.54433	-9.87855
1406.25000	-3.64187	0.21613	-10.15563	-7.86417
1410.15625	9.42577	1.42488	-7.33476	-6.65566
1414.06250	24.60258	2.23068	-5.72272	-2.62668
1417.96875	37.89043	6.25993	-5.31942	3.81988
1421.87500	35.32896	5.05117	-4.91613	0.59610
1425.78125	32.67603	3.03652	-2.49827	1.80456
1429.68750	37.19896	2.63356	-0.08035	6.63936
1433.59375	40.14895	1.42472	-1.28883	8.25078
1437.50000	42.94890	1.02174	-3.30318	9.05632
1441.40625	44.54782	1.02171	-1.69111	9.05606
1445.31250	47.23486	0.61881	-0.48202	9.45875
1449.21875	49.68211	-0.18703	-3.30218	6.63808
1453.12500	52.08569	1.42464	-3.70474	7.04084
1457.03125	50.41642	1.82756	-3.30153	9.45820
1460.93750	50.11892	3.84218	-5.31588	9.05515
1464.84375	50.90953	6.66264	-6.12143	9.86083
1468.75000	48.88745	4.24502	-4.10646	9.05482
1472.65625	43.89488	1.02155	-2.09147	4.62243
1476.56250	38.94098	1.02153	-0.07650	5.02522
1480.46875	52.84786	0.21565	-0.88204	7.03970
1484.37500	76.33352	1.42440	-1.28470	9.45707
1488.28125	92.83430	3.84196	1.93903	11.06860
1492.18750	94.95538	3.43898	4.35692	7.44199
1496.09375	80.65073	3.03608	4.76011	5.83009
1500.00000	67.24033	1.82725	2.34286	9.45621
1503.90625	68.70445	0.61841	-0.07442	8.65015
1507.81250	82.80156	0.21543	-2.89462	6.23241
1511.71875	77.94281	1.02128	-4.90898	7.03803
1515.62500	59.10320	3.03597	-3.69986	6.63486
1519.53125	45.34960	1.02124	-0.87904	3.81417
1523.43750	35.67554	-3.81393	1.53882	5.02281
1527.34375	21.60647	-3.81395	0.73331	8.24615
1531.25000	19.04833	-0.59054	1.53947	7.03726
1535.15625	17.01282	0.21522	3.95737	3.81376
1539.06250	12.96530	-3.00832	3.15186	3.41084
1542.96875	15.11993	-5.82889	1.13754	4.61967
1546.87500	15.21652	-3.81427	0.73490	3.81389
1550.78125	25.45213	-1.39670	0.33233	7.44034
1554.68750	22.47947	-0.18794	1.54139	5.82877
1558.59375	5.95152	-4.21727	2.34763	-5.05024
1562.50000	5.02171	-9.05252	1.94503	-7.06474
1566.40625	3.59168	-9.85838	1.13956	-6.25867
1570.31250	-8.01118	-11.06723	3.55755	-9.88489
1574.21875	-11.52658	-14.29075	5.57259	-8.67593
1578.12500	-4.29692	-11.06738	6.78171	-5.45235
1582.03125	-12.35006	-13.08211	9.60262	-15.52547
1585.93750	-12.87000	-20.33490	14.43814	-17.54004
1589.84375	-5.99605	-17.91732	16.45317	-10.69005
1593.75000	-10.46109	-16.30567	15.64771	-10.28701
1597.65625	-10.52460	-20.73793	16.85691	-9.48093
1601.56250	-1.94137	-19.93200	16.45436	-0.21335
1605.46875	-3.14690	-14.69390	18.87236	0.18971
1609.37500	-1.94763	-17.91738	20.88737	-0.21305
1613.28125	3.92035	-19.93206	20.08189	5.42806
1617.18750	7.01589	-15.49992	18.47050	7.03990
1621.09375	14.08648	-14.69407	15.65037	8.65168
1625.00000	19.86306	-16.30587	15.65074	12.68108
1628.90625	19.44220	-15.50006	14.44233	16.71049
1632.81250	15.90475	-14.69421	9.20462	15.09891
1636.71875	15.28778	-15.50014	4.36983	11.47262
1640.62500	17.19932	-14.69425	5.17601	12.27854
1644.53125	11.83445	-9.45620	10.41446	9.86107
1648.43750	8.61041	-7.44161	12.83247	8.65242
1652.34375	9.37670	-7.03879	11.62409	8.65256
1656.25000	8.25146	-2.60662	8.40107	5.42924
1660.15625	8.20483	-3.41260	6.38686	2.60886
1664.06250	12.65420	-5.83032	7.59609	5.83238
1667.96875	13.50173	-4.62161	5.58186	8.25007
1671.87500	13.75008	-1.80122	3.97051	5.83255
1675.78125	18.54782	-1.80131	3.97089	5.42970
1679.68750	21.75680	-5.83068	5.98592	8.65325
1683.59375	23.93176	-7.03954	12.03023	9.45916
1687.50000	30.88935	-4.62199	9.61307	8.25048
1691.40625	28.62247	-1.80153	3.97242	8.25055
1695.31250	18.78183	0.61607	4.37577	11.87697
1699.21875	19.57995	2.63070	6.39082	10.66821
1703.12500	19.87791	3.43653	9.21172	6.63896
1707.03125	12.82065	0.21304	11.22676	8.25076
1710.93750	4.43224	-1.39871	8.00371	9.05660
1714.84375	2.10649	-0.18997	3.97481	9.86241
1718.75000	1.27389	-1.39883	2.36350	7.04187
1722.65625	3.71429	-2.20474	-0.45666	5.83303
1726.56250	5.22514	0.21274	-0.45627	7.44468
1730.46875	5.24363	0.21269	-1.26175	9.45928
1734.37500	3.98262	-1.39905	-1.66429	9.05634
1738.28125	1.89736	-1.39908	1.96246	4.22118
1742.18750	2.03427	-1.39913	2.76873	2.60944
1746.09375	0.44384	-2.20501	0.75448	3.01240
1750.00000	-4.00011	-0.59330	2.36661	3.01238
1753.90625	-7.01542	0.21256	5.18744	3.41528
1757.81250	-3.12405	-0.59329	4.38193	3.81826
1761.71875	-1.68167	1.01841	3.57642	5.42999
1765.62500	-9.58497	1.01843	0.75620	6.63880
1769.53125	-6.37787	3.03316	1.56238	4.62421
1773.43750	-1.06855	3.43608	0.75687	6.23604
1777.34375	-0.08661	-1.39906	-0.45156	7.44484
1781.25000	3.44650	-3.81665	0.75762	5.02735
1785.15625	6.56348	-4.62248	-0.85372	3.41563
1789.06250	5.76204	-7.84597	0.75833	4.62445
1792.96875	0.87119	-12.27825	0.75870	2.60983
1796.87500	7.38656	-13.48708	-0.44977	6.23623
1800.78125	12.58461	-5.83140	-0.85235	7.84792
1804.68750	4.56380	3.43600	-5.28428	-5.85169
1808.59375	10.65798	3.43598	-10.52206	-1.01644
1812.50000	11.29536	1.42130	-10.11881	0.99826
1816.40625	3.58523	2.63006	-12.53613	-7.46324
1820.31250	3.97685	6.25636	-13.74464	-4.64273
1824.21875	2.54549	11.89736	-13.34140	-2.22512
1828.12500	-2.17032	9.47970	-16.56455	-2.22511
1832.03125	-4.44857	8.67380	-15.75839	-5.85151
1835.93750	-10.68126	8.27077	-11.72879	-7.06029
1839.84375	-14.31586	2.22675	-10.92262	-2.62800
1843.75000	-11.17847	0.21206	-10.92229	-2.62793
1847.65625	-8.95397	-0.99679	-11.72780	-2.62788
1851.56250	-9.69496	-0.99687	-10.11569	-0.61319
1855.46875	-13.65165	1.01772	-5.68315	0.99860
1859.37500	-14.48809	2.22650	-8.90618	2.61032
1863.28125	-13.64205	2.22647	-11.32345	-1.01598
1867.18750	-12.11449	1.42054	-8.09970	1.40162
1871.09375	-10.48932	1.82343	-6.48770	4.62512
1875.00000	-9.75478	1.01745	-6.89028	0.99883
1878.90625	-2.17691	-0.99725	-7.29290	2.61057
1882.81250	3.21318	0.21150	-5.27792	5.43109
1886.71875	0.02959	2.62905	-5.68059	5.83405
1890.62500	-6.02762	1.01724	-6.08318	2.20766
1894.53125	-10.27053	0.21133	-5.67996	-2.22452
1898.43750	-1.15159	2.22594	-2.45616	1.40181
1902.34375	4.33236	3.03179	-0.44119	4.62525
1906.25000	2.49261	3.43461	0.36500	5.02819
1910.15625	3.28394	3.83748	0.76820	1.40176
1914.06250	2.93452	3.43447	1.17147	2.61055
1917.96875	1.88854	4.64323	1.57468	5.83401
1921.87500	1.80462	6.25488	-3.66302	5.43108
1925.78125	-0.69898	3.83731	-5.67736	3.01354
1929.68750	-2.70386	1.82265	-2.85645	4.22232
1933.59375	-0.35783	4.24019	-1.24444	6.63995
1937.50000	1.30689	6.25485	-3.25876	5.43126
1941.40625	2.88466	2.62848	-1.64667	4.62543
1945.31250	4.95758	-1.80383	1.97998	3.81959
1949.21875	5.01666	-0.99805	2.38326	2.20790
1953.12500	10.47571	3.03127	2.78651	5.43144
1957.03125	14.83623	2.62830	3.59277	7.44621
1960.93750	16.84221	1.82242	4.80188	9.46099
1964.84375	16.23674	4.64291	6.01106	11.47585
1968.75000	13.95062	3.83707	3.19092	8.25257
1972.65625	8.84116	3.03121	-0.43512	5.02929
1976.56250	7.88251	5.04586	2.78871	6.67296
1980.46875	9.08041	5.04585	6.01250	10.57409
1984.37500	7.86075	2.62818	5.60994	9.89959
1988.28125	6.23815	0.21050	3.19268	8.90770
1992.18750	2.19801	1.01629	3.59602	9.19431
1996.09375	-2.24502	2.62801	1.98470	5.14153
2000.00000	-3.06174	-0.19248	1.17926	4.16499
2003.90625	-1.86379	-5.83355	3.19429	5.41411
2007.81250	-2.68057	-5.43062	1.98589	4.80639
2011.71875	-3.90031	-2.61015	1.18044	3.15673
2015.62500	-6.73174	-4.62482	0.77790	3.60769
2019.53125	-5.53393	-6.23660	-1.23632	4.21258
2023.43750	-2.32147	-5.02783	-0.83297	4.16075
2027.34375	-3.54122	-3.81905	-1.23553	1.90939
2031.25000	-3.55220	-3.41614	-2.84680	1.94183
2035.15625	1.27194	-3.41618	-4.45815	-0.34853
2039.06250	1.66390	-5.43087	-2.44310	-4.99894
2042.96875	-1.97346	-4.62506	1.98954	-1.91827
2046.87500	-4.80490	-2.20749	1.98990	-2.19918
2050.78125	-2.80120	-2.61050	1.58730	-9.35843
2054.68750	3.23181	-3.01353	-0.82989	-6.72840
2058.59375	6.44433	-7.04289	0.37927	-0.50334
2062.50000	-0.41640	-5.43119	2.79717	-10.00128
2066.40625	-10.50059	3.03032	-3.24644	-22.42567
2070.31250	-19.77874	7.86542	-5.26075	-31.14627
2074.21875	-20.59528	10.28298	-7.67799	-35.27657
2078.12500	-17.78548	11.08880	-10.49815	-32.26509
2082.03125	-20.21370	12.70049	-12.10954	-37.01058
2085.93750	-16.19508	13.50635	-14.52682	-37.00976
2089.84375	-13.78822	15.11812	-16.13820	-33.20102
2093.75000	-10.97836	15.11817	-16.94379	-31.59881
2097.65625	-3.73631	9.88012	-14.12292	-27.35537
2101.56250	-3.34415	6.65667	-11.30213	-20.89496
2105.46875	-7.38417	7.86549	-10.49594	-17.34223
2109.37500	-9.00660	8.67135	-9.28678	-17.13408
2113.28125	-3.37639	8.26839	-9.68940	-15.84300
2117.18750	2.25388	7.05967	-12.50958	-12.77244
2121.09375	2.24314	7.05970	-12.91221	-10.40895
2125.00000	4.65006	7.46261	-8.47964	-5.72899
2128.90625	7.05695	5.44799	-6.86756	-1.07599
2132.81250	7.04634	5.44804	-7.67311	-0.90365
2136.71875	7.43870	4.64222	-9.68742	-2.62022
2140.62500	7.42809	2.22465	-11.70175	-2.32905
2144.53125	7.41750	3.43348	-10.89561	2.26400
2148.43750	2.57178	4.64229	-9.68651	3.28975
2152.34375	0.14360	3.83646	-8.07444	2.74244
2156.25000	-1.47868	1.41887	-6.86535	3.09958
2160.15625	-0.68325	2.22470	-4.44754	3.34423
2164.06250	2.12679	-0.99877	-3.64134	3.41468
2167.96875	3.72800	-1.80466	-0.82055	5.23196
2171.87500	0.09116	1.82171	3.61199	5.57126
2175.78125	-3.14273	0.61286	2.00054	4.38538
2179.68750	-0.73554	0.61280	3.61262	5.80450
2183.59375	-1.14890	5.44793	10.86570	5.38015
2187.50000	-8.81496	3.43331	2.80741	-5.32093
2191.40625	-19.30144	3.43334	-3.63906	-17.39905
2195.31250	-30.99668	7.86558	5.62866	-28.17828
2199.21875	-41.48318	6.25381	8.44947	-41.28617
2203.12500	-58.41659	12.70069	7.64393	-63.56024
2207.03125	-76.15582	27.20616	16.10573	-84.77765
2210.93750	-102.35655	29.22080	14.49435	-114.11737
2214.84375	-137.82454	32.04134	10.46540	-145.76544
2218.75000	-169.66629	40.50280	11.67453	-173.38692
2222.65625	-197.88167	42.51743	10.86899	-205.82326
2226.56250	-215.62076	41.71155	10.46633	-223.06319
2230.46875	-220.86905	39.69687	9.25782	-230.18777
2234.37500	-227.72910	36.07048	7.24347	-242.80994
2238.28125	-225.32161	31.23520	1.19981	-243.02681
2242.18750	-208.81163	31.63805	-2.42638	-232.83719
2246.09375	-194.71921	28.01152	1.20021	-220.32265
2250.00000	-177.00023	23.57922	0.79750	-193.96120
2253.90625	-163.71335	22.37030	4.02124	-178.28680
2257.81250	-149.21748	15.52029	6.84199	-161.96439
2261.71875	-127.06573	13.90844	1.60419	-136.54112
2265.62500	-116.59881	13.10239	-2.42481	-122.08286
2269.53125	-100.49068	10.28162	-4.43925	-103.34610
2273.43750	-73.10030	13.10183	-2.82729	-76.29682
2277.34375	-56.99168	9.47506	-2.82716	-55.91233
2281.25000	-43.70348	1.01308	-4.03589	-41.84082
2285.15625	-27.59460	-3.41935	-5.24440	-27.46094
2289.06250	-7.85923	-5.03128	-5.24402	-9.10920
2292.96875	17.51722	-3.82265	-4.84075	13.19639
2296.87500	34.02911	-5.43454	-1.61707	26.37276
2300.78125	43.69115	-4.62892	-4.84031	32.72778
2304.68750	48.92089	-2.61437	-9.27231	43.39594
2308.59375	52.94184	-8.25553	-6.45157	53.28970
2312.50000	62.60363	-10.67325	-3.63079	67.22130
2316.40625	70.25076	-8.65876	-7.25700	78.43826
2320.31250	73.86839	-7.85307	-9.27146	81.92201
2324.21875	78.69474	-9.46494	-7.25663	84.84467
2328.12500	80.70052	-12.68854	-7.65940	88.28117
2332.03125	79.88574	-15.50920	-10.07675	88.59547
2335.93750	81.08541	-15.50927	-8.86777	87.78958
2339.84375	79.46449	-13.09172	-7.65886	87.20492
2343.75000	78.64922	-10.27126	-6.04690	86.81194
2347.65625	80.65441	-8.65952	-3.22618	89.41872
2351.56250	83.86832	-8.25662	-4.83764	91.42003
2355.46875	83.85862	-9.06247	-5.24038	92.29955
2359.37500	81.43134	-9.86829	-1.21088	92.49423
2363.28125	84.24214	-9.06234	1.60986	89.59130
2367.18750	89.06750	-7.85344	-2.01623	87.32634
2371.09375	87.04297	-7.85336	-5.64240	88.58881
2375.00000	89.85356	-7.04740	-5.23921	88.74352
2378.90625	99.51392	-6.64434	-6.85065	88.52222
2382.81250	95.87749	-9.46476	-5.64165	87.94635
2386.71875	87.80886	-8.65881	-4.02962	85.23003
2390.62500	88.60464	-7.85287	-1.61172	83.72935
2394.53125	87.78866	-11.88206	3.22374	83.56776
2398.43750	84.55503	-9.06139	1.61231	83.34708
2402.34375	78.90372	-3.82311	0.00095	79.86417
2406.25000	77.68472	-3.01712	2.01597	77.49156
2410.15625	76.06272	-4.62868	0.80754	72.41080
2414.06250	69.20270	-7.44907	1.61374	64.28087
2417.96875	65.16317	-7.85195	5.64343	60.85102
2421.87500	58.30314	-6.64305	6.04664	58.49613
2425.78125	48.62265	-8.25468	3.22650	50.41371
2429.68750	42.97154	-11.07504	2.01805	48.18788
2433.59375	40.94679	-9.06027	2.42137	48.20840
2437.50000	36.10150	-5.83671	0.80998	41.58253
2441.40625	28.43579	-7.85125	-2.41312	39.15429
2445.31250	28.02277	-9.46286	-4.02449	38.24770
2449.21875	31.23622	-8.65696	-2.41249	34.02866
2453.12500	31.62921	-5.43345	-2.41217	32.52896
2457.03125	28.79869	-1.80705	-3.62059	32.39016
2460.93750	27.17705	1.01350	-2.00855	31.91225
2464.84375	28.37595	1.41654	-2.00822	29.31047
2468.75000	26.35142	2.22247	-0.79909	23.89088
2472.65625	18.68589	2.22253	-3.61924	19.25681
2476.56250	15.45263	-3.41839	-4.82769	16.34945
2480.46875	16.24875	-3.41832	-2.40977	16.62340
2484.37500	13.82140	-3.41827	-4.02108	15.14231
2488.28125	14.61756	-6.64165	-1.20022	11.73215
2492.18750	10.17568	-5.02990	4.44122	15.24139
2496.09375	5.73388	-4.22396	2.42696	16.02297
2500.00000	8.94776	-1.80637	0.41269	11.82224
2503.90625	9.74415	1.01418	-2.00455	9.04125
2507.81250	9.73469	1.41714	-4.01888	4.00062
2511.71875	8.51646	-0.59752	-1.19808	2.35029
2515.62500	8.91007	-2.20919	-0.39191	1.99478
2519.53125	6.48316	-3.41795	0.41433	-5.45954
2523.43750	6.07096	-3.82084	-1.60000	-6.31774
2527.34375	11.70275	-1.80615	-6.03193	-0.51098
2531.25000	11.29057	2.22318	-2.00230	0.72985
2535.15625	2.41693	0.61154	7.26544	-3.97841
2539.06250	-1.62159	-4.62652	10.48924	-2.98819
2542.96875	3.20433	-6.64115	6.46027	3.31562
2546.87500	6.01561	-7.44700	4.04296	5.85491
2550.78125	3.58882	-5.43235	3.64035	6.75401
2554.68750	3.17663	-7.44698	6.46114	11.80138
2558.59375	7.59963	-8.65577	10.89370	16.81730
2562.50000	12.02259	-1.80595	8.87930	17.79527
2566.40625	19.26613	1.41751	2.43279	21.08492
2570.31250	17.64521	-2.61179	-2.40211	20.82563
2574.21875	12.39793	-5.83525	0.82163	21.93320
2578.12500	13.19464	-3.01477	2.43366	24.54157
2582.03125	13.58849	-2.20886	4.04566	23.42216
2585.93750	15.19110	-7.04406	5.65774	28.25802
2589.84375	12.76445	-0.59716	-0.78885	24.81391
2593.75000	16.78466	7.46141	0.01728	21.98384
2597.65625	21.61076	7.05849	4.04686	24.61543
2601.56250	17.16949	3.43206	0.42080	24.62887
2605.46875	13.13126	0.61154	-1.19063	26.16688
2609.37500	9.89897	1.41738	3.24195	23.55450
2613.28125	11.90477	2.62615	6.86859	21.21924
2617.18750	15.52238	3.02904	3.24256	19.45465
2621.09375	16.72240	3.02900	0.42238	19.80354
2625.00000	13.49016	0.20844	4.04901	21.66291
2628.90625	9.85500	-4.22378	4.85514	20.27194
2632.81250	14.68146	-2.20915	5.66132	18.02674
2636.71875	16.28440	-2.61212	8.88499	15.50434
2640.62500	16.67857	-5.83560	6.46771	16.19840
2644.53125	22.71378	-5.83559	4.85620	17.97101
2648.43750	28.74908	-5.43261	5.66237	20.20558
2652.34375	31.15805	-4.62673	5.66260	23.68769
2656.25000	29.13479	-3.41789	4.45403	21.62727
2660.15625	28.32030	-3.41787	3.24547	18.24564
2664.06250	30.32646	-3.82080	5.66330	20.73371
2667.96875	27.90030	-0.59729	6.46937	23.75983
2671.87500	22.25063	0.61160	4.45494	19.26400
2675.78125	22.64496	-0.19420	-0.38004	15.25757
2679.68750	33.51540	0.61168	-5.61792	15.06493
2683.59375	39.95366	1.01457	-2.79719	14.64047
2687.50000	32.69231	3.83510	0.42646	13.20673
2691.40625	33.48958	2.22334	4.45599	17.24570
2695.31250	33.07809	-0.19421	7.67968	17.34551
2699.21875	22.99626	1.01454	4.05355	13.10205
2703.12500	18.55546	-0.19417	2.03916	9.36273
2707.03125	18.54696	1.01461	0.83055	7.48590
2710.93750	14.91210	-2.61171	0.42787	6.75426
2714.84375	9.26271	-2.61169	-1.98950	0.08784
2718.75000	11.67186	3.02938	-0.78046	1.07437
2722.65625	11.26057	3.02938	1.23444	5.30477
2726.56250	0.77597	1.82058	1.63758	4.18210
2730.46875	-7.69396	2.22348	-0.37681	-2.13656
2734.37500	-4.88182	3.83523	1.23519	-3.47660
2738.28125	0.34793	0.61176	4.05593	-0.87290
2742.18750	-11.74827	-3.01467	0.02690	-4.38278
2746.09375	-20.62100	-5.02934	-1.18162	-5.16491
2750.00000	-17.00278	-1.80592	2.84795	-0.96465
2753.90625	-16.20514	-1.40299	4.86289	1.00991
2757.81250	-18.63089	-7.04404	6.07197	2.42366
2761.71875	-19.84786	-6.64109	2.44589	2.86465
2765.62500	-17.84140	-6.64112	0.43148	2.81674
2769.53125	-10.19396	-5.43235	2.04342	5.83824
2773.43750	-4.56107	-5.43238	0.02903	3.47257
2777.34375	-1.34575	-4.22363	1.23809	1.69463
2781.25000	2.27248	-0.59732	1.23838	2.87089
2785.15625	8.71123	-4.22369	0.02989	4.75829
2789.06250	15.14996	-4.62667	3.65656	6.99103
2792.96875	16.75355	-3.41787	0.83624	7.13379
2796.87500	12.31327	-1.40324	-3.99867	7.41469
2800.78125	6.66409	-1.00038	-1.17793	7.72410
2804.68750	3.83547	-2.20915	1.23994	3.48220
2808.59375	-0.60486	-3.82094	-2.78907	0.48050
2812.50000	-2.62755	-2.20922	-2.38589	4.33739
2816.40625	-0.62091	1.01416	-0.37096	4.27087
2820.31250	-0.62893	2.62593	-1.98240	2.11225
2824.21875	-3.05453	2.62594	0.03250	3.42200
2828.12500	-5.07713	-1.00046	-0.77308	4.03682
2832.03125	-5.48797	-1.80631	-1.57864	3.14126
2835.93750	-1.46659	0.61129	-1.98129	3.94622
2839.84375	10.21050	3.43177	-0.36927	6.18130
2843.75000	23.49926	3.83470	-3.18944	5.38478
2847.65625	36.78804	1.82003	-6.81544	1.54418
2851.56250	46.45049	0.61123	0.03467	0.32175
2855.46875	47.24842	1.01412	2.45256	1.60399
2859.37500	39.98777	1.82000	4.46749	3.00734
2863.28125	21.44505	-0.59762	5.67654	0.10433
2867.18750	14.58725	-4.22397	2.05038	-2.56357
2871.09375	10.95294	-2.61231	2.85649	-2.10687
2875.00000	8.52734	5.44622	2.85678	-1.14609
2878.90625	10.93692	7.46079	0.03656	-0.56131
2882.81250	6.89959	1.41677	0.03685	-3.95742
2886.71875	4.07096	-0.59795	1.24595	-5.06172
2890.62500	6.48042	4.64009	1.24622	-3.33860
2894.53125	7.27812	7.05762	2.45529	-1.08218
2898.43750	8.07592	5.44579	2.45556	-2.51120
2902.34375	6.85904	4.63988	2.05285	-4.38195
2906.25000	4.43340	2.62518	5.27653	-1.11304
2910.15625	4.02246	2.62514	5.67975	1.05945
2914.06250	4.82041	4.23681	1.65066	3.80915
2917.96875	2.79782	5.04267	2.45686	2.79748
2921.87500	1.58112	6.25135	6.08351	-0.36270
2925.78125	3.58788	8.66891	3.66626	1.62877
2929.68750	-0.85226	9.07182	0.44308	2.22403
2933.59375	-3.27775	8.26588	3.26383	3.85684
2937.50000	-3.28564	9.07176	2.45824	1.66390
2941.40625	-5.71106	9.87758	1.65260	-0.76375
2945.31250	-6.92769	9.07173	0.04116	0.34483
2949.21875	-7.74133	11.08638	-2.37619	-2.26186
2953.12500	-6.94323	13.10105	2.05630	1.47717
2957.03125	-4.53339	11.48930	4.07120	6.17418
2960.93750	-4.94411	10.68343	4.47442	0.86158
2964.84375	-2.53424	12.29519	4.87757	-2.14261
2968.75000	-0.93023	11.08639	2.86315	-2.32356
2972.65625	0.27090	8.26581	2.05753	-4.13664
2976.56250	2.27786	9.07168	-1.16564	-0.99952
2980.46875	2.67312	9.47458	-4.79171	4.11000
2984.37500	3.87417	7.86291	-1.97095	3.43515
2988.28125	9.91047	10.28058	0.44687	7.27807
2992.18750	12.72327	10.28064	-4.38814	11.19060
2996.09375	7.88055	5.44539	-5.99961	7.13749
