 	TP9	AF7	AF8	TP10	
-1000.00000	-3.21829	0.74561	-1.05520	0.37191
-996.09375	-6.85149	-0.86607	-3.06981	-2.04588
-992.18750	-9.67876	-1.26886	-3.47268	-1.24014
-988.28125	-4.44743	-1.26875	-3.47266	-1.64326
-984.37500	-4.45423	-0.86575	-5.08442	-8.49323
-980.46875	-6.47572	0.74607	-4.27860	-6.88172
-976.56250	-6.07953	3.56662	-6.29325	-0.83797
-972.65625	-4.47446	3.16379	-5.89027	-0.03230
-968.75000	-4.48098	-2.07422	-4.68143	-4.06178
-964.84375	-1.66689	-4.49170	-5.08437	-6.07662
-960.93750	1.55021	-2.87992	-3.47261	-2.45041
-957.03125	4.76732	-0.46223	-2.26388	0.36990
-953.12500	11.20790	0.74667	-3.87558	-0.03325
-949.21875	12.41037	-0.46202	-3.87557	-2.04809
-945.31250	2.33070	-0.46189	-2.66678	-4.46583
-941.40625	-6.94306	3.16463	-2.26389	-2.85434
-937.50000	-5.74066	2.76181	-2.26386	-1.24281
-933.59375	-0.91188	-2.07320	-1.45795	-2.85481
-929.68750	6.73733	-2.47603	-1.45795	-2.04920
-925.78125	5.92504	0.74753	-3.47258	-1.64649
-921.87500	-4.55762	1.95645	-3.87553	-4.06435
-917.96875	-13.83146	0.74774	-3.87553	-2.85577
-914.06250	-12.22625	0.34488	-7.90480	-1.24420
-910.15625	-6.18875	-2.07253	-8.30772	-0.84149
-906.25000	-4.58361	-3.68415	-3.06960	-0.84169
-902.34375	-2.97846	-4.08693	-0.65199	-0.43896
-898.43750	0.64126	-0.05754	-0.24907	3.59008
-894.53125	0.23166	3.97184	-1.45778	4.79861
-890.62500	2.64264	4.37486	-3.87534	2.78373
-886.71875	7.87403	5.58383	-5.08409	1.17172
-882.81250	7.86708	6.38978	-2.26353	1.17136
-878.90625	9.47163	4.77816	-3.47223	3.18561
-875.00000	6.64389	0.74898	-7.09861	-0.84410
-871.09375	3.01017	-7.30951	-8.30740	-4.47089
-867.18750	4.21153	-7.71236	-5.88981	-3.26256
-863.28125	5.81578	-1.26534	-5.08396	-1.65132
-859.37500	4.59950	-1.66819	-5.88982	-1.24883
-855.46875	2.98038	-5.29444	-3.87517	0.36242
-851.56250	-1.05628	-6.10024	-3.06934	-0.84682
-847.65625	-5.49583	-6.10013	-1.45762	-4.87655
-843.75000	-1.47376	0.74985	0.95991	-1.65351
-839.84375	4.16020	0.34703	0.15407	0.76377
-835.93750	2.94436	-7.30850	-1.45764	-2.45994
-832.03125	1.32558	-6.50256	-1.05478	-2.86312
-828.12500	-1.90487	-4.08483	-0.65186	-4.47502
-824.21875	-5.53826	-4.48769	0.15396	-4.47518
-820.31250	-4.73948	-0.86128	-1.45771	0.35983
-816.40625	-2.32896	1.15348	-2.66643	2.37433
-812.50000	-6.36530	-0.86104	-4.68099	-2.86392
-808.59375	-9.19286	-0.86092	-7.50148	-5.68457
-804.68750	-3.15590	-1.26369	-7.09850	-2.46126
-800.78125	-0.34241	-2.87532	-5.88969	-2.86436
-796.87500	-0.75234	-3.68101	-5.08384	-4.47622
-792.96875	3.26994	-1.26324	-1.05453	-2.05886
-789.06250	4.47175	-0.05430	-0.65154	-2.05904
-785.15625	2.85313	-2.47176	-3.87496	-4.87972
-781.25000	-0.37717	-3.27748	-3.47199	-3.26815
-777.34375	0.82480	-2.47150	-3.06910	0.76097
-773.43750	7.66774	-2.87429	-3.87494	-0.85096
-769.53125	17.33127	-0.85949	-3.06906	-2.05992
-765.62500	20.14493	-0.05342	-4.27782	-2.46295
-761.71875	18.12343	-0.05326	-5.88947	-0.04553
-757.81250	19.32537	3.97620	0.15451	3.58071
-753.90625	17.70674	6.79684	1.76621	2.37174
-750.00000	18.10281	8.81161	-2.26304	0.75988
-746.09375	22.93109	8.00587	-4.27761	-0.04620
-742.18750	24.93888	8.00597	-3.47163	0.75953
-738.28125	22.51441	8.40897	-0.65109	4.78865
-734.37500	15.25470	6.79736	0.96064	6.80309
-730.46875	16.05361	5.58865	2.16949	8.81753
-726.56250	22.09065	5.58877	3.37833	15.26425
-722.65625	14.83097	10.02114	1.76659	8.81715
-718.75000	10.79475	16.46816	-4.68029	1.96708
-714.84375	12.80259	15.66237	-7.50088	1.16102
-710.93750	10.37824	11.23030	-6.29209	-1.25672
-707.03125	9.96861	10.82748	-7.09794	-0.04819
-703.12500	6.33547	8.81294	-8.30677	-3.27177
-699.21875	0.68774	7.60420	-8.70970	-4.88372
-695.31250	-4.55712	9.21602	-8.30683	-7.30153
-691.40625	-6.57851	4.78386	-8.30685	-8.51050
-687.50000	-7.39114	1.56050	-7.09810	-6.49608
-683.59375	-7.80074	4.38108	-3.87471	-3.27284
-679.68750	-3.77816	4.78411	-3.87475	-3.27304
-675.78125	0.64736	0.35194	-3.06892	-6.09378
-671.87500	1.04348	-0.85678	-2.26312	-5.69099
-667.96875	4.26012	2.36674	-1.86022	-5.28828
-664.06250	1.43277	1.56095	0.55734	-6.90020
-660.15625	-5.82681	-0.45362	-2.66616	-11.73554
-656.25000	-5.02770	0.35234	-1.86033	-12.13868
-652.34375	-2.21393	0.75538	0.15433	-6.09493
-648.43750	2.21157	-0.45336	0.15434	-2.87169
-644.53125	2.20481	-2.87092	-0.24859	-6.09536
-640.62500	0.58647	-6.09431	-3.47195	-10.12487
-636.71875	6.22089	-2.46781	-3.06906	-4.88699
-632.81250	18.30228	0.35282	-0.24857	-0.05206
-628.90625	23.13089	-0.85586	0.55732	-0.05225
-625.00000	17.48327	-0.85573	2.16898	0.75345
-621.09375	17.07381	-2.06437	5.79535	3.17076
-617.18750	16.26129	-4.07893	3.78069	3.97642
-613.28125	16.65761	0.75633	3.78070	1.55858
-609.37500	19.06858	3.17407	7.00413	2.76719
-605.46875	11.80914	0.35362	5.39246	1.55818
-601.56250	13.81702	-0.04917	4.98953	2.36379
-597.65625	18.64533	-2.46666	2.97489	3.57236
-593.75000	12.19162	-2.86950	3.78080	2.36330
-589.84375	8.55855	0.35406	6.60132	4.37772
-585.93750	2.10498	1.16002	6.60139	0.75116
-582.03125	-3.94561	-0.45155	7.40729	-4.08424
-578.12500	-0.32594	-1.25724	4.98970	1.15365
-574.21875	-2.75016	-2.86884	3.37802	3.97400
-570.31250	-7.99495	0.35473	5.79565	1.55619
-566.40625	-8.40458	5.99589	6.19855	-0.86159
-562.50000	-8.00833	2.36963	6.19853	-4.48814
-558.59375	-6.00039	-0.45067	5.79558	-4.89135
-554.68750	4.46913	2.37002	1.76619	-2.07111
-550.78125	10.10345	2.37020	1.36331	-2.47423
-546.87500	9.69392	1.56456	3.37797	-4.89204
-542.96875	4.85210	0.75890	0.96033	-5.29521
-539.06250	-2.00428	1.16196	1.36323	-3.68367
-535.15625	-4.02551	-0.04662	0.96024	-2.87804
-531.25000	-10.07604	-1.25529	-3.47199	-4.08709
-527.34375	-13.30609	1.96826	-4.68085	-2.87853
-523.43750	-12.50685	1.96839	-3.87506	-1.26698
-519.53125	-10.90168	-0.44907	-4.68098	-0.86429
-515.62500	-8.49065	-0.04599	-4.27814	-0.86450
-511.71875	-1.64729	1.56581	1.36284	1.95580
-507.81250	-2.86256	2.37178	2.16865	0.34390
-503.90625	-8.10706	0.35730	-1.05482	-4.08854
-500.00000	-4.89005	1.56627	-0.65186	-1.67115
-496.09375	-4.09068	5.19282	-0.24898	0.34330
-492.18750	-0.87376	3.98419	-1.45775	-1.67158
-488.28125	4.76065	2.37260	0.55688	-2.47767
-484.37500	4.75404	3.58157	2.16857	-4.49254
-480.46875	3.13568	3.17882	2.16854	-7.31333
-476.56250	-5.33255	1.97015	-1.05494	-7.71643
-472.65625	-8.96551	4.38784	-3.87544	-6.10493
-468.75000	-5.74874	4.38797	-1.86077	-2.47874
-464.84375	-4.14363	2.37346	0.95974	1.14737
-460.93750	-0.92680	1.97071	0.15388	1.55007
-457.03125	9.94571	3.98549	-2.66660	9.20548
-453.12500	20.41532	12.04421	-4.68122	15.24927
-449.21875	8.32085	12.44734	-0.24902	3.96699
-445.31250	-5.38537	3.18013	4.58619	-2.88312
-441.40625	-7.40665	-3.66958	4.98908	-2.88338
-437.50000	-8.21914	-7.29580	6.60082	-3.68950
-433.59375	-10.24047	-4.47519	7.80962	-3.28685
-429.68750	-9.44132	-0.84873	6.19784	-2.07843
-425.78125	-7.03039	-2.86326	9.01830	1.14472
-421.87500	-6.63415	-2.86311	9.82421	3.15911
-417.96875	-7.04372	0.76345	4.98903	1.95005
-414.06250	-4.22994	1.56949	2.16857	1.54692
-410.15625	-0.61033	2.77847	4.58619	6.78476
-406.25000	-0.21409	2.37567	5.39206	7.99330
-402.34375	2.59975	-0.04174	3.78040	6.38132
-398.43750	5.41367	-0.44455	1.36281	9.20158
-394.53125	-0.23404	1.16726	-1.05478	7.99256
-390.62500	-4.67293	-1.25017	-2.26356	5.97764
-386.71875	-3.87364	-1.65299	-3.06940	8.79786
-382.81250	3.77533	1.97352	2.57164	10.81217
-378.90625	13.03607	5.19706	8.21262	9.20008
-375.00000	14.64109	3.58540	2.97452	4.36462
-371.09375	16.24598	-2.05548	-3.06944	3.55847
-367.18750	15.83626	-4.87591	-1.05479	2.34938
-363.28125	21.06764	-4.47282	4.18335	2.75206
-359.37500	23.88153	-3.26386	4.98924	3.15469
-355.46875	21.86022	-3.26372	3.78053	0.73687
-351.56250	23.86821	0.36274	3.37760	-0.87515
-347.65625	26.27911	1.57168	4.18350	-1.27825
-343.75000	26.27257	-0.03987	5.39233	0.33326
-339.84375	21.43092	0.76611	3.78067	-1.68158
-335.93750	17.39504	-0.84552	0.96014	-2.08479
-332.03125	18.19429	-3.66584	2.57194	0.33257
-328.12500	16.97890	-2.85977	6.19838	-2.08527
-324.21875	17.37511	-0.84494	6.60138	-4.10026
-320.31250	15.35362	-1.24766	0.96031	-6.92124
-316.40625	12.52621	-3.66511	0.15447	-5.71304
-312.50000	15.74268	-3.26195	1.76624	-0.47554
-308.59375	17.34741	-2.05286	3.37805	1.53844
-304.68750	12.90791	-4.47017	5.39276	1.94044
-300.78125	11.28876	-5.27571	4.98988	2.74525
-296.87500	14.90742	-6.08130	5.79588	4.75863
-292.96875	14.89959	-5.27509	4.58721	5.96603
-289.06250	12.87695	-0.03673	4.18437	7.97915
-285.15625	12.06292	1.57519	3.37861	6.36569
-281.25000	13.26353	1.97841	0.96109	2.73756
-277.34375	15.27005	-1.24476	4.99046	1.52697
-273.43750	15.66481	-4.06499	5.39349	1.92807
-269.53125	16.86551	-0.43841	4.18473	3.13510
-265.62500	20.88671	1.97939	7.40819	3.13331
-261.71875	21.68455	-1.64681	7.40824	2.72869
-257.81250	19.25895	-2.45248	5.39365	1.92117
-253.90625	17.23641	-0.03473	4.99076	1.11377
-250.00000	16.01984	-0.84052	5.79673	2.72411
-246.09375	13.59456	0.36841	6.60267	3.52868
-242.18750	12.37823	1.98026	4.18518	4.33337
-238.28125	16.40012	3.59199	3.37943	1.51187
-234.37500	19.21340	3.99499	7.40882	2.31688
-230.46875	19.60929	2.78624	4.58839	4.73376
-226.56250	16.37894	1.57749	2.97667	2.31556
-222.65625	13.95459	3.99515	5.39427	3.52388
-218.75000	15.96261	6.41275	6.20009	6.34399
-214.84375	10.71794	2.78648	7.40884	5.13489
-210.93750	9.50263	3.59240	9.42345	4.73175
-207.03125	8.28737	4.39831	8.61754	0.70229
-203.12500	5.86342	4.39835	5.39398	1.50806
-199.21875	6.25998	7.62178	5.79677	5.13437
-195.31250	9.88015	9.63642	4.58778	7.95495
-191.40625	9.06817	10.84525	1.76706	4.73159
-187.50000	2.61519	9.63650	2.16988	-0.50637
-183.59375	6.23554	7.62190	2.16973	5.53778
-179.68750	9.05016	6.01023	2.57251	7.95562
-175.78125	10.65590	8.42780	4.98987	8.35875
-171.87500	12.66458	10.44252	7.40734	8.76197
-167.96875	12.65861	6.81611	5.79554	5.53878
-164.06250	9.42915	4.39852	3.37784	3.52438
-160.15625	5.39380	1.17510	4.58655	1.51003
-156.25000	10.62585	2.78688	6.60113	0.70445
-152.34375	16.26085	5.20449	4.18348	3.12225
-148.43750	14.64306	3.59274	1.36292	2.71960
-144.53125	12.21952	4.80157	2.97456	1.10805
-140.62500	10.19888	5.60747	4.58624	-0.10057
-136.71875	7.37225	3.99582	6.60081	-0.50331
-132.81250	10.18663	0.36946	7.80958	4.33196
-128.90625	11.79214	1.17537	4.98898	5.13793
-125.00000	14.20350	6.41353	4.98892	2.31755
-121.09375	13.39134	7.62237	7.80944	2.72060
-117.18750	2.50606	5.60778	5.79472	2.31775
-113.28125	-1.93235	1.57854	2.16824	0.30318
-109.37500	-0.72972	-1.24188	3.77995	0.30324
-105.46875	-0.33303	1.98169	4.98868	2.72088
-101.56250	2.07814	3.19061	3.37696	3.52674
-97.65625	4.08645	0.37011	3.37692	0.70623
-93.75000	2.06553	-1.24152	5.79449	-0.50259
-89.84375	3.26806	3.99669	5.39153	3.52670
-85.93750	8.49987	7.22025	4.18273	5.13834
-82.03125	4.06132	3.19104	2.97391	2.72074
-78.12500	2.04043	1.17638	1.76511	2.31774
-74.21875	8.07807	3.19113	2.57102	4.33232
-70.31250	7.66877	6.01167	4.98860	3.92933
-66.40625	-2.00802	6.81759	4.58575	-0.50304
-62.50000	-8.86425	4.40006	-0.24944	-0.50316
-58.59375	-8.87066	3.59429	0.55646	-0.90625
-54.68750	-8.87704	5.60903	3.77988	-0.50345
-50.78125	-12.10686	3.99742	1.76517	-0.10072
-46.87500	-10.50153	1.57992	-0.24948	-2.11554
-42.96875	-4.46389	0.77420	0.55648	-0.50396
-39.06250	-1.64981	-0.83743	1.36239	-0.50417
-35.15625	-0.85029	-2.04605	-0.65224	-2.11605
-31.25000	-2.06533	-3.65769	-0.65222	-1.71308
-27.34375	-0.86278	1.58052	-0.24930	0.70458
-23.43750	0.33983	5.60995	-1.86099	2.71930
-19.53125	-0.06921	1.58079	-1.86100	0.30181
-15.62500	3.55114	-0.83667	-4.27859	-0.10102
-11.71875	2.73928	0.37229	-2.66683	-0.50377
-7.81250	1.12155	2.38711	2.57127	-2.11538
-3.90625	1.51854	4.40194	3.78010	-0.90643
0.00000	0.30378	1.98459	3.37719	-5.74143
3.90625	1.90955	-2.04453	5.39192	-8.15887
7.81250	1.90366	-2.85029	7.00370	-2.51765
11.71875	-1.32581	-2.85013	4.58627	-2.51753
15.62500	-4.95831	-2.84995	2.57169	-7.35269
19.53125	-7.38211	-1.23797	1.36293	-6.54677
23.43750	-10.20882	-2.84951	-0.24876	-6.54679
27.34375	-11.82684	-4.05804	2.57185	-7.75566
31.25000	-15.45969	-2.84915	3.37771	-8.56160
35.15625	-15.46613	-1.64022	2.57191	-11.38225
39.06250	-13.86082	-4.46058	3.37783	-10.17352
42.96875	-16.68770	-5.66924	2.97495	-6.14431
46.87500	-19.51449	-5.26613	1.76621	-5.74148
50.78125	-20.72956	-6.47475	0.15457	-10.17386
54.68750	-23.15345	-5.26576	0.96046	-12.18863
58.59375	-22.75680	-4.45974	4.58688	-8.56237
62.50000	-21.55438	-4.05663	4.58691	-9.36845
66.40625	-20.35196	-3.25066	2.97518	-7.75688
70.31250	-17.53779	1.18165	3.78109	-1.31015
74.21875	-17.94702	2.39056	2.97521	-4.93671
78.12500	-19.96795	-2.44447	2.57236	-7.35447
82.03125	-23.19767	-4.45900	4.58703	-8.56336
85.93750	-21.99514	-4.45888	2.97528	-12.18994
89.84375	-17.56923	-4.45877	-0.24819	-11.78718
93.75000	-17.97858	-3.65285	0.55768	-14.60793
97.65625	-13.95569	-4.45864	0.96052	-13.80224
101.56250	-10.33565	-4.05558	1.76633	-11.38492
105.46875	-5.50684	-4.05545	2.16928	-10.98217
109.37500	1.33664	-4.86124	3.78106	-10.17656
113.28125	2.13612	-4.86115	4.18398	-13.40023
117.18750	4.95031	-4.45808	4.18401	-10.57993
121.09375	6.95871	-2.04035	5.39281	-6.14787
125.00000	3.72899	-0.02557	2.97521	-6.55096
128.90625	2.91684	0.78042	1.36352	-8.16294
132.81250	6.13393	-1.23408	1.76642	-10.58079
136.71875	6.93338	-2.44275	1.36358	-9.37219
140.62500	7.32997	-2.03966	0.96071	-6.95477
144.53125	2.48846	-4.86005	-1.05391	-8.96964
148.43750	-3.96480	-3.24811	1.76659	-8.96982
152.34375	-6.79170	-2.44212	1.36371	-8.16414
156.25000	-7.20093	-3.65079	0.15494	-6.14966
160.15625	-3.58087	1.99043	2.97548	-1.31463
164.06250	-3.18419	2.79641	2.97555	-0.91190
167.96875	-3.19055	-2.84452	0.96097	-5.34433
171.87500	-4.00274	-2.44141	2.57280	-5.74739
175.78125	-0.38267	-0.02365	2.57287	-1.31533
179.68750	0.81987	-2.03816	-1.85932	-0.10680
183.59375	2.82827	-1.63515	2.57297	0.69888
187.50000	10.07479	1.18544	5.79647	1.50449
191.40625	10.87436	2.39434	2.97597	1.50424
195.31250	6.03292	-0.02310	-1.85911	0.69815
199.21875	0.78857	-5.26110	-2.66492	-1.31675
203.12500	0.78230	-3.64931	-1.45609	-2.52582
207.03125	2.38779	0.78303	-1.45607	3.92081
210.93750	-4.87116	-0.82864	2.17028	5.93521
214.84375	-17.77116	1.58906	4.18496	-2.92949
218.75000	-10.12164	6.02140	1.76741	-2.12385
222.65625	3.57173	6.82732	-1.85889	6.33748
226.56250	3.96831	2.39516	-3.87350	1.90501
230.46875	7.99108	1.58941	-4.67931	-0.51278
234.37500	13.22261	4.41002	-3.87343	3.11329
238.28125	12.81313	4.00726	-2.66460	5.53064
242.18750	16.43303	2.79856	0.15593	6.73921
246.09375	19.24701	2.79863	-0.24699	6.33605
250.00000	15.61408	1.18695	-5.88794	5.93293
253.90625	10.77230	1.99295	-9.11134	5.93273
257.81250	9.15414	6.42524	-9.11128	5.12669
261.71875	6.73011	2.79902	-7.09656	2.30606
265.62500	-2.94661	-0.42431	-5.48482	-1.72340
269.53125	-7.78826	3.20219	-4.67888	-1.72357
273.43750	-4.16827	3.20229	-3.47003	-1.72379
277.34375	-0.95121	2.39648	-0.24663	-3.73866
281.25000	2.66873	3.20250	1.36511	-1.32127
285.15625	5.48278	3.20259	2.17097	1.49901
289.06250	2.65575	4.41140	2.57394	3.11050
292.96875	-3.79771	4.00860	1.76804	1.09564
296.87500	-8.63937	1.59110	2.17099	-2.53091
300.78125	-10.66045	-0.42346	0.55929	-6.15750
304.68750	-11.47268	-2.84099	1.76803	-4.94891
308.59375	-16.71711	-7.27310	2.17097	-5.35209
312.50000	-18.33519	-4.04958	-1.05252	-7.76988
316.40625	-13.50623	1.99442	0.15625	-3.74081
320.31250	-12.70641	0.78570	2.97677	-1.32338
324.21875	-17.14455	-1.22885	1.36513	-4.14401
328.12500	-13.12107	1.99469	-0.24656	-2.12937
332.03125	-6.67992	-0.82576	-2.26110	-2.93520
335.93750	-9.10321	-7.27253	-3.46971	-4.94981
339.84375	-10.72060	-7.67541	-2.26080	-2.53213
343.75000	-8.30872	-5.25771	-0.64887	-0.51738
347.65625	-2.27051	-3.24298	2.97764	1.49738
351.56250	-2.67923	-2.43705	4.58958	2.30329
355.46875	-8.72899	-1.63107	1.36628	-2.53183
359.37500	-8.73498	-0.82513	0.15761	-3.74067
363.28125	-5.51761	-0.42210	1.76943	0.69150
367.18750	-8.34415	-0.82496	1.36668	-1.32322
371.09375	-7.14144	-0.82484	1.76971	-5.75560
375.00000	-3.52110	-0.01880	3.78455	-6.56163
378.90625	-7.95944	1.59301	2.97875	-4.54721
382.81250	-11.18902	1.59311	-2.25927	-4.14457
386.71875	-7.97181	3.60785	-1.45330	-1.72722
390.62500	-8.78395	7.23435	0.15846	-3.74215
394.53125	-10.40196	6.83149	-1.85614	-6.16004
398.43750	-7.99074	-0.42118	-1.45317	-5.35447
402.34375	-7.59407	1.19058	1.36736	-4.54884
406.25000	-7.60035	6.42875	2.97912	-3.34031
410.15625	-8.81544	1.99663	2.57627	-10.19046
414.06250	-12.44803	0.78790	2.17337	-13.01127
417.96875	-14.06601	5.22022	0.56173	-8.57933
421.87500	-16.48986	10.86126	-4.27340	-8.57963
425.78125	-17.30201	9.65252	-1.85574	-10.59465
429.68750	-19.32300	1.99694	3.78535	-9.78909
433.59375	-19.73228	2.80283	3.78538	-5.76013
437.50000	-12.08293	7.23516	4.59126	-1.32819
441.40625	-8.86587	5.22060	6.20299	0.68613
445.31250	-11.28981	7.23532	5.80012	1.08869
449.21875	-9.28141	9.65296	8.21771	1.89421
453.12500	-8.48172	8.04141	11.03833	4.31150
457.03125	-9.29388	6.83275	8.62078	3.10241
460.93750	-10.10603	2.80359	4.99441	-0.52421
464.84375	-9.30657	3.20668	1.77098	-0.92746
468.75000	-13.34227	5.62433	-2.25826	-3.34530
472.65625	-17.78083	5.22155	-2.66108	-6.16616
476.56250	-11.34037	5.62454	1.36828	-1.73424
480.46875	-4.89982	6.83346	3.38298	-0.52578
484.37500	-0.87686	6.02776	4.59183	1.08557
488.28125	0.32558	4.01326	4.59188	5.11451
492.18750	-4.91884	2.80457	2.98019	3.90543
496.09375	-5.73092	3.20766	5.39786	2.69629
500.00000	-2.51366	1.19311	7.81554	4.30764
503.90625	-5.34034	0.38742	6.60679	0.68098
507.81250	-5.74952	1.99933	4.59218	-1.33396
511.71875	-3.33819	-0.01517	4.99510	0.27747
515.62500	-5.35908	-0.82095	4.59223	-0.93160
519.53125	-9.39468	0.79094	4.99514	0.67990
523.43750	-5.37160	1.59691	6.20397	1.48549
527.34375	-0.13988	0.38823	2.57766	-4.96167
531.25000	-1.75792	-1.22332	1.36889	-9.79708
535.15625	1.45914	-0.41735	6.60705	-7.78272
539.06250	3.06438	-3.23772	7.81590	-7.78300
542.96875	-2.58311	-4.84935	2.57783	-6.57446
546.87500	-12.26001	-5.25213	-1.04854	-6.17184
550.78125	-19.11634	-6.46081	0.56326	-8.18675
554.68750	-20.73465	-5.25186	2.57795	-5.36655
558.59375	-20.33833	-5.25173	2.57798	-2.14343
562.50000	-17.52445	-2.43114	5.80145	1.88552
566.40625	-19.54570	1.19532	9.02483	1.88516
570.31250	-19.55227	-1.62504	8.21900	3.09367
574.21875	-16.73824	-5.25128	6.60736	7.12270
578.12500	-7.47727	-3.63950	2.57813	12.76348
582.03125	1.38079	1.19573	-0.64528	15.58371
585.93750	1.37443	4.41928	-2.65988	20.41868
589.84375	4.99451	2.80770	-3.46567	28.87993
593.75000	15.06155	2.80780	2.17537	31.29730
597.65625	18.27871	2.80790	7.01052	37.74392
601.56250	10.21373	-0.41545	4.19001	42.17587
605.46875	14.63968	-4.44463	1.36951	45.80190
609.37500	17.85685	-6.45919	1.36952	45.39870
613.28125	20.26816	-6.45910	2.98124	47.41304
617.18750	22.67939	-0.81804	4.19010	51.03907
621.09375	28.31408	1.59964	6.20477	54.26222
625.00000	28.30771	-0.41491	2.98132	56.27659
628.90625	23.06326	-0.81777	3.38428	53.05288
632.81250	24.66861	2.40577	7.01061	52.64973
636.71875	24.25944	6.83813	5.39891	44.18793
640.62500	21.43266	3.21193	3.78720	39.75540
644.53125	15.78536	2.80912	1.77246	36.53167
648.43750	13.36136	5.22683	2.57835	33.71090
652.34375	14.56366	4.01814	5.39886	35.32229
656.25000	17.78057	2.80945	6.60765	35.32197
660.15625	19.38574	6.03303	7.41351	35.72464
664.06250	23.40861	7.24197	5.80184	36.12729
667.96875	27.43144	5.22745	3.78719	37.33584
671.87500	27.02198	5.22756	6.20473	36.93267
675.78125	20.97147	6.83938	6.60767	34.51478
679.68750	18.95028	7.24245	5.80183	35.72330
683.59375	23.37607	6.83962	5.80184	38.54353
687.50000	24.57834	3.21341	4.99594	35.72279
691.40625	27.39247	6.03405	5.80184	31.69325
695.31250	26.58018	10.86932	5.39886	29.67834
699.21875	17.30641	5.63133	3.38421	25.64876
703.12500	16.49421	0.79627	3.38424	22.82793
707.03125	20.51715	-0.41242	3.78722	24.03643
710.93750	19.70492	-0.41233	2.98132	21.21562
714.84375	19.69851	1.60241	2.17550	19.20063
718.75000	19.28907	2.81132	2.17555	19.20024
722.65625	17.67088	5.22901	0.96677	17.58813
726.56250	12.82935	6.03497	0.56388	14.76731
730.46875	11.21123	4.02049	1.36971	14.76695
734.37500	7.57857	3.61771	2.57850	14.36363
738.28125	1.93119	3.21500	5.39899	14.76626
742.18750	1.92488	2.40928	2.98136	14.36301
746.09375	2.32157	2.40947	3.38428	13.55687
750.00000	5.94162	3.21555	4.59308	13.55659
753.90625	3.51782	2.81279	2.17548	10.73580
757.81250	-5.35291	5.23058	1.77251	9.92965
761.71875	-3.34451	6.84244	4.59309	14.36154
765.62500	-4.96244	3.61916	2.17553	10.33193
769.53125	-5.37165	-2.42462	0.96675	9.92870
773.43750	-7.79553	-0.81279	0.16095	11.54007
777.34375	-11.83108	4.42545	-1.45065	10.33097
781.25000	-11.83730	4.42559	4.59338	13.55412
785.15625	-15.06703	4.42569	4.59340	11.53914
789.06250	-11.04403	4.02290	-0.64470	12.34466
792.96875	-10.64749	2.41124	0.56410	11.94146
796.87500	-15.08612	1.20255	1.36998	8.71769
800.78125	-16.70422	2.00857	2.17587	8.71737
804.68750	-18.72530	4.42622	0.96709	7.91121
808.59375	-19.53755	4.42633	-0.64457	1.86689
812.50000	-20.34978	2.41178	-0.64452	-0.14804
816.40625	-20.35605	1.20310	-1.04744	1.46342
820.31250	-21.57096	2.41203	1.77307	0.25430
824.21875	-23.99466	5.23270	1.77307	-1.35772
828.12500	-20.37438	6.44154	0.56432	-0.14928
832.03125	-14.73938	4.82996	1.37018	1.05922
835.93750	-4.26921	10.06818	14.66690	8.31168
839.84375	-9.11040	10.87414	13.45813	-3.37354
843.75000	-18.78683	6.84494	-3.46490	-17.47646
847.65625	-20.40462	10.06847	-0.24154	-12.64163
851.56250	-43.37756	9.66562	8.62297	-27.95324
855.46875	-60.70956	11.68036	16.68160	-42.86179
859.37500	-77.23573	19.33610	16.27869	-59.38210
863.28125	-111.89372	21.35077	10.63774	-92.82530
867.18750	-142.11946	16.91851	16.27872	-120.62746
871.09375	-154.21329	22.55949	23.12852	-133.11810
875.00000	-170.33621	25.78282	22.32262	-152.45854
878.90625	-192.10010	24.57389	20.30797	-180.66327
882.81250	-202.17883	21.35029	13.45809	-200.40631
886.71875	-215.88376	20.54429	2.17601	-219.34329
890.62500	-229.18565	25.78222	2.17597	-234.25096
894.53125	-238.45819	24.57327	2.98178	-249.15858
898.43750	-250.55124	20.54386	5.80232	-261.24557
902.34375	-255.39148	16.11153	3.38472	-264.46811
906.25000	-253.78493	18.52907	-1.45043	-270.10818
910.15625	-251.77541	23.36414	-4.67386	-276.55420
914.06250	-247.34839	18.93183	-5.07677	-272.52405
917.96875	-241.30975	16.11128	-0.24161	-262.85291
921.87500	-236.47989	18.12591	-0.64452	-252.77895
925.78125	-226.81506	12.88783	-1.85333	-241.49631
929.68750	-211.50928	10.06737	0.56425	-226.18451
933.59375	-197.41240	14.09674	1.77294	-207.24641
937.50000	-180.89801	10.06757	2.17583	-190.32303
941.40625	-166.80132	2.41196	2.98165	-175.41441
945.31250	-159.15149	-2.02013	3.38457	-160.50581
949.21875	-137.80226	-8.06398	3.38452	-138.34459
953.12500	-112.42386	-10.88434	6.60793	-114.57182
957.03125	-94.29827	-10.48125	8.21960	-99.26064
960.93750	-72.14349	-12.89871	5.39911	-83.54660
964.84375	-49.18291	-15.71911	4.99615	-62.19167
968.75000	-31.86344	-15.31611	0.56393	-40.83677
972.65625	-16.15567	-14.10718	-7.49473	-29.15233
976.56250	-2.86552	-16.52457	-9.10642	-17.87084
980.46875	8.00708	-18.94201	-10.31522	-1.35127
984.37500	21.70016	-16.12137	-15.95621	10.33297
988.28125	35.39325	-14.50945	-14.74746	21.21141
992.18750	45.05700	-18.53865	-8.70342	32.08978
996.09375	50.69143	-19.74726	-14.74739	39.34177
1000.00000	57.53454	-17.73248	-18.37371	47.80251
1003.90625	59.94542	-17.73233	-11.52389	54.24857
1007.81250	62.75908	-20.14980	-11.52383	64.32098
1011.71875	69.60208	-22.97013	-11.12081	73.18465
1015.62500	75.63925	-25.38756	-9.91194	76.40726
1019.53125	84.09405	-25.38740	-11.92654	84.06205
1023.43750	92.54877	-22.96961	-9.50897	91.71693
1027.34375	94.55668	-21.76061	-7.09135	91.71610
1031.25000	97.37048	-20.55167	-8.70302	91.71527
1035.15625	100.58720	-18.13389	-5.88249	94.93788
1039.06250	98.56582	-15.71609	-5.47953	96.95166
1042.96875	100.57374	-16.11886	-5.47947	97.75665
1046.87500	102.98457	-16.52159	-5.47942	95.33820
1050.78125	99.35155	-17.73025	-6.68812	92.51688
1054.68750	96.12148	-18.13307	-4.67345	91.30727
1058.59375	94.50315	-15.71531	-4.27054	90.09765
1062.50000	95.30250	-16.52100	-5.07636	93.72326
1066.40625	99.72811	-16.11794	-5.47928	92.91666
1070.31250	99.31863	-12.89433	-5.47927	88.08072
1074.21875	97.29739	-8.86491	-5.07629	86.87128
1078.12500	97.69375	-8.05890	-8.29970	83.64719
1082.03125	92.44912	-11.68508	-12.73192	78.40843
1085.93750	88.41330	-10.87910	-13.13479	78.40782
1089.84375	86.39221	-8.05848	-9.91130	77.60139
1093.75000	77.92422	-8.05835	-13.13470	73.97453
1097.65625	71.06797	-6.84943	-19.58153	69.94476
1101.56250	73.47918	-5.23758	-18.37265	71.95898
1105.46875	73.06989	-4.83457	-14.74624	74.37619
1109.37500	68.63134	-4.83443	-10.31394	69.94353
1113.28125	71.44557	-4.83430	-7.49342	66.31670
1117.18750	74.66261	-6.04300	-9.91095	61.07819
1121.09375	72.64158	-8.46042	-11.52266	54.22803
1125.00000	70.62061	-8.05736	-8.70208	51.40719
1128.90625	73.03200	-3.62494	-12.32846	52.21273
1132.81250	74.63756	-3.22181	-14.74604	55.83878
1136.71875	72.21391	-2.01283	-5.07568	55.03266
1140.62500	72.20786	-1.20684	-0.24054	48.58548
1144.53125	69.78418	-3.62431	-2.25517	43.75003
1148.43750	66.95752	-2.41537	-1.04634	44.95855
1152.34375	64.53374	1.21113	-3.46383	42.13779
1156.25000	58.88663	-1.60922	-6.68723	39.31696
1160.15625	56.06001	-4.02662	-4.26964	40.12261
1164.06250	56.85984	-2.41480	-4.67247	40.12238
1167.96875	55.24195	0.40579	-4.67238	41.73384
1171.87500	53.62412	3.22644	-4.26941	40.52481
1175.78125	54.02097	2.82359	-3.86639	38.50995
1179.68750	49.17984	-0.39973	0.16299	37.30095
1183.59375	45.14453	-2.01130	-1.85158	35.28609
1187.50000	43.52678	1.61519	-4.67201	38.50931
1191.40625	40.29733	3.62997	-3.06025	40.12082
1195.31250	39.48544	0.80955	-3.06021	35.68828
1199.21875	41.09124	-2.41385	-2.25434	32.46457
1203.12500	41.89117	-4.42845	-1.44838	31.25552
1207.03125	41.48230	-2.01080	-3.06007	30.04649
1210.93750	46.71447	-0.80200	0.96930	29.64339
1214.84375	46.70857	-4.02533	2.17818	26.82262
1218.75000	37.03234	-6.84582	-2.65688	20.37556
1222.65625	32.19115	-8.05456	-5.88027	16.74892
1226.56250	26.54420	-7.65152	-6.28319	16.34574
1230.46875	22.50893	-2.01035	-4.26848	17.15144
1234.37500	24.92044	-0.39857	-2.25376	18.36003
1238.28125	23.30263	-2.01019	-3.46244	13.52459
1242.18750	22.08764	-1.20426	-6.28293	13.12147
1246.09375	30.14008	-0.39833	-5.07408	18.76221
1250.00000	33.76037	-4.42753	-2.65644	15.94145
1253.90625	28.51610	-5.23328	1.77579	9.89727
1257.81250	21.66001	-2.81565	0.96998	4.25597
1261.71875	12.78929	-2.00965	-5.07393	-1.78823
1265.62500	8.75369	-0.80081	-7.49150	-4.60902
1269.53125	6.73271	0.40811	-9.90899	-6.62396
1273.43750	0.68245	-2.00931	-11.92363	-8.63889
1277.34375	-4.56196	-1.20337	-15.14709	-9.84801
1281.25000	-4.56831	-1.60626	-13.93829	-10.65425
1285.15625	3.48396	-3.21791	-7.89436	-3.80474
1289.06250	7.90991	-1.60614	-4.26801	4.25350
1292.96875	0.65086	-4.42655	-4.67093	3.44731
1296.87500	-2.98179	-6.84408	-7.49154	2.64116
1300.78125	1.44433	-4.82938	-9.10324	5.05846
1304.68750	10.30274	-2.41173	-6.28270	9.49048
1308.59375	15.93777	-2.00873	-3.86503	9.49027
1312.50000	14.72288	-4.82923	-9.50601	5.46075
1316.40625	13.91092	-7.24671	-12.32641	7.07224
1320.31250	13.50188	-6.03788	-8.29702	6.66912
1324.21875	15.91341	-4.82897	-8.69984	5.46007
1328.12500	18.32489	-4.82887	-7.49102	5.45984
1332.03125	19.52765	-5.23164	-4.26749	7.07131
1335.93750	20.73041	-4.02273	-5.47624	5.45937
1339.84375	22.73890	-4.82854	-6.68491	1.42979
1343.75000	24.74734	-7.24599	-5.47609	0.62362
1347.65625	24.33826	-7.24590	-3.86426	-0.18266
1351.56250	22.31739	-6.84295	-3.46123	0.21993
1355.46875	23.11707	-6.03702	-2.65531	1.42840
1359.37500	28.75195	-5.23101	-5.87871	3.84571
1363.28125	31.56633	-2.00749	-7.08746	8.27761
1367.18750	30.75421	0.41010	-0.23761	6.26268
1371.09375	29.94221	0.00724	2.18008	5.45657
1375.00000	23.48918	0.81313	0.56850	6.66510
1378.90625	17.84208	-1.20149	-1.44605	3.84431
1382.81250	17.03020	-1.20148	-3.46064	2.63520
1386.71875	18.23293	1.21609	-2.65475	1.42610
1390.62500	21.04749	2.42496	-0.23714	1.02287
1394.53125	21.44441	4.43968	3.38936	3.44022
1398.43750	23.05017	4.03686	1.37484	2.63410
1402.34375	20.22361	0.81346	-2.65433	1.82789
1406.25000	15.38245	0.41051	-0.63955	3.43931
1410.15625	17.79398	1.21639	0.16640	7.87121
1414.06250	19.39955	-0.79822	-0.63938	10.69137
1417.96875	23.01982	0.00772	-1.44517	11.89987
1421.87500	23.41654	1.61944	-4.26564	11.49663
1425.78125	23.00748	4.03711	-3.86258	9.88466
1429.68750	22.19552	2.42543	-1.84784	10.69024
1433.59375	18.56301	-1.60381	-1.84776	8.67531
1437.50000	22.18335	-2.81259	-1.44476	11.49550
1441.40625	19.75972	-3.21546	-1.04181	10.28640
1445.31250	18.54495	-2.40957	-4.26516	6.65978
1449.21875	20.55373	-1.20072	-5.07093	9.07702
1453.12500	15.71278	-1.60363	-3.05621	9.07675
1457.03125	13.28938	-0.79773	0.16732	9.47944
1460.93750	11.26886	-1.20056	5.40549	6.25569
1464.84375	5.21899	-4.02097	7.01723	3.83783
1468.75000	3.60140	-6.03559	1.77915	3.03163
1472.65625	3.99853	-6.03552	-0.63833	-1.40091
1476.56250	-0.03672	-5.22955	0.57055	-5.83363
1480.46875	-4.07197	-4.42367	-1.04116	-7.84877
1484.37500	-7.30141	-3.61780	-1.04114	-7.44639
1488.28125	-6.09869	-0.79730	-0.63815	-4.22351
1492.18750	-3.28425	1.21731	0.97360	-3.82114
1496.09375	1.94777	2.02318	-1.04097	-0.59831
1500.00000	9.59738	5.24662	-3.05557	6.25087
1503.90625	-3.30251	2.82902	0.16793	-1.00248
1507.81250	-12.97900	-6.84137	0.97387	-11.47927
1511.71875	-12.17919	-8.45309	3.79450	-12.68867
1515.62500	-19.43804	-8.85606	6.61502	-19.53912
1519.53125	-21.45891	-9.66195	8.22674	-22.36028
1523.43750	-18.64455	-8.85620	9.03255	-15.10819
1527.34375	-13.00968	-11.27389	9.03252	-10.67657
1531.25000	-11.80694	-11.67680	9.03250	-13.49762
1535.15625	-9.79835	-15.30321	10.24127	-11.08062
1539.06250	-6.58090	-19.33254	7.42076	-7.85772
1542.96875	-6.98971	-17.31790	3.79440	-9.06698
1546.87500	-9.01024	-12.88565	2.58561	-11.08202
1550.78125	-8.21009	-9.25923	0.97386	-11.08240
1554.68750	0.24569	-9.25924	2.98852	-4.23295
1558.59375	10.71600	-8.45342	3.79446	1.40776
1562.50000	14.33656	-8.85635	4.60033	2.21324
1566.40625	11.10729	-10.87095	6.21200	4.63046
1570.31250	6.66922	-7.64747	6.61493	6.24175
1574.21875	5.45456	-6.43865	6.21199	1.80909
1578.12500	6.25453	-5.63278	5.40618	0.19700
1582.03125	8.66607	-4.02099	7.82378	1.80828
1585.93750	11.07764	-5.22976	9.03253	1.80786
1589.84375	9.86279	-2.81222	7.42085	3.01627
1593.75000	5.42445	1.21709	8.22670	0.59836
1597.65625	3.00082	1.21714	8.22672	-1.81959
1601.56250	-1.84045	-2.00623	6.21211	-1.01408
1605.46875	-6.27871	-4.02087	7.01799	-2.62611
1609.37500	-2.25545	-6.43844	7.42098	-3.02941
1613.28125	0.15614	-6.84133	6.21223	-3.43263
1617.18750	-3.87924	-3.61784	4.60057	-3.83593
1621.09375	-3.07932	-4.82662	3.79476	-4.23922
1625.00000	-0.66773	-2.40898	4.60064	-7.46296
1628.90625	-3.09126	2.82914	3.79481	-9.47790
1632.81250	-3.09724	2.82919	0.57137	-3.83717
1636.71875	1.73196	3.63510	-2.24918	3.01230
1640.62500	-0.69158	2.82930	-3.05499	3.01200
1644.53125	-3.92096	0.00886	-1.04031	3.81761
1648.43750	-2.71812	0.41180	1.78021	3.81732
1652.34375	-4.73876	1.62063	1.78023	-1.01818
1656.25000	-5.55066	1.21769	1.37734	-2.22729
1660.15625	-5.15377	3.63530	-1.44316	0.18999
1664.06250	-7.57741	2.02362	-4.66660	0.18969
1667.96875	-6.77761	-3.21448	-2.65194	-0.61650
1671.87500	1.67794	-2.00568	-0.63727	3.41244
1675.78125	7.71595	1.62067	0.16860	7.03845
1679.68750	10.53055	4.03829	-0.63722	4.62059
1683.59375	14.95694	3.63535	1.37746	3.00851
1687.50000	17.36873	2.42658	-0.23429	3.00819
1691.40625	9.30434	1.21782	-4.26358	-0.21560
1695.31250	0.43402	1.21788	-3.45768	-2.63349
1699.21875	0.42813	2.42671	-1.84600	-3.84269
1703.12500	-3.60713	-0.79673	-3.45767	-8.27537
1707.03125	-2.80727	-0.79672	-3.86058	-6.66404
1710.93750	9.27468	2.02387	-3.05471	-1.02349
1714.84375	14.50677	2.42680	-1.44295	-3.03861
1718.75000	12.48610	1.21803	0.57169	-6.26253
1722.65625	16.50956	1.21804	-3.05471	-1.42777
1726.56250	16.10074	3.23274	-2.65176	0.98931
1730.46875	3.60408	0.41218	2.18337	-10.69613
1734.37500	4.40415	-2.81127	5.00385	-11.09944
1738.28125	12.45700	-4.01998	6.61562	-5.86173
1742.18750	15.27186	-4.82588	6.61563	-1.42980
1746.09375	13.25153	-6.84056	6.21268	-1.83301
1750.00000	12.84290	-13.69037	7.42147	-1.43029
1753.90625	8.80796	-12.88452	12.65956	3.00166
1757.81250	5.57887	-11.67571	13.46542	1.79265
1761.71875	14.43767	-13.69034	12.65960	4.21004
1765.62500	17.25240	-12.88446	13.06262	9.04498
1769.53125	21.27586	-10.46681	16.28606	15.49170
1773.43750	23.68762	-7.24333	17.89788	15.89447
1777.34375	19.24955	-6.43742	13.46569	11.46201
1781.25000	15.21443	-7.64617	7.82471	8.64131
1785.15625	18.83493	-7.64613	7.01880	11.46157
1789.06250	22.85836	-6.43726	9.83936	13.87892
1792.96875	19.22618	-7.64599	11.04817	11.46107
1796.87500	17.20568	-8.85477	9.03349	9.44615
1800.78125	13.17056	-6.43717	9.03354	7.83419
1804.68750	5.10614	-9.25767	8.22773	6.62514
1808.59375	1.87697	-14.09286	4.19849	4.61024
1812.50000	4.28870	-15.30161	4.60152	3.80416
1816.40625	9.52102	-14.09276	7.01914	6.62444
1820.31250	8.70944	-10.06341	4.60167	8.23592
1824.21875	5.48024	-6.83990	2.58708	6.22105
1828.12500	5.07154	-6.03400	3.79592	7.02665
1832.03125	7.48340	-3.21337	5.81062	7.42934
1835.93750	9.89527	-2.40745	5.00479	7.02613
1839.84375	5.86025	-6.43668	2.99020	4.60834
1843.75000	-0.99534	-9.25711	3.39319	-0.63000
1847.65625	-0.19516	-9.25705	5.81084	3.80199
1851.56250	-1.40964	-8.85409	7.42263	7.42807
1855.46875	-5.04173	-5.22760	7.82569	4.20435
1859.37500	-7.06212	-4.82463	7.01987	2.99525
1863.28125	-6.26197	-5.22743	6.21411	4.20379
1867.18750	-3.04423	-4.42152	4.19955	5.00939
1871.09375	-1.43822	-8.04785	0.17032	4.60620
1875.00000	0.57072	-7.64482	-2.24723	5.00881
1878.90625	5.80313	-0.79496	-2.24717	5.41147
1882.81250	5.39447	-3.61542	-1.84418	4.20238
1886.71875	-1.05813	-8.45054	-9.90274	2.18746
1890.62500	-3.48138	-7.64466	-14.33495	0.97838
1894.53125	-0.26363	-6.03294	-8.69384	-1.43942
1898.43750	-0.67225	-4.01822	-7.88791	-3.05138
1902.34375	0.93380	0.41401	-6.27612	-1.84280
1906.25000	4.15163	0.81700	-2.24676	-0.63425
1910.15625	2.13133	-1.60057	-2.64958	-1.03746
1914.06250	1.31980	0.41412	-6.67880	-0.23185
1917.96875	0.50833	0.41414	-10.70812	-3.45548
1921.87500	0.50263	-0.39169	-11.11098	-5.87336
1925.78125	0.89965	0.81710	-10.70801	-4.26204
1929.68750	3.31134	0.41409	-9.49913	-1.03900
1933.59375	4.11134	3.23457	-8.29029	-0.63640
1937.50000	2.49381	3.63742	-5.87262	-1.44262
1941.40625	4.50259	2.42853	-3.05206	-3.45769
1945.31250	4.49672	2.83136	-5.06667	-3.86104
1949.21875	4.49081	5.24886	-7.48423	-1.44381
1953.12500	0.85840	6.45750	-5.06655	0.57042
1957.03125	-1.16226	7.26331	-4.66351	-1.84760
1960.93750	-1.16819	8.87489	-2.24586	-1.44501
1964.84375	-4.39755	7.26308	0.97769	-3.05712
1968.75000	-4.00043	5.24830	-0.63392	-9.90723
1972.65625	-5.61786	3.63645	-0.23096	-9.90753
1976.56250	-6.83237	5.24813	1.78376	-5.47566
1980.46875	-3.61462	4.44216	0.57507	-3.05840
1984.37500	-5.23203	2.02458	-3.05131	-5.07331
1988.28125	-7.25229	3.23332	-7.08056	-4.67061
1992.18750	-8.86957	3.23324	-10.30395	-5.47682
1996.09375	-12.90440	1.21848	-7.08042	-5.47710
2000.00000	-12.90987	2.42725	-1.03639	-3.46263
2003.90625	-11.30367	5.24778	1.38129	-4.26877
2007.81250	-6.87697	6.85949	3.39601	-2.65724
2011.71875	-3.25615	7.26247	2.99312	-1.44869
2015.62500	-2.85872	6.45654	-0.63320	-5.47832
2019.53125	1.56798	4.84477	0.97854	-2.65807
2023.43750	2.36830	6.05352	1.38158	3.78854
2027.34375	-1.66653	5.24765	-1.43883	4.19117
2031.25000	-1.67209	2.42706	-1.84170	3.78804
2035.15625	-2.48358	4.03879	-3.05041	2.57898
2039.06250	-1.28035	4.84460	-4.66202	2.17577
2042.96875	-5.31517	4.03874	-5.87077	1.36970
2046.87500	-8.94703	1.62115	-4.25903	-1.04815
2050.78125	-4.92325	2.02414	-0.63256	1.77210
2054.68750	-4.52580	2.02415	-0.22961	2.98068
2058.59375	-6.54586	0.81534	-0.22956	-0.64592
2062.50000	-4.93960	2.02414	0.97931	-1.04912
2066.40625	0.69586	1.62119	4.20283	0.56237
2070.31250	1.89912	3.23298	2.18825	0.15915
2074.21875	-2.53871	0.41243	0.97954	-0.64697
2078.12500	0.27621	-2.81105	2.59137	-3.06488
2082.03125	1.88224	-1.60229	-1.43788	-8.30325
2085.93750	-2.95860	-2.00522	-3.85544	-11.12400
2089.84375	1.06502	-1.60234	-1.43777	-9.51257
2093.75000	0.65642	-0.39355	-2.64649	-13.94501
2097.65625	0.65073	2.82993	0.97992	-18.37749
2101.56250	2.25678	2.83000	2.99463	-16.76602
2105.46875	0.63933	-1.19923	2.59178	-16.36330
2109.37500	-2.99277	-1.60213	3.80062	-15.96064
2113.28125	-11.46004	0.81552	1.78598	-22.81078
2117.18750	-19.12138	1.62142	0.98019	-31.67551
2121.09375	-26.78263	-0.79614	-0.22862	-38.92857
2125.00000	-30.41465	-0.39312	0.98019	-39.73480
2128.90625	-35.65836	2.02456	0.98024	-40.54096
2132.81250	-36.06683	11.69493	11.05361	-40.54128
2136.71875	-47.75739	9.68042	6.62144	-51.42068
2140.62500	-61.05961	7.66587	2.99509	-63.50895
2144.53125	-66.30323	16.12748	11.05377	-65.92683
2148.43750	-86.05240	12.09825	2.59222	-86.07371
2152.34375	-98.54876	14.91886	5.00983	-103.80296
2156.25000	-111.85094	22.57466	15.88911	-119.11464
2160.15625	-126.76495	24.99237	25.55960	-136.44101
2164.06250	-143.69359	32.64817	27.57442	-154.97617
2167.96875	-163.03979	37.88638	22.33644	-178.34665
2171.87500	-182.38611	36.27477	15.48663	-198.89676
2175.78125	-192.86801	32.64848	12.66627	-207.35902
2179.68750	-188.44153	30.23112	18.71040	-208.97145
2183.59375	-186.43263	30.63424	21.53104	-209.37531
2187.50000	-186.84152	29.02275	21.53123	-204.94406
2191.40625	-183.22128	27.81414	18.30805	-202.93053
2195.31250	-175.57187	25.39670	12.26422	-203.33479
2199.21875	-165.90793	18.14409	7.42925	-192.45708
2203.12500	-157.04997	14.11498	3.40014	-180.77368
2207.03125	-144.96861	19.75623	7.42964	-167.07567
2210.93750	-133.29031	22.57687	8.23567	-153.37767
2214.84375	-125.64124	18.14474	-1.43444	-142.90305
2218.75000	-109.12766	14.92139	-5.46362	-122.75808
2222.65625	-86.16708	13.71266	0.58057	-96.97194
2226.56250	-69.65327	12.10103	0.17781	-76.82679
2230.46875	-51.93052	10.48939	-6.26893	-64.33716
2234.37500	-34.61063	6.86302	-15.13324	-49.02687
2238.28125	-21.31996	4.44543	-17.55074	-32.91055
2242.18750	1.64120	8.87772	-16.74477	-14.37655
2246.09375	25.00550	6.86314	-18.35633	3.35175
2250.00000	39.10249	4.84855	-17.95332	18.66259
2253.90625	56.42303	6.05740	-22.38540	35.98823
2257.81250	66.49097	2.43102	-25.60878	45.25547
2261.71875	68.90321	0.41638	-27.62339	50.49336
2265.62500	87.43272	-0.38948	-30.44388	62.98412
2269.53125	107.17110	3.63978	-30.84687	80.31020
2273.43750	112.00111	8.47487	-28.83226	89.17474
2277.34375	121.26327	2.43083	-25.60884	94.81597
2281.25000	130.12251	-1.19559	-27.62356	102.06895
2285.15625	133.74379	-0.79275	-27.22073	107.30731
2289.06250	134.14162	-1.59865	-23.99734	111.73977
2292.96875	135.74835	-1.59869	-20.37104	117.38112
2296.87500	136.54927	-3.61338	-17.14768	120.20196
2300.78125	134.52975	-4.41926	-17.95368	117.78476
2304.68750	135.33078	-1.19584	-17.14790	117.38213
2308.59375	131.29666	0.01295	-15.53631	115.77077
2312.50000	126.05376	-1.19584	-17.14808	115.36818
2316.40625	128.06364	-2.80761	-17.55113	116.98022
2320.31250	130.07343	-4.01640	-12.31312	117.38350
2324.21875	126.84511	-3.61355	-7.47802	117.78678
2328.12500	118.37877	-3.21061	-3.04580	115.36950
2332.03125	106.28590	-5.22529	-2.23998	108.11703
2335.93750	100.23699	-3.21070	-4.65760	102.47620
2339.84375	96.60567	1.62441	-4.65770	102.47644
2343.75000	92.97436	1.62438	-3.44895	102.07378
2347.65625	93.37236	1.62432	-4.25492	98.85052
2351.56250	91.75556	2.83310	-4.65787	97.64188
2355.46875	86.91541	-0.39035	-3.04620	91.59810
2359.37500	82.88109	-4.41967	-5.46383	84.34550
2363.28125	79.24960	-4.41969	-7.07554	83.94266
2367.18750	75.21519	2.43007	-4.25506	82.73393
2371.09375	68.76315	3.63883	-2.64332	79.51061
2375.00000	61.90815	-1.59927	-6.67262	77.49594
2378.90625	55.85896	-4.82272	-5.86680	75.48131
2382.81250	54.64495	-6.83737	-1.03171	71.04916
2386.71875	55.44563	-10.06081	-1.43466	66.61692
2390.62500	49.79950	-7.64319	-4.65815	61.78179
2394.53125	45.76502	-4.01676	-5.46411	58.15537
2398.43750	45.75991	-2.80802	-7.47881	52.91720
2402.34375	47.76952	-1.59921	-9.49347	50.90248
2406.25000	48.97318	1.22128	-8.28467	54.12590
2410.15625	45.34176	-0.39043	-7.88172	51.70829
2414.06250	40.09857	-5.62856	-7.47882	45.26141
2417.96875	38.07874	-5.22560	-7.07586	39.21727
2421.87500	38.47637	-3.21094	-4.25537	38.00833
2425.78125	37.26238	-2.00213	-3.04661	38.41103
2429.68750	28.79558	-2.40510	-4.25543	33.97862
2433.59375	21.53764	-1.19634	-0.62903	30.35215
2437.50000	21.12946	-2.40518	1.38559	27.53151
2441.40625	21.12419	-2.80816	0.17674	26.32252
2445.31250	24.34245	-2.00231	2.99718	23.50179
2449.21875	25.54608	-3.21115	4.20595	20.68113
2453.12500	24.73509	0.01228	0.17663	21.08392
2457.03125	23.11819	1.62395	-3.44969	20.27791
2460.93750	19.88958	0.41510	-1.43503	19.06895
2464.84375	20.28736	1.62389	0.57959	20.27759
2468.75000	16.65579	1.22094	1.78830	20.68026
2472.65625	8.18920	2.02688	2.59421	15.84489
2476.56250	6.57228	5.65326	2.19129	12.62124
2480.46875	6.56702	4.04159	5.01185	13.42690
2484.37500	5.35291	2.02696	5.41486	14.63550
2488.28125	4.94469	2.42987	2.19143	16.24697
2492.18750	4.53647	0.41525	-1.43489	13.82920
2496.09375	1.30780	-1.19644	-2.24075	11.41142
2500.00000	-1.51793	0.01237	0.98273	17.45520
2503.90625	-1.12019	-0.79351	0.17693	18.26094
2507.81250	-0.72253	-5.22568	0.17700	11.81387
2511.71875	2.89862	-5.62861	2.59465	9.79904
2515.62500	2.49038	-4.01684	0.58002	7.38128
2519.53125	-0.33541	-6.03152	-1.03171	5.36648
2523.43750	-1.95252	-5.22559	-4.25515	6.17217
2527.34375	0.45964	-1.19627	-2.24051	4.96318
2531.25000	1.26003	-0.39039	-1.03170	0.93367
2535.15625	-1.56593	-0.39033	-5.46394	-1.48409
2539.06250	-1.97434	1.22139	-9.89613	-1.48431
2542.96875	-1.97983	1.62436	-10.29907	-1.48456
2546.87500	1.23812	0.81853	-4.65801	2.54455
2550.78125	3.24721	3.63907	-0.22578	3.35021
2554.68750	2.03285	-0.39018	-2.64330	-0.67935
2558.59375	9.28018	-5.62825	-2.24040	-0.67958
2562.50000	10.88658	-5.22523	2.19190	1.33479
2566.40625	6.85193	-8.44860	6.22123	4.15502
2570.31250	8.45833	-10.46319	6.22124	8.58696
2574.21875	8.85601	-4.01624	3.40076	9.79540
2578.12500	3.61264	-0.38984	1.38612	6.57157
2582.03125	0.38393	-0.79273	0.98316	2.54183
2585.93750	9.24313	-2.00139	0.58027	4.55601
2589.84375	15.28190	-2.40427	0.17730	8.18187
2593.75000	18.90305	1.22214	0.58024	8.98724
2597.65625	14.06269	-3.20999	-2.24031	4.55456
2601.56250	13.25159	-4.82171	-4.25498	9.38917
2605.46875	18.48437	-2.40409	0.58019	18.65598
2609.37500	12.43516	-4.01575	3.40065	15.43193
2613.28125	5.58013	-4.82163	2.99766	11.80501
2617.18750	1.54558	-9.25379	-0.22584	11.80443
2621.09375	1.54035	-11.67135	0.98293	13.01268
2625.00000	4.75856	-7.64202	5.01219	13.41504
2628.90625	4.75327	-2.00096	3.80342	15.02626
2632.81250	1.52455	-2.00096	-0.22598	15.42862
2636.71875	1.51930	-4.41856	0.17694	15.83103
2640.62500	-0.50069	-5.62734	2.99740	13.81584
2644.53125	-0.90904	-1.59803	2.59448	15.02408
2648.43750	0.29437	-1.59804	1.78858	15.82935
2652.34375	0.28898	-2.80683	2.19154	12.60534
2656.25000	-2.13398	-2.40387	2.99741	13.81363
2660.15625	-0.93057	-2.80684	1.38577	17.03658
2664.06250	2.69035	-3.20976	2.59460	16.63311
2667.96875	-3.35916	-5.62739	8.23558	11.79746
2671.87500	-14.24373	-5.62742	9.04144	8.57354
2675.78125	-16.26384	-3.20983	8.63858	8.57312
2679.68750	-16.67224	-2.00106	7.83273	6.96093
2683.59375	-19.90116	-2.80704	7.02683	6.55757
2687.50000	-15.87734	-6.03050	6.62394	9.78051
2691.40625	-11.04774	-6.03049	5.41514	10.98878
2695.31250	-17.50009	-0.38947	5.01215	9.77949
2699.21875	-23.95236	0.41635	4.60923	8.57024
2703.12500	-19.92839	-3.21003	1.38575	7.76396
2707.03125	-13.08384	1.62510	1.38567	10.58404
2710.93750	-10.26861	4.84854	0.17682	10.18071
2714.84375	-7.05038	0.41626	-1.03200	7.35984
2718.75000	-7.45854	-2.40426	0.17678	6.15063
2722.65625	-4.24024	-1.59843	2.99726	5.74735
2726.56250	3.81326	-1.59843	3.40020	6.55284
2730.46875	7.03165	-3.21011	2.59435	11.79064
2734.37500	10.65299	-1.59841	2.59438	15.01382
2738.28125	9.84206	0.01336	0.17677	9.77542
2742.18750	7.41933	-2.80719	-0.62911	5.74580
2746.09375	4.99661	-0.79254	1.38551	4.13372
2750.00000	5.79741	2.02801	2.99719	2.52174
2753.90625	2.97169	0.81921	4.20598	0.90969
2757.81250	-1.06275	3.63970	-0.62920	-0.29943
2761.71875	2.15555	6.86310	-2.64388	1.31201
2765.62500	5.37377	6.86303	-3.44980	0.90872
2769.53125	7.38321	0.81904	-6.27040	2.92309
2773.43750	8.98974	0.81903	1.78819	4.93752
2777.34375	5.35831	0.41605	5.01163	1.31099
2781.25000	4.14462	-3.21034	3.80291	2.11683
2785.15625	6.96033	-2.40452	5.01162	3.72870
2789.06250	2.92635	-3.21044	4.60861	2.92299
2792.96875	-3.92795	-1.59891	4.20556	2.52047
2796.87500	-2.72350	0.01272	0.57915	3.72979
2800.78125	3.31616	0.41547	-0.22676	5.74514
2804.68750	2.90895	0.41529	5.01137	5.34310
2808.59375	1.29312	-1.19660	3.80261	4.94117
2812.50000	2.49796	-2.40561	0.57915	3.73361
2816.40625	4.91168	-1.19704	0.98204	1.72018
2820.31250	7.32564	-1.19723	0.98206	1.72156
2824.21875	4.50164	-1.60034	-1.03254	1.32014
2828.12500	-6.78388	-4.82395	-3.45004	-3.11061
2832.03125	-11.62260	-4.82410	-5.46473	-4.72079
2835.93750	-5.17925	-0.79496	-4.65882	0.11581
2839.84375	-1.15359	-2.80977	-2.64415	0.52016
2843.75000	2.46905	-3.61577	-3.44997	-0.68732
2847.65625	7.70328	-1.19830	-2.64409	2.53734
2851.56250	9.71391	-3.21305	-2.24115	5.76187
2855.46875	6.08327	-4.42194	-2.24110	3.34519
2859.37500	6.07890	-2.00442	-3.85278	3.34598
2863.28125	11.71553	-3.61624	-7.88206	3.34665
2867.18750	9.69632	-4.82507	-7.88205	-1.08510
2871.09375	6.46825	-7.64557	-3.44979	-3.90524
2875.00000	5.25476	-10.06314	1.38540	-3.50205
2878.90625	4.84699	-6.43663	1.78833	-1.08442
2882.81250	6.05086	-4.82484	0.57960	2.94481
2886.71875	6.44876	-6.83941	0.57963	2.94461
2890.62500	4.83191	-6.03343	0.57969	1.73554
2894.53125	12.48247	-3.21276	0.57977	6.16746
2898.43750	24.56515	-2.80978	-0.22605	6.97289
2902.34375	31.81259	0.01087	-2.24059	2.54022
2906.25000	33.82183	0.41389	-5.06099	-4.71309
2910.15625	34.62230	-3.61528	-3.04629	-5.51965
2914.06250	42.67544	-3.61518	2.59486	0.12075
2917.96875	43.47580	-3.61508	3.40084	2.94057
2921.87500	29.36772	-2.40616	0.17751	5.35746
2925.78125	17.27416	-1.60019	-2.23999	2.53622
2929.68750	10.01578	-3.21176	-0.62813	0.52080
2933.59375	6.78674	-2.40579	6.22179	3.74345
2937.50000	5.57242	-0.39102	3.80438	5.75730
2941.40625	1.13460	-1.19676	-1.43360	6.96523
2945.31250	-5.72079	-3.61425	0.98405	6.15857
2949.21875	-8.14390	-5.22581	7.02810	3.74022
2953.12500	-6.94067	-3.21104	10.25164	6.15691
2957.03125	-7.75210	0.41543	7.43121	6.55903
2960.93750	-11.78688	4.04196	6.22249	4.14061
2964.84375	-11.38937	5.25091	5.81972	2.52813
2968.75000	-12.20065	1.62466	2.59637	1.31854
2972.65625	-11.80323	1.22182	2.19348	1.31772
2976.56250	-9.39110	4.04247	2.19352	0.10808
2980.46875	-9.79952	1.22202	3.80530	1.71897
2984.37500	-8.99902	-2.80720	2.19354	2.92699
2988.28125	-10.61616	-4.41886	0.98477	0.91153
2992.18750	-15.45669	-4.82178	0.98482	-1.10393
2996.09375	-16.26783	0.41637	2.19368	0.10410
