 	TP9	AF7	AF8	TP10	
-1000.00000	76.81586	257.97311	-23.92522	56.20764
-996.09375	78.02422	238.04193	-19.49278	54.19314
-992.18750	79.63548	288.21988	-22.31315	53.38737
-988.28125	83.26143	335.17590	-24.32765	63.86370
-984.37500	75.60528	303.96396	-20.70110	59.02870
-980.46875	76.81360	259.45523	-19.49213	57.01419
-976.56250	81.24530	228.24219	-14.25394	59.43190
-972.65625	70.36559	269.15332	-12.23908	57.01441
-968.75000	70.36504	285.08374	-11.03016	56.61160
-964.84375	72.37910	269.18240	-9.82118	52.58244
-960.93750	67.14040	210.97318	-10.62687	47.34444
-957.03125	64.31926	187.81757	-11.83551	42.50938
-953.12500	59.88633	237.99495	-9.01486	39.28599
-949.21875	56.25932	249.49284	-5.79128	36.46556
-945.31250	50.61758	238.83003	-8.61163	32.03341
-941.40625	44.16996	177.80058	-7.40266	34.04816
-937.50000	45.78100	182.44756	-2.56735	35.65999
-933.59375	45.78024	220.94089	-2.56720	34.04829
-929.68750	51.42046	194.16028	-8.61101	35.66012
-925.78125	53.83736	191.95863	-10.22255	39.28666
-921.87500	50.21025	129.71996	-8.20771	34.45169
-917.96875	55.04465	130.74083	-8.20761	32.83996
-914.06250	55.04388	203.48381	-9.41636	35.25763
-910.15625	51.81972	179.11978	-7.40162	36.46661
-906.25000	48.59554	153.94945	-6.59563	33.24337
-902.34375	45.77431	116.69101	-7.80429	23.57324
-898.43750	44.56478	135.43924	-7.40121	26.39398
-894.53125	44.96702	148.14479	-5.78939	30.82648
-890.62500	48.59262	122.57260	-7.40096	25.58862
-886.71875	52.21830	82.49501	-6.59496	26.79769
-882.81250	51.41166	52.48962	-4.58014	31.23022
-878.90625	50.60504	94.20551	-5.78878	32.03633
-875.00000	53.42473	87.16766	-6.59447	27.20145
-871.09375	51.81222	88.59123	-6.19137	23.97824
-867.18750	48.99088	81.55352	-5.38538	21.96379
-863.28125	45.36361	68.87387	-9.01164	17.53174
-859.37500	40.52763	83.19048	-6.59389	20.75539
-855.46875	36.49747	84.21117	-2.16146	23.97906
-851.56250	33.67601	118.27177	-3.37010	21.15878
-847.65625	27.63115	63.68746	-0.14649	19.14426
-843.75000	22.79508	37.30714	3.48001	17.93569
-839.84375	27.22636	107.63042	2.27144	19.95051
-835.93750	27.22535	93.74232	1.06281	23.57701
-832.03125	24.00089	96.77747	-0.95167	23.17427
-828.12500	26.82033	48.63995	1.46605	17.53337
-824.21875	27.62511	75.84935	2.27213	13.90717
-820.31250	24.40057	131.66779	-1.35408	17.53363
-816.40625	23.99656	86.35085	0.66073	19.95136
-812.50000	29.63641	84.95287	3.07848	21.56320
-808.59375	30.03822	58.97546	2.67569	19.54869
-804.68750	28.42530	103.91324	0.66121	15.92249
-800.78125	30.43883	139.18199	1.06433	15.11671
-796.87500	31.24350	116.42879	0.66154	17.93740
-792.96875	34.86863	72.32053	-3.77054	19.14627
-789.06250	31.64397	17.73524	-4.57619	16.72887
-785.15625	28.41932	77.17868	-0.54669	15.92316
-781.25000	31.23863	83.43668	1.06526	17.53500
-777.34375	30.83440	62.69806	-0.14336	15.92344
-773.43750	29.62431	26.24505	-0.14318	12.70014
-769.53125	30.02593	21.62293	3.08044	10.28266
-765.62500	34.45681	56.89053	3.08060	12.70037
-761.71875	32.44078	47.03049	-3.36611	12.70050
-757.81250	32.03643	52.07909	-3.76886	13.10354
-753.90625	30.42333	-4.92379	1.87236	14.31248
-750.00000	30.42189	4.55544	3.08133	16.32722
-746.09375	30.01748	98.65064	1.46977	18.34197
-742.18750	24.77793	75.89677	-0.14175	14.31276
-738.28125	27.19402	57.17231	-1.75336	15.52161
-734.37500	32.83348	-6.27793	-0.14145	19.55097
-730.46875	28.39972	12.06557	-2.15593	13.50710
-726.56250	21.14543	66.67396	-1.75288	9.88078
-722.65625	26.78489	6.04394	3.08249	15.11892
-718.75000	30.40969	15.92663	3.48553	20.35708
-714.84375	26.37874	-18.11058	5.09743	19.14834
-710.93750	24.76542	11.91740	5.09756	13.50739
-707.03125	27.98723	73.77818	-0.94625	10.68696
-703.12500	25.16507	76.40846	-1.34906	12.29876
-699.21875	26.77507	38.74578	-1.34890	17.53694
-695.31250	29.59387	16.79700	-3.76631	16.32823
-691.40625	25.15998	98.80415	-3.76612	6.65804
-687.50000	21.53186	119.16267	-2.55713	7.46396
-683.59375	22.33598	115.74808	-0.94519	11.49332
-679.68750	25.96063	84.93475	-1.34796	9.88163
-675.78125	26.36174	69.83409	-0.94485	11.49343
-671.87500	25.55424	126.45480	-2.15353	12.29943
-667.96875	24.34376	163.33331	-3.76509	11.09080
-664.06250	19.50671	159.11345	-1.34726	7.46444
-660.15625	16.28131	127.89713	-0.54119	4.64377
-656.25000	18.69687	152.28439	-3.76439	5.44950
-652.34375	23.52986	189.96887	-2.15237	4.24043
-648.43750	17.88663	188.97226	-0.13747	1.01667
-644.53125	13.85497	181.52858	-2.95773	-3.81886
-640.62500	13.04681	108.00353	1.47470	-0.99876
-636.71875	10.22396	169.45892	2.28084	3.03012
-632.81250	11.83331	286.11652	-0.53949	0.61210
-628.90625	11.42814	248.45204	3.89298	0.20890
-625.00000	13.44049	214.01086	3.49020	3.43203
-621.09375	17.06457	242.42618	4.69917	4.64048
-617.18750	18.67408	273.66141	8.72865	6.65490
-613.28125	16.25426	218.67073	4.69951	7.05754
-609.37500	15.44623	193.90012	-0.53841	4.23685
-605.46875	17.86166	114.73446	-1.34405	4.63961
-601.56250	17.85948	-11.17232	-0.13504	0.20729
-597.65625	13.82794	47.05906	-0.94067	-6.64269
-593.75000	19.46681	60.96970	-0.53758	-0.19590
-589.84375	22.28512	33.78156	0.26852	3.43041
-585.93750	19.05947	-9.12103	1.07456	-1.40488
-582.03125	22.68368	-14.55189	3.08938	-1.00202
-578.12500	26.71079	54.96181	-2.14854	3.83305
-574.21875	31.14083	46.30689	-3.35717	12.29455
-570.31250	27.51221	29.19104	-4.56579	9.47401
-566.40625	23.48069	-34.66439	-1.34214	3.43003
-562.50000	21.46381	-27.20250	0.26982	2.62408
-558.59375	19.04396	52.38403	-5.37104	8.26507
-554.68750	20.25051	37.28283	-3.35621	9.47384
-550.78125	24.27754	47.56639	0.27038	7.86210
-546.87500	26.69286	-25.96001	-0.53535	12.69730
-542.96875	21.45249	-40.65933	-2.14686	9.87673
-539.06250	19.83851	6.29064	-2.14670	8.66800
-535.15625	25.88016	-47.89550	-2.14655	12.69733
-531.25000	27.48955	-58.96836	1.07707	15.11490
-527.34375	24.66674	-97.03777	3.89774	11.89144
-523.43750	23.05267	-52.50736	3.09208	7.45925
-519.53125	22.24448	-32.95737	1.88347	5.84750
-515.62500	25.06269	-77.06987	4.30127	10.27980
-511.71875	25.86618	-107.07988	5.51020	13.10036
-507.81250	22.64034	-167.71387	1.88404	7.86230
-503.90625	22.63793	-97.79862	-0.93626	7.86232
-500.00000	25.85898	-76.63663	-0.13024	13.10044
-496.09375	27.06533	-100.20020	3.49627	13.10045
-492.18750	24.24231	-120.54048	-0.12989	6.65364
-488.28125	23.43400	-146.11940	-3.75610	4.23608
-484.37500	22.22271	-139.06091	0.67633	7.05663
-480.46875	21.81730	-159.40117	-0.93518	4.23617
-476.56250	21.81476	-190.21754	-0.12915	3.02740
-472.65625	22.21513	-260.52151	3.90034	5.44507
-468.75000	23.01844	-264.34280	0.67709	5.44511
-464.84375	25.03057	-159.77563	-0.93440	5.44513
-460.93750	23.01330	-159.56696	1.08046	5.84805
-457.03125	20.99607	-177.49007	-1.33694	7.86271
-453.12500	23.81404	-227.24557	-0.53088	9.47449
-449.21875	22.19969	-196.81944	2.28989	8.66869
-445.31250	23.80884	-130.12857	4.70763	6.65409
-441.40625	25.82088	-172.63120	5.11079	2.62477
-437.50000	25.01241	-187.33205	5.51389	4.23659
-433.59375	24.60682	-215.73335	7.12586	7.86301
-429.68750	21.78367	-147.43219	5.91726	6.25135
-425.78125	19.36340	-71.47363	3.90284	1.01330
-421.87500	15.33145	-126.86961	3.09723	2.22216
-417.96875	15.73166	-161.71631	6.32092	8.26617
-414.06250	18.14657	-169.56822	7.52994	5.44573
-410.15625	16.93504	-138.33682	6.72423	3.43111
-406.25000	16.93227	-117.98296	5.11274	3.02817
-402.34375	18.13829	-109.31361	5.51584	-1.00109
-398.43750	20.55309	-200.97397	5.11313	-0.19520
-394.53125	22.56494	-267.25159	5.51624	1.81949
-390.62500	21.35333	-196.53339	5.51646	1.41665
-386.71875	20.14168	-219.29329	5.51668	0.20791
-382.81250	21.34764	-314.98331	8.33746	3.83429
-378.90625	22.15063	-440.49057	9.94936	6.65488
-375.00000	20.93895	-512.40936	11.56131	6.25195
-371.09375	21.33904	-503.74164	10.35270	6.25197
-367.18750	20.12736	-506.35480	7.93529	3.83443
-363.28125	15.69220	-507.35599	6.72670	5.04329
-359.37500	14.07758	-506.74603	5.11521	7.05797
-355.46875	19.71568	-506.54013	7.13002	11.08730
-351.56250	22.93610	-506.33374	5.11555	8.66980
-347.65625	21.32144	-506.12775	2.69815	7.05809
-343.75000	18.90084	-504.31021	5.51885	9.07278
-339.84375	20.50959	-509.74573	6.72783	5.84935
-335.93750	19.70072	-486.57407	2.29581	1.01422
-332.03125	18.89174	-453.73096	1.49007	1.41716
-328.12500	22.11212	-477.29758	1.89320	3.43179
-324.21875	17.27387	-510.13129	2.69924	1.41714
-320.31250	15.65900	-481.31778	3.50529	-1.40342
-316.40625	19.28228	-436.38773	-0.92671	-2.61223
-312.50000	22.50261	-462.77518	-2.13532	-1.40341
-308.59375	21.29069	-460.15149	0.28249	-2.20923
-304.68750	14.84065	-457.93085	-0.12026	-6.64148
-300.78125	11.21115	-510.91254	0.28289	-6.64151
-296.87500	9.99916	-476.45914	-0.11986	-7.44738
-292.96875	9.19010	-409.77094	0.68619	-9.46203
-289.06250	6.36632	-433.33838	4.71568	-6.64152
-285.15625	3.94559	-491.96066	2.29833	-6.64150
-281.25000	1.52475	-477.65436	1.08972	-8.25320
-277.34375	2.73028	-455.69211	-0.92474	-5.02978
-273.43750	4.33871	-492.95947	-3.74510	-4.22392
-269.53125	5.14135	-504.43930	-5.35658	-3.41803
-265.62500	6.74977	-500.20569	-6.16221	-6.23846
-261.71875	5.13479	-501.61411	-5.35613	-10.26771
-257.81250	2.31092	-501.40973	-9.78818	-7.85015
-253.90625	1.50174	-501.20593	-13.01145	-7.44718
-250.00000	2.70722	-501.00223	-10.59365	-8.65595
-246.09375	2.30091	-500.79861	-7.77294	-8.25295
-242.18750	3.10341	-500.59579	-7.77273	-9.05878
-238.28125	5.51753	-500.39166	-4.54909	-5.43243
-234.37500	10.75223	-500.18719	-5.35474	-1.80601
-230.46875	17.59866	-499.98264	-7.36918	2.62619
-226.56250	12.76003	-499.77911	-0.92207	2.22331
-222.65625	1.07159	-499.57623	0.68983	-4.22359
-218.75000	-4.97580	-499.37225	1.09297	-5.83527
-214.84375	-6.59092	-499.16815	2.30195	-8.65579
-210.93750	-2.96802	-498.96399	-0.11547	-5.83519
-207.03125	-0.95682	-498.76038	-1.72704	-5.02930
-203.12500	1.05438	-498.55713	1.89953	-3.01460
-199.21875	1.85680	-498.35355	3.51141	0.20888
-195.31250	-0.96728	-498.14960	-0.11474	1.82059
-191.40625	-1.77667	-497.94626	-0.92040	2.62648
-187.50000	-1.78023	-497.74387	0.69148	-0.99983
-183.59375	-1.78382	-497.54065	2.30342	-1.80565
-179.68750	-1.78739	-497.33719	3.51234	1.01489
-175.78125	-6.62612	-497.13400	-0.11382	0.20906
-171.87500	-5.82389	-496.93152	-0.11364	1.82074
-167.96875	-1.79820	-496.72940	2.30412	3.43251
-164.06250	-5.02528	-496.52640	1.09549	-0.99974
-160.15625	-0.99962	-496.32401	0.28986	3.02959
-156.25000	1.41434	-496.12189	0.29009	11.08822
-152.34375	7.45464	-495.92062	2.30499	11.08828
-148.43750	11.88324	-495.72034	3.51398	8.67080
-144.53125	7.44730	-495.51877	2.30548	6.25325
-140.62500	9.86118	-495.31686	2.70861	6.65625
-136.71875	11.06626	-495.11520	5.52935	8.26800
-132.81250	7.03321	-494.91479	6.73839	8.67100
-128.90625	7.02944	-494.71451	1.90347	7.86511
-125.00000	8.23440	-494.51245	-2.93145	4.23882
-121.09375	0.57495	-494.31009	-2.52835	-0.99926
-117.18750	-0.23472	-494.10809	-0.11054	-1.80510
-113.28125	9.83471	-493.90784	-1.31913	1.41834
-109.37500	7.41325	-493.70798	-2.52774	2.62705
-105.46875	2.17126	-493.50641	1.09887	2.22413
-101.56250	0.15271	-493.30444	1.90492	-1.80518
-97.65625	-3.47756	-493.10297	-0.91539	-5.83451
-93.75000	-3.48150	-492.90292	-0.51231	-8.25215
-89.84375	-1.06791	-492.70270	1.09963	0.61228
-85.93750	-1.07187	-492.50128	2.71152	5.85039
-82.03125	-2.28462	-492.29953	0.69708	2.62693
-78.12500	-1.07991	-492.09888	-0.91442	5.44747
-74.21875	-1.08393	-491.89975	-0.51131	5.85035
-70.31250	-2.29673	-491.69952	3.51820	6.25329
-66.40625	-1.89793	-491.49921	5.13016	4.64149
-62.50000	-7.14013	-491.29877	-0.91358	2.62679
-58.59375	-9.56177	-491.09866	-1.31634	0.20921
-54.68750	-8.35713	-490.89975	0.69853	-1.80547
-50.78125	-7.15242	-490.69977	-2.92758	1.41796
-46.87500	-9.57406	-490.49905	-0.50980	3.02965
-42.96875	-14.01043	-490.29797	0.69926	0.61203
-39.06250	-11.19414	-490.09808	-2.52397	-3.41735
-35.15625	-7.97492	-489.89868	-1.71795	-0.99985
-31.25000	-9.59081	-489.69852	1.90868	4.23817
-27.34375	-9.99800	-489.49835	5.53530	6.65568
-23.43750	-12.41985	-489.29880	7.14728	5.44676
-19.53125	-17.25928	-489.10031	1.10351	4.64075
-15.62500	-22.50180	-488.90149	-1.31386	5.84935
-11.71875	-24.11801	-488.70203	1.90989	7.46084
-7.81250	-22.91384	-488.50244	3.92488	6.65467
-3.90625	-17.68045	-488.30304	5.93987	8.66887
0.00000	-13.65599	-488.10413	5.53720	9.07117
3.90625	-10.84036	-487.90497	3.52281	4.23533
7.81250	-6.41313	-487.70648	0.29973	5.84633
11.71875	-5.20939	-487.50867	1.10592	6.24852
15.62500	-4.00567	-487.31104	2.71798	2.62134
19.53125	-2.39896	-487.11423	-2.51973	6.24698
23.43750	-2.40408	-486.91660	-5.33986	5.84321
27.34375	5.64941	-486.71863	1.10739	7.45416
31.25000	9.27068	-486.52081	0.30191	10.67685
35.15625	4.83341	-486.32346	-0.10070	4.22919
39.06250	13.28986	-486.12698	2.72013	3.82551
42.96875	18.92581	-485.92932	2.72051	7.45119
46.87500	17.71191	-485.73083	3.12384	4.62991
50.78125	19.31860	-485.53262	1.91538	3.82338
54.68750	18.10472	-485.33511	2.31862	4.22565
58.59375	19.30850	-485.13770	1.51299	-0.61016
62.50000	20.10938	-484.93982	-0.50139	-1.81946
66.40625	16.88103	-484.74219	1.91648	0.19469
70.31250	15.66733	-484.54462	3.12554	-7.46149
74.21875	26.94448	-484.34848	-8.55924	-8.67076
78.12500	45.87741	-484.15292	-8.55905	15.90767
82.03125	24.92024	-483.95645	6.75248	8.25164
85.93750	3.15731	-483.75998	6.34975	-14.31266
89.84375	1.94385	-483.56369	7.96160	-8.67180
93.75000	-19.01317	-483.36783	9.97639	-21.56565
97.65625	-12.57090	-483.17172	7.96189	-17.13350
101.56250	-10.56091	-482.97531	9.97669	-11.08952
105.46875	-14.99770	-482.77914	9.97686	-16.32760
109.37500	-6.54080	-482.58371	9.17117	-17.93929
113.28125	-7.35126	-482.38858	9.17130	-18.74509
117.18750	-2.52063	-482.19260	9.17144	-7.86591
121.09375	-5.34577	-481.99670	5.94812	-8.67167
125.00000	-4.94737	-481.80099	7.55996	-7.86572
128.90625	0.28620	-481.60605	8.76881	-7.05967
132.81250	-1.73302	-481.41211	4.73963	-7.86546
136.71875	1.08292	-481.21707	6.75441	-2.62720
140.62500	1.88418	-481.02182	8.76919	-1.41825
144.53125	1.07378	-480.82666	7.15761	-2.62687
148.43750	-1.75126	-480.63193	2.32258	-7.05885
152.34375	-5.78516	-480.43741	3.12853	-6.25283
156.25000	-4.17808	-480.24231	9.17258	-6.65561
160.15625	-8.61495	-480.04752	8.76973	-9.47593
164.06250	-11.84296	-479.85287	3.93467	-10.28158
167.96875	-10.23589	-479.65927	1.92016	-10.68436
171.87500	-12.65814	-479.46600	-0.90021	-13.10172
175.78125	-17.90091	-479.27127	-0.49723	-14.71328
179.68750	-17.09968	-479.07663	3.53216	-10.28085
183.59375	-13.88102	-478.88232	7.56162	-4.63970
187.50000	-18.31797	-478.68927	3.53237	-5.84830
191.40625	-16.30808	-478.49615	1.11497	-4.23645
195.31250	-11.47772	-478.30197	6.75609	0.19595
199.21875	-16.31769	-478.10782	3.93571	-2.62446
203.12500	-16.32252	-477.91409	1.11534	-2.62431
207.03125	-18.74499	-477.72122	-1.70511	-5.04172
210.93750	-22.77918	-477.52719	-3.71967	-8.66799
214.84375	-18.75477	-477.33298	-2.10779	-4.23560
218.75000	-21.17730	-477.13925	-1.30180	-2.22084
222.65625	-24.00272	-476.94623	2.72761	-2.62371
226.56250	-19.57540	-476.75397	2.32485	3.42040
230.46875	-19.98331	-476.56094	-2.91311	1.00289
234.37500	-20.79412	-476.36786	-0.09248	-3.42924
238.28125	-16.76980	-476.17487	3.13114	-4.23496
242.18750	-19.19237	-475.98306	-0.09214	-10.68172
246.09375	-22.42073	-475.79205	-0.09197	-9.87575
250.00000	-22.82868	-475.60007	0.71405	-7.45803
253.90625	-22.83370	-475.40790	-1.70339	-4.23446
257.81250	-25.25636	-475.21561	-2.91197	-1.01093
261.71875	-29.29074	-475.02380	-1.70308	-1.41381
265.62500	-30.10169	-474.83209	-2.91167	0.60091
269.53125	-31.71850	-474.64032	-6.53791	-2.21951
273.43750	-29.30610	-474.44836	-5.32895	-5.84577
277.34375	-24.47606	-474.25638	-2.91116	-3.42816
281.25000	-22.86953	-474.06552	-2.50804	-3.02513
285.15625	-19.24836	-473.87439	-1.70200	-1.01039
289.06250	-15.22424	-473.68298	-2.50768	1.00433
292.96875	-16.84125	-473.49167	-4.92505	-1.81610
296.87500	-16.84651	-473.30057	-0.08971	0.60152
300.78125	-18.86644	-473.11044	-0.49247	1.00453
304.68750	-21.69221	-457.66901	-8.14792	-1.26095
308.59375	-16.86233	-462.73123	-2.50671	-1.39966
312.50000	-22.91155	-481.05231	-2.50649	-3.71063
316.40625	-22.11098	-488.08157	-5.32676	1.20364
320.31250	6.08883	-474.24445	-0.49139	30.30146
324.21875	6.08346	-457.63925	-3.31166	26.65454
328.12500	-21.72412	-460.03644	-9.75836	-11.05867
332.03125	-28.17642	-478.00436	-14.59330	-15.90399
335.93750	-16.89979	-487.46191	-13.78722	-2.10196
339.84375	-1.99677	-475.61450	-11.77234	8.99637
343.75000	-3.21103	-457.92197	-16.20438	7.83281
347.65625	-5.23114	-457.59738	-16.20416	5.89239
351.56250	-3.22196	-474.81955	-8.14527	6.56285
355.46875	-1.61576	-486.49634	-7.74216	8.28064
359.37500	-0.41249	-476.89001	-14.18885	10.64213
363.28125	-6.86493	-458.48914	-11.77105	7.54630
367.18750	-14.52610	-455.44601	-11.77084	5.53361
371.09375	-18.56095	-471.54498	-12.97944	3.65559
375.00000	-13.73138	-485.18497	-7.74112	0.11926
378.90625	2.38028	-478.02576	-4.11449	2.60092
382.81250	9.22448	-459.31171	-3.71137	4.03429
386.71875	6.39842	-453.61206	-3.71114	5.99619
390.62500	9.61632	-468.23593	-5.72555	5.59597
394.53125	8.40195	-483.53922	-6.53115	0.41254
398.43750	1.54650	-478.97580	-4.11331	0.18373
402.34375	-0.47379	-460.34854	-4.91892	0.51799
406.25000	1.93814	-452.11124	-4.51579	4.05533
410.15625	-1.69397	-464.93887	-0.08329	5.53581
414.06250	-8.14653	-481.57034	-4.51532	-0.10469
417.96875	-0.89950	-479.69894	-8.14142	-0.23592
421.87500	3.52695	-461.55832	-6.93239	0.62100
425.78125	0.70070	-450.95782	-6.93217	2.12680
429.68750	1.09790	-461.70795	-4.91731	3.47610
433.59375	-2.53431	-479.30319	-4.11126	3.00212
437.50000	-6.97237	-480.15939	0.32119	9.40070
441.40625	-6.57524	-462.89307	1.53015	8.77324
445.31250	-8.59573	-450.15384	-4.91648	4.64093
449.21875	-9.81038	-458.58890	-2.49872	7.07347
453.12500	-14.65139	-476.76294	-2.09556	4.90035
457.03125	-24.32764	-480.32455	-2.09536	-1.52834
460.93750	-27.55699	-464.30298	-2.49810	-0.81474
464.84375	-29.17457	-449.69839	-3.70668	5.14883
468.75000	-36.83615	-455.63193	-3.70646	2.22623
472.65625	-39.66253	-473.98663	-3.30328	0.35456
476.56250	-41.28017	-480.17349	-1.69137	0.82443
480.46875	-41.68897	-465.74039	-0.07941	1.67227
484.37500	-39.27733	-449.58286	-2.49679	4.05113
488.28125	-34.44820	-452.88376	-3.70536	6.66339
492.18750	-16.32238	-471.01877	-0.07872	6.29019
496.09375	4.62400	-479.69193	-2.09313	-0.06003
500.00000	27.18205	-467.15482	-2.09289	2.13004
503.90625	47.32256	-449.78897	4.75712	4.97181
507.81250	50.13702	-450.38071	0.32515	1.04427
511.71875	56.57787	-467.89917	-6.92739	1.75722
515.62500	62.61575	-478.86639	-1.28619	5.08761
519.53125	58.58036	-468.49152	-0.07717	3.37790
523.43750	69.05048	-450.28885	-0.88277	0.65575
527.34375	77.50595	-448.15463	1.93797	0.27694
531.25000	75.88810	-464.67368	4.75870	1.26347
535.15625	75.88200	-477.69418	3.14723	1.76397
539.06250	71.44370	-469.70340	-0.07602	1.78892
542.96875	67.00531	-451.05530	0.32716	1.97959
546.87500	60.95520	-446.23737	0.73027	2.34591
550.78125	52.48748	-461.39478	1.53634	2.39332
554.68750	42.40806	-476.18262	2.34246	2.86471
558.59375	31.92567	-470.74490	2.74559	2.60045
562.50000	23.86085	-452.05026	-0.07466	-2.34136
566.40625	18.61653	-444.64792	-1.28325	-5.24104
570.31250	14.17806	-458.11151	2.74626	-0.89567
574.21875	0.87515	-474.34262	-0.07403	-3.69565
578.12500	-4.36918	-471.57208	-2.49141	-6.67849
582.03125	-4.77842	-453.23141	-1.28237	-6.66842
585.93750	-4.38180	-443.40161	-2.49096	-2.74167
589.84375	-2.77645	-454.87762	-0.07316	0.26250
593.75000	-10.43843	-472.19760	-1.28174	-5.42388
597.65625	-14.07120	-472.15018	-4.50497	-4.69233
601.56250	-15.68926	-454.55750	-2.08714	-5.76590
605.46875	-12.87514	-442.50916	1.53944	-7.08092
609.37500	-6.43462	-451.74295	0.73381	-2.99564
613.28125	-7.64983	-469.77103	0.33113	-0.30283
617.18750	-7.65625	-472.44342	1.13720	-3.52837
621.09375	-8.87148	-455.97455	1.13741	-6.08272
625.00000	-14.51889	-441.96426	2.34639	-4.15816
628.90625	-17.74856	-448.75311	-0.87689	-3.41645
632.81250	-14.12864	-467.09628	1.94383	-2.43231
636.71875	-17.35865	-472.42606	3.15287	-1.17085
640.62500	-27.84138	-457.43356	-0.87619	-3.18831
644.53125	-24.22151	-441.76221	1.13868	-4.85477
648.43750	-25.03388	-445.95584	3.15355	-3.01429
652.34375	-23.83168	-464.21323	2.34794	-0.52803
656.25000	-23.83822	-472.08246	1.13937	1.57559
660.15625	-31.09750	-458.88715	-0.87505	1.30386
664.06250	-30.70110	-441.88806	-2.48658	2.91499
667.96875	-29.49883	-443.39069	-0.47170	5.86673
671.87500	-29.50535	-461.16324	3.55783	6.21858
675.78125	-28.70607	-471.39734	3.55806	7.13027
679.68750	-29.92144	-460.28125	5.57294	7.79556
683.59375	-32.74851	-442.32013	2.75265	1.41967
687.50000	-29.53164	-441.09674	-2.48524	1.87083
691.40625	-27.92652	-457.99573	3.15605	3.70703
695.31250	-27.93311	-470.36823	1.94750	-1.83107
699.21875	-31.96902	-461.56796	-5.70796	-3.05489
703.12500	-36.40786	-443.02945	1.14214	1.13277
707.03125	-31.57925	-439.10181	3.55991	3.53207
710.93750	-31.18298	-454.75821	-2.48381	-2.01685
714.84375	-31.99551	-468.99875	-2.88650	-1.93652
718.75000	-36.43448	-462.70029	-2.88630	-1.83456
722.65625	-35.23241	-443.98041	-2.88608	-2.38061
726.56250	-32.41858	-437.42874	0.33760	2.38756
730.46875	-37.66341	-451.49850	-0.06509	1.13661
734.37500	-34.84966	-467.29385	-0.06485	-0.03362
738.28125	-28.40953	-463.63031	4.36762	2.18916
742.18750	-30.02808	-445.13144	1.95021	1.75631
746.09375	-31.64657	-436.09506	-1.67599	-0.75822
750.00000	-32.86216	-448.27069	-0.86986	-2.54547
753.90625	-32.86898	-465.27527	1.14501	-2.56705
757.81250	-30.45821	-464.32230	6.38333	0.55443
761.71875	-26.43574	-446.44110	10.41287	2.66182
765.62500	-26.03967	-435.11115	5.57793	-1.47466
769.53125	-32.09047	-445.12460	4.77232	-3.79442
773.43750	-28.87389	-462.96625	1.14620	6.98614
777.34375	-12.36064	-464.74069	1.14643	21.46735
781.25000	-27.27598	-447.86111	-2.47975	-2.08349
785.15625	-43.40008	-434.48019	-9.73227	-23.13353
789.06250	-40.98941	-442.11096	-3.28512	-16.30887
792.96875	-52.27840	-460.39990	0.74443	-25.76711
796.87500	-57.92644	-464.85931	-0.06118	-29.76001
800.78125	-52.69535	-449.34149	-1.67271	-22.95776
804.68750	-45.44964	-434.19440	0.74512	-18.99716
808.59375	-41.02445	-439.27405	-0.06052	-19.94193
812.50000	-38.61403	-457.61072	-6.91010	-20.64138
816.40625	-34.99474	-464.65463	-6.90985	-16.13028
820.31250	-31.77838	-450.83148	-3.68620	-14.83484
824.21875	-24.93568	-434.24185	-3.68593	-11.22919
828.12500	-19.30173	-436.65515	-2.47689	-8.64958
832.03125	-18.10003	-454.63879	-4.08833	-7.45105
835.93750	-16.49545	-464.11096	-3.28222	-5.33413
839.84375	-14.08498	-452.27789	-0.05855	-3.90639
843.75000	-14.49505	-434.60251	-0.46126	-2.65256
847.65625	-18.53146	-434.29504	1.95661	-2.57847
851.56250	-23.77669	-451.53281	2.35979	-6.34031
855.46875	-24.99266	-463.22446	1.15123	-3.01098
859.37500	-23.38808	-453.63434	2.76315	-2.66427
863.28125	-25.40992	-435.25070	-0.46008	-7.37203
867.18750	-24.61129	-432.22336	-1.66864	-6.96732
871.09375	-24.21561	-448.33838	1.55509	-8.44264
875.00000	-26.64039	-461.99365	-2.07099	-11.97910
878.90625	-26.64763	-454.85034	-2.07073	-9.90052
882.81250	-23.02853	-436.15372	2.36180	-8.46719
886.71875	-21.02118	-430.47021	-0.45848	-6.90840
890.62500	-20.22264	-445.10931	-3.27869	-4.08535
894.53125	-21.43865	-460.42703	-2.06959	-5.64253
898.43750	-22.25185	-455.88062	-1.66641	-6.67736
902.34375	-18.22980	-437.27139	-1.26315	-0.70226
906.25000	-19.84889	-429.05029	-0.45697	-1.19441
910.15625	-23.07965	-441.89313	-0.45665	-4.14637
914.06250	-18.65473	-458.53955	1.15538	2.70381
917.96875	-18.25918	-456.68594	-1.26194	1.36357
921.87500	-20.28127	-438.56314	-6.90266	-3.01781
925.78125	-15.05050	-427.97876	-8.91711	-0.70623
929.68750	-18.68420	-438.74368	-10.52850	-1.37181
933.59375	-20.70622	-456.35367	-8.91652	-0.63708
937.50000	-19.50483	-457.22778	-9.31915	-4.71474
941.40625	-19.51223	-439.97946	-12.54229	-7.35689
945.31250	-13.47565	-427.25717	-13.75080	-0.20717
949.21875	-11.87133	-435.70743	-12.13878	0.21064
953.12500	-13.08745	-453.89667	-9.31799	-4.38013
957.03125	-11.08023	-457.47583	-10.12350	-6.77954
960.93750	-10.28188	-441.47156	-9.72028	-6.06597
964.84375	-11.49819	-426.88434	-8.10825	-5.34062
968.75000	-8.28225	-432.83487	-9.71974	0.19819
972.65625	8.63332	-451.20709	-7.70483	19.68173
976.56250	11.84918	-457.41187	-4.07816	21.36022
980.46875	-3.46969	-442.99548	-7.70431	0.04679
984.37500	4.58136	-426.85379	-11.33040	-2.81252
988.28125	26.73495	-430.16956	-13.34477	18.33442
992.18750	33.57716	-448.32181	-12.94162	29.24318
996.09375	39.21063	-456.60989	-9.71792	30.14567
1000.00000	46.05281	-444.49231	-9.31471	37.57370
1003.90625	46.44814	-410.62219	-6.09099	42.83303
1007.81250	52.48448	-408.81125	-0.85262	47.36687
1011.71875	51.26809	-446.09070	-0.44950	42.03569
1015.62500	37.15788	-455.86749	-7.29904	33.27797
1019.53125	39.16473	-444.70483	-9.71635	36.40320
1023.43750	41.57469	-428.13104	-6.08964	35.69561
1027.34375	38.74660	-421.98349	-5.68639	30.88452
1031.25000	41.96246	-449.80283	-8.50654	27.84181
1035.15625	36.71674	-423.35483	-6.89444	25.92462
1039.06250	30.66516	-388.38522	-4.87944	26.35249
1042.96875	33.47797	-422.13373	-4.47618	25.33438
1046.87500	34.27619	-426.19604	-4.87873	22.88008
1050.78125	31.85086	-436.93985	-6.89306	20.50987
1054.68750	29.02260	-454.16370	-4.87810	19.36941
1058.59375	27.80603	-448.34143	-3.66906	21.52269
1062.50000	24.57482	-429.66400	-9.71269	22.62476
1066.40625	24.16410	-422.27924	-11.72705	17.30745
1070.31250	24.15636	-433.34418	-10.11498	13.99703
1074.21875	23.74574	-460.47250	-8.90593	13.21156
1078.12500	23.33502	-409.77087	-7.69687	13.85502
1082.03125	18.89495	-376.13583	-5.68195	19.10311
1085.93750	14.45496	-433.61377	-4.87573	16.98581
1089.84375	11.62660	-396.35406	-6.89008	10.31953
1093.75000	13.63338	-385.88928	-3.66638	11.07997
1097.65625	14.83430	-438.64249	-0.84552	16.24372
1101.56250	16.03520	-421.87140	-3.26282	15.97597
1105.46875	15.22148	-414.27435	-2.85954	12.64625
1109.37500	12.39316	-435.61633	-1.24751	13.50802
1113.28125	13.59401	-432.30783	1.17040	13.38024
1117.18750	11.16853	-387.45126	-0.44105	11.76631
1121.09375	8.34011	-403.63638	-2.85830	8.40607
1125.00000	7.52625	-423.08832	-0.44049	7.50998
1128.90625	1.87730	-428.28442	-2.45484	8.65453
1132.81250	5.09278	-382.98306	-3.66332	7.62382
1136.71875	7.90532	-346.82874	0.36635	8.88526
1140.62500	1.45044	-411.63416	4.79888	11.70289
1144.53125	-5.00448	-429.42511	4.39630	13.66274
1148.43750	-11.05645	-405.02979	0.36728	13.08544
1152.34375	-18.31724	-423.70901	1.17343	6.70704
1156.25000	-23.56341	-452.95114	-0.43804	4.78122
1160.15625	-25.58616	-434.13351	-2.04945	5.31520
1164.06250	-29.22060	-424.40768	-2.45210	2.09101
1167.96875	-28.01999	-387.24817	-2.85470	7.86303
1171.87500	-26.01342	-339.76404	-4.86903	9.82633
1175.78125	-25.61863	-379.83118	-4.86872	5.90265
1179.68750	-26.83547	-443.67847	-2.45088	6.97075
1183.59375	-26.44057	-393.50238	-4.06223	5.83275
1187.50000	-25.64290	-353.61539	-4.46487	4.26908
1191.40625	-18.39833	-358.04153	-2.04697	6.50793
1195.31250	-13.57127	-376.07227	0.77389	7.81946
1199.21875	-20.42928	-436.19214	1.17721	4.58073
1203.12500	-14.79638	-427.34335	1.17756	6.75362
1207.03125	-9.16354	-392.81082	3.19254	9.15267
1210.93750	-11.58922	-331.52432	2.78990	6.02128
1214.84375	-8.77689	-382.85120	3.99901	5.29558
1218.75000	-12.00845	-431.37067	3.59636	2.17405
1222.65625	-12.01656	-356.25986	2.38791	0.01618
1226.56250	-6.38367	-348.11505	1.17939	1.15785
1230.46875	-12.83873	-335.60852	2.79138	-3.71952
1234.37500	-13.65275	-393.72864	-2.04343	-5.29274
1238.28125	7.69433	-415.06595	-11.71346	19.49406
1242.18750	3.25386	-333.32574	3.59818	19.46407
1246.09375	-35.03276	-387.56827	11.25419	-21.32881
1250.00000	-47.12889	-429.98166	6.82226	-30.36893
1253.90625	-64.46320	-447.81119	11.65778	-42.47842
1257.81250	-76.55937	-406.98874	11.65810	-57.48888
1261.71875	-81.40280	-312.97314	9.64377	-58.60501
1265.62500	-89.46974	-274.26263	5.61472	-64.75622
1269.53125	-87.06047	-295.57501	8.43555	-62.24092
1273.43750	-93.11276	-428.27075	8.83869	-68.78645
1277.34375	-84.65960	-380.50482	4.80968	-63.16983
1281.25000	-72.17717	-272.98413	8.03343	-48.84529
1285.15625	-64.93279	-290.64603	5.21323	-44.10790
1289.06250	-56.47963	-347.04840	0.37838	-40.90966
1292.96875	-50.44408	-439.89862	1.99038	-33.84791
1296.87500	-46.82612	-432.69269	2.39364	-26.96166
1300.78125	-42.40228	-340.23456	2.39393	-22.98004
1304.68750	-39.18725	-242.50462	0.78247	-22.24296
1308.59375	-37.18104	-330.20203	3.20037	-19.56140
1312.50000	-39.20414	-424.30981	6.02115	-16.63456
1316.40625	-39.21257	-333.05905	1.18629	-14.94401
1320.31250	-33.98295	-320.46353	-1.63397	-16.87209
1324.21875	-33.99142	-287.37177	-2.84239	-18.10170
1328.12500	-33.99987	-351.04892	-0.82744	-17.13381
1332.03125	-32.79957	-394.03421	-2.03594	-15.93544
1335.93750	-34.01689	-323.34271	-2.43857	-11.80392
1339.84375	-34.02544	-369.14822	1.59105	-8.36146
1343.75000	-29.19884	-406.28918	1.59139	-3.48126
1347.65625	-29.61026	-419.29706	0.78588	-7.83945
1351.56250	-29.61879	-395.45660	-1.22847	-9.58675
1355.46875	-30.43321	-302.80960	-5.66046	-10.68969
1359.37500	-31.65050	-200.56454	-2.03377	-13.56647
1363.28125	-25.61514	-232.56494	-0.42177	-5.38044
1367.18750	-19.98279	-385.89465	-2.43616	-2.55821
1371.09375	-19.18563	-302.90878	1.19050	-5.24257
1375.00000	-21.61189	-254.53140	2.39960	-3.54100
1378.90625	-20.00877	-272.79068	-0.42063	-5.08873
1382.81250	-18.80855	-318.98306	0.38562	-3.65537
1386.71875	-20.42882	-420.09558	0.38596	1.93276
1390.62500	-18.82574	-392.85007	-0.41961	-0.88516
1394.53125	-17.22263	-285.69687	-0.01633	-1.63648
1398.43750	-18.03718	-298.49506	2.40160	1.76099
1402.34375	-16.03113	-406.02066	6.02824	0.08040
1406.25000	-12.01041	-385.73233	4.81976	-1.62048
1410.15625	-12.42208	-278.92612	0.79079	1.47149
1414.06250	-14.04251	-253.28458	2.40288	5.90405
1417.96875	-14.85717	-182.95016	1.59731	2.54920
1421.87500	-14.06003	-286.12769	2.00059	-1.02629
1425.78125	-14.87466	-371.46170	4.41853	-1.13235
1429.68750	-17.30095	-234.77411	-1.62518	-1.39502
1433.59375	-19.72735	-330.57278	-2.02781	-3.07792
1437.50000	-24.16839	-360.47623	2.40473	-4.33522
1441.40625	-22.96837	-379.51074	2.40504	-3.75409
1445.31250	-16.53026	-362.37781	3.21117	-1.03681
1449.21875	-14.12147	-232.24042	4.42024	4.21611
1453.12500	-12.92157	-238.76408	2.80879	4.05753
1457.03125	-10.10986	-316.09808	-0.01141	0.04627
1460.93750	-10.92463	-345.64438	-2.02575	-0.85196
1464.84375	-10.12763	-219.06189	1.60091	-3.35008
1468.75000	-10.13654	-151.29506	2.00420	-6.27284
1472.65625	-8.13082	-94.33745	-1.21895	-6.53293
1476.56250	-6.93093	-203.70984	0.79603	-6.06330
1480.46875	-10.56626	-337.59232	-1.62124	-8.03610
1484.37500	-10.97821	-305.75790	-3.23263	-6.86623
1488.28125	-13.80768	-224.88132	-1.62063	-8.28342
1492.18750	-18.24890	-122.97891	-0.81441	-9.46260
1496.09375	-15.43736	-281.57806	1.20056	-6.94851
1500.00000	-19.47565	-410.10400	-1.61969	-10.39970
1503.90625	-23.51403	-282.37201	-4.43988	-5.54347
1507.81250	-17.07618	-208.45628	-1.61907	1.81088
1511.71875	-17.08523	-216.34050	-2.82750	-2.71440
1515.62500	-21.12356	-352.25293	-5.64773	-11.06913
1519.53125	-17.50616	-328.21634	-3.22978	-9.95850
1523.43750	-11.06838	-189.17146	-1.61775	-1.39877
1527.34375	-9.46572	-321.24863	1.60604	0.63988
1531.25000	-12.29528	-384.14142	1.60640	-2.80600
1535.15625	-11.90146	-413.71970	-4.84008	-2.30568
1539.06250	-10.29878	-367.48926	-6.85439	0.94265
1542.96875	-7.89030	-225.58034	-4.03358	1.93901
1546.87500	-6.69056	-155.92546	1.20482	3.51393
1550.78125	-8.71424	-188.44550	2.41394	1.94940
1554.68750	-11.54377	-325.76239	3.62305	-3.62329
1558.59375	-18.40268	-245.01517	4.83222	-5.09650
1562.50000	-13.57652	-181.22821	4.42971	-0.77104
1566.40625	-6.33285	-218.58727	5.63882	-0.04453
1570.31250	-9.56540	-291.72217	7.25090	-1.74327
1574.21875	-11.18626	-400.26242	6.84827	-3.33469
1578.12500	-6.76314	-321.37573	11.28085	-0.27368
1582.03125	-13.62211	-219.26247	12.89284	-7.51659
1585.93750	-24.10744	-154.26785	3.62575	-16.88667
1589.84375	-19.68431	-288.67447	6.04369	-15.09152
1593.75000	-23.72283	-411.60098	10.07329	-17.95761
1597.65625	-34.20817	-266.53656	6.85012	-22.06134
1601.56250	-37.44085	-184.91376	6.44750	-26.76147
1605.46875	-25.36219	-154.77043	20.55032	-21.22684
1609.37500	-38.26521	-257.52231	26.59456	-38.89998
1613.28125	-71.31474	-246.17575	21.35679	-72.06821
1617.18750	-78.97974	-150.97321	27.80403	-78.51745
1621.09375	-79.79503	-277.58157	39.89219	-79.46030
1625.00000	-105.99471	-321.22858	39.08656	-108.56168
1628.90625	-122.12115	-373.58762	28.61058	-128.36963
1632.81250	-112.86304	-313.39954	35.46063	-118.11839
1636.71875	-125.36315	-154.77449	38.68427	-126.52743
1640.62500	-120.13437	-143.44493	40.29619	-122.50106
1644.53125	-117.32317	-200.74060	41.10227	-126.18244
1648.43750	-120.15305	-355.66870	30.22340	-132.40085
1652.34375	-102.43342	-272.42691	27.40313	-116.21523
1656.25000	-110.50130	-156.23004	26.59745	-120.96178
1660.15625	-106.88429	-138.23647	26.59770	-115.99572
1664.06250	-88.35883	-204.68211	27.80672	-96.65594
1667.96875	-85.54776	-350.87592	26.59816	-91.68992
1671.87500	-80.31908	-264.73129	18.94277	-88.92078
1675.78125	-65.42016	-230.27673	15.71956	-67.05704
1679.68750	-58.98270	-223.22719	15.71980	-51.48362
1683.59375	-48.91881	-246.40283	10.07898	-46.98079
1687.50000	-34.01987	-370.93326	4.03528	-36.45668
1691.40625	-28.38827	-230.72871	-0.79962	-26.96517
1695.31250	-20.74206	-169.80537	-2.00816	-13.96873
1699.21875	-7.85775	-145.73108	-6.84302	-1.89623
1703.12500	8.24994	-269.06174	-6.84272	10.75274
1707.03125	8.64338	-329.64212	-9.66299	14.76342
1710.93750	8.23089	-183.35791	-14.90083	16.06405
1714.84375	15.47412	-232.28781	-14.49763	20.57629
1718.75000	16.67341	-165.18594	-15.70616	19.46920
1722.65625	22.70785	-263.35535	-15.30292	22.54916
1726.56250	26.72769	-291.09341	-15.30265	26.10818
1730.46875	30.74744	-180.69592	-18.12294	29.28917
1734.37500	30.33494	-183.63481	-19.33142	28.92452
1738.28125	30.72836	-93.37997	-18.92826	31.95292
1742.18750	37.16562	-315.87369	-17.31626	35.54914
1746.09375	42.79710	-285.92511	-16.51015	37.86956
1750.00000	39.96704	-103.92563	-16.50987	37.69376
1753.90625	31.89880	-44.41121	-16.91254	35.65738
1757.81250	27.05406	-167.19667	-16.91227	36.36106
1761.71875	28.25329	-341.95602	-14.89733	37.66234
1765.62500	32.27304	-248.46806	-16.10584	39.16668
1769.53125	32.26343	-158.59270	-15.70257	41.68182
1773.43750	30.23913	-36.65622	-15.29931	43.59770
1777.34375	29.82655	-179.49542	-16.50782	40.34968
1781.25000	26.99644	-338.73672	-16.10462	35.33342
1785.15625	24.16632	-191.21938	-15.70136	36.44431
1789.06250	25.76834	-187.60579	-14.49227	37.62773
1792.96875	24.14702	-68.93709	-13.68613	36.63075
1796.87500	19.30219	-214.86482	-12.47705	32.63773
1800.78125	17.27790	-348.47198	-12.47675	27.75483
1804.68750	19.68588	-98.45484	-12.07348	32.52120
1808.59375	21.69082	-145.88013	-11.26730	33.59099
1812.50000	18.86061	-152.97437	-14.89341	29.66789
1816.40625	18.44804	-271.26755	-14.89311	28.13505
1820.31250	20.45313	-292.13809	-11.26636	27.41586
1824.21875	26.48752	-60.02046	-10.86316	29.40973
1828.12500	24.46320	-41.52016	-12.47455	30.37763
1832.03125	20.02140	-104.26834	-12.87719	28.75550
1835.93750	21.62344	-153.67133	-10.86222	27.24590
1839.84375	22.01670	-101.98868	-10.05600	23.43556
1843.75000	23.21577	-146.40282	-10.05571	21.86885
1847.65625	21.99726	-31.29870	-8.04076	22.34570
1851.56250	15.13772	-96.52479	-6.83164	19.79249
1855.46875	13.51628	-339.94360	-7.23431	17.07786
1859.37500	10.28311	-210.32178	-7.63699	14.60398
1863.28125	7.85580	-94.87086	-5.62203	14.73134
1867.18750	11.87536	-31.44377	-4.41291	18.76238
1871.09375	11.86559	-161.22481	-0.78619	17.28705
1875.00000	7.02066	-330.04865	-1.59178	12.13870
1878.90625	7.81679	-106.57118	-4.00900	13.81429
1882.81250	9.01584	-23.04119	-3.20284	15.24746
1886.71875	7.39436	-18.20349	-4.41135	14.38853
1890.62500	8.99631	-112.66351	-3.20224	16.40560
1894.53125	8.58365	-126.00790	-1.99311	16.86291
1898.43750	9.78260	-115.45688	-3.60457	14.61922
1902.34375	11.78741	-221.79527	-2.79840	14.55013
1906.25000	14.19511	-232.55328	-0.78351	16.87835
1910.15625	10.55884	-365.51163	-1.99207	11.91158
1914.06250	5.31083	-277.43820	-3.20063	8.28543
1917.96875	6.10678	-31.85063	-5.61796	10.16862
1921.87500	9.72322	-32.30160	-4.00592	13.84577
1925.78125	8.50455	-73.73604	0.42660	15.35133
1929.68750	10.50928	-185.67882	0.02393	13.47683
1933.59375	12.91687	-88.49648	-2.39338	10.98797
1937.50000	12.10102	-62.81701	-2.39312	7.71588
1941.40625	15.31448	-55.68204	-1.98989	10.71455
1945.31250	17.31914	-109.48454	-1.98959	13.83475
1949.21875	13.27983	-285.59595	0.83121	11.02894
1953.12500	9.24051	-225.65866	3.65202	10.06438
1957.03125	3.99245	-191.00003	-0.37695	12.09702
1960.93750	5.19126	-141.59326	-1.58544	11.19872
1964.84375	11.62808	-234.62898	3.65296	11.92389
1968.75000	6.78299	-334.50415	2.04159	9.40400
1972.65625	5.96719	-119.21790	0.02727	7.12932
1976.56250	12.00131	-0.95648	3.25107	16.06071
1980.46875	9.17094	66.60636	2.04262	14.49096
1984.37500	5.93747	-176.37769	1.63995	4.37873
1988.28125	3.91286	-294.97424	2.44612	5.37916
1992.18750	3.50005	-36.75681	4.86390	8.63228
1996.09375	6.71365	-81.34889	4.05830	7.11733
2000.00000	5.89795	-124.07164	2.04390	8.90436
2003.90625	5.08226	-267.13031	2.85001	8.92560
2007.81250	8.69874	-294.37375	3.25326	12.65373
2011.71875	9.49471	-76.23666	3.65644	17.79886
2015.62500	1.42624	29.18446	0.03038	13.87652
2019.53125	-3.82177	16.53312	-0.37227	10.95801
2023.43750	-1.41407	-226.82530	0.83687	10.25049
2027.34375	2.60529	-188.88843	4.06064	8.25992
2031.25000	5.41581	-22.93805	3.25513	8.03769
2035.15625	7.82341	14.75201	3.65839	11.76151
2039.06250	3.78407	-26.07105	4.46466	13.39812
2042.96875	2.16224	-203.70839	0.83863	13.18575
2046.87500	0.94341	-181.62213	-1.98149	10.73147
2050.78125	-5.11068	-32.84587	-1.17529	8.36117
2054.68750	-6.73242	75.20104	-1.98077	7.22080
2058.59375	-3.11611	-103.96245	2.04893	7.35946
2062.50000	-3.12620	-252.94612	2.85517	5.64104
2066.40625	-1.92750	-66.70210	-3.59137	5.56176
2070.31250	0.07702	-4.87723	-1.57638	6.28061
2074.21875	2.08154	59.82093	1.64745	7.50981
2078.12500	5.69784	-133.69568	1.24498	5.73565
2082.03125	1.25540	-261.27570	-0.76928	4.93962
2085.93750	-0.76939	-14.98528	-1.97771	8.06046
2089.84375	-1.18234	-92.19868	-0.36560	8.24407
2093.75000	-4.01298	-71.70316	-1.17102	4.97527
2097.65625	-4.02302	-222.00797	2.85869	2.48337
2101.56250	-0.00382	-274.18076	4.06789	5.84200
2105.46875	2.40361	-39.37159	-1.16981	8.95912
2109.37500	-1.63585	-2.73187	-1.16944	12.23832
2113.28125	-3.66064	4.16131	-3.58665	10.09581
2117.18750	1.16432	-201.64845	-5.60090	0.82618
2121.09375	5.58635	-194.91084	-3.98877	-0.92246
2125.00000	6.38199	-3.67207	-6.40600	-1.01280
2128.90625	5.96885	51.93224	-7.61445	-2.28592
2132.81250	11.19662	-72.84545	-9.22581	-1.30196
2136.71875	15.61858	-262.37567	-7.61374	6.00332
2140.62500	3.52038	-165.64952	0.44525	6.40321
2144.53125	-5.35443	-76.70464	3.26606	2.31904
2148.43750	-10.19991	-13.26626	3.26640	4.96517
2152.34375	-11.41902	-108.94678	2.86379	5.43659
2156.25000	-5.78832	-182.15120	1.65532	8.34584
2160.15625	-6.20167	-30.81195	4.07322	10.89441
2164.06250	-11.45016	-88.01313	2.05889	8.47597
2167.96875	-13.07225	-54.11890	-0.35840	5.78638
2171.87500	-8.65036	-219.82767	2.86535	3.31737
2175.78125	-13.89884	-344.95688	6.08910	1.81117
2179.68750	-20.35611	-59.50533	0.44839	-0.34434
2183.59375	-18.35187	-103.65634	-5.59533	-5.51182
2187.50000	-15.94471	-149.23438	-1.56573	-2.64337
2191.40625	-10.31415	-266.52496	3.26976	2.41587
2195.31250	-10.32455	-281.77893	0.04660	1.71267
2199.21875	-13.96130	-57.87412	-3.17654	1.29437
2203.12500	-11.15123	9.35865	-3.17624	3.87006
2207.03125	-9.95284	-2.89130	-0.75832	6.67202
2210.93750	-11.57498	-222.08829	0.45081	7.56974
2214.84375	-11.18241	-136.86639	0.04815	10.87323
2218.75000	-13.61046	30.54268	2.86896	10.57195
2222.65625	-16.44139	31.47191	2.46637	3.17585
2226.56250	-12.01958	-67.60577	2.46664	3.10851
2230.46875	-10.01543	-219.53967	3.27277	2.26020
2234.37500	-10.02594	-176.97234	2.46718	-0.11915
2238.28125	-4.39545	-66.19154	2.87033	6.53553
2242.18750	-2.79419	56.60397	6.09405	11.74354
2246.09375	-1.99890	-119.76921	7.30312	10.84053
2250.00000	-4.02412	-308.48996	0.85648	8.24712
2253.90625	-7.25795	-86.61878	-1.96375	7.01674
2257.81250	-6.05948	16.61671	-1.96346	8.12357
2261.71875	-7.68172	79.16117	-1.15730	5.79857
2265.62500	-7.28936	-112.64806	0.85769	3.67653
2269.53125	-8.91177	-192.02721	-1.96249	3.77396
2273.43750	-10.13122	38.27455	0.45534	4.07809
2277.34375	-6.91831	-100.96181	6.90236	7.67993
2281.25000	-6.12310	-66.81876	2.87331	9.11060
2285.15625	-5.73081	-175.58762	-0.75280	7.40094
2289.06250	-5.33835	-232.43834	0.05319	8.18149
2292.96875	-7.36342	53.42220	0.05331	4.36412
2296.87500	-6.97077	150.84128	0.05341	4.40061
2300.78125	-2.54891	96.18648	0.45642	5.96481
2304.68750	-6.99140	-88.17877	1.26224	2.26985
2308.59375	-7.80748	-9.91301	0.45631	2.13121
2312.50000	-7.01174	73.62943	-1.55848	3.04362
2316.40625	-13.87177	109.23328	-5.18490	-2.92130
2320.31250	-11.46439	84.71544	-3.57328	-1.22275
2324.21875	-7.04241	-104.25288	-1.55867	3.18886
2328.12500	-8.26151	-9.62416	-3.17040	2.14217
2332.03125	-5.45135	86.76146	0.05304	1.72904
2335.93750	-3.44713	149.35092	-0.34991	3.84597
2339.84375	-6.68103	-53.64070	-3.97623	3.25907
2343.75000	-10.72077	-257.23679	-3.57326	-3.54567
2347.65625	-12.34299	-20.47211	-3.17020	-3.87468
2351.56250	-15.57708	77.46520	-3.17006	-2.80160
2355.46875	-14.37900	113.65920	-1.15524	-5.91937
2359.37500	-9.55462	-2.52762	-1.15500	-5.97591
2363.28125	-11.58008	-1.53336	-1.96055	-6.25162
2367.18750	-11.59092	99.74504	-2.36319	-3.02663
2371.09375	-9.58715	-1.45183	-1.15404	1.54177
2375.00000	-9.59798	-34.10840	-1.55661	-0.78620
2378.90625	-10.81765	-217.61432	-3.16788	-3.94609
2382.81250	-7.20218	-132.90042	0.05603	1.51617
2386.71875	-7.21301	170.48508	-1.95817	1.46287
2390.62500	-9.23851	153.76773	-0.74889	-3.77299
2394.53125	-4.41425	26.37124	1.66914	-2.10710
2398.43750	-4.42516	-202.44240	-3.97140	-1.53052
2402.34375	-8.86837	-69.86632	-3.16508	0.01195
2406.25000	-5.65586	107.11854	2.07350	0.72833
2410.15625	-2.04042	111.53709	7.31208	-1.01524
2414.06250	-5.67783	58.96641	4.89496	0.59650
2417.96875	-5.28588	-178.18105	2.88078	2.88232
2421.87500	-5.29688	-102.90628	5.70173	2.52987
2425.78125	-5.71084	84.09714	4.09046	-0.80000
2429.68750	-10.55701	156.27141	2.88207	-4.68931
2433.59375	-15.00029	-33.85715	3.28547	-5.56676
2437.50000	-7.75857	-174.61241	0.86832	-0.78045
2441.40625	-8.17249	45.64848	1.67463	-1.81124
2445.31250	-9.39225	123.58085	4.09269	-3.92942
2449.21875	-5.77696	72.75804	3.69020	-1.49739
2453.12500	-4.98211	-123.18834	2.48194	3.58177
2457.03125	-4.99305	-55.11029	0.87067	2.79369
2460.93750	-3.39226	133.28322	1.67699	-2.93999
2464.84375	-3.00030	63.99577	0.06576	-5.43835
2468.75000	-7.04053	24.53756	-1.14261	-6.74960
2472.65625	-9.46908	-169.17403	-0.33632	-6.60708
2476.56250	-9.88300	-165.77260	-2.35050	-9.36112
2480.46875	-9.49102	103.63457	-2.75296	-9.72240
2484.37500	-8.29334	125.75539	-5.17015	-7.74693
2488.28125	-3.87213	73.21712	-2.34924	-4.32922
2492.18750	-1.06264	1.00707	-3.15468	-7.52331
2496.09375	-4.29712	57.12207	-5.97481	-9.44171
2500.00000	-4.71106	149.35745	0.87535	-4.83449
2503.90625	-6.33382	81.62387	-1.54186	-8.43985
2507.81250	-5.13604	-98.35211	-3.95900	-8.33842
2511.71875	-3.53536	-153.42575	-0.73519	-6.41702
2515.62500	-5.15818	-0.88713	2.48860	-7.11635
2519.53125	-5.97510	73.46958	2.08601	-7.61765
2523.43750	-4.77742	132.28529	2.08638	-3.89329
2527.34375	-2.77388	36.02314	1.68376	0.96554
2531.25000	-2.78500	-20.47005	-0.73343	5.57807
2535.15625	-4.40782	115.10625	-0.73306	5.67526
2539.06250	-5.22472	89.97316	1.68486	4.49106
2542.96875	-5.63872	140.77428	1.68522	6.69609
2546.87500	-4.84398	-71.66811	0.47689	3.83856
2550.78125	-6.06388	-228.74127	-1.94029	-0.54656
2554.68750	-7.28380	50.12309	-3.55165	-0.47853
2558.59375	-8.50376	48.62702	-3.55129	-2.35488
2562.50000	-5.69437	-45.58128	-3.95386	-1.65602
2566.40625	-1.67620	-237.71239	0.47874	-1.33264
2570.31250	-1.68732	-161.00534	3.29959	-3.43450
2574.21875	-2.50431	128.10036	4.10574	2.22667
2578.12500	-6.54477	184.78082	0.88262	2.46684
2582.03125	-3.33242	172.01384	0.48008	4.08822
2585.93750	-0.92594	-161.13385	4.10678	6.80586
2589.84375	-6.57810	-114.26974	2.09251	-0.26362
2593.75000	-8.60382	135.87256	-0.72760	-4.33857
2597.65625	-7.00319	152.76073	0.88448	-2.39850
2601.56250	-5.80555	61.07759	2.89950	-3.06944
2605.46875	-7.42840	-104.24796	-0.72651	-6.80233
2609.37500	-4.21616	-16.86403	-3.14380	-5.94085
2613.28125	-1.00396	32.31262	0.88581	1.18379
2617.18750	-0.20927	96.44378	0.48326	4.80766
2621.09375	1.79420	16.93280	1.28947	3.46184
2625.00000	3.79777	-143.61154	3.30446	4.58025
2628.90625	2.57786	145.26425	0.88722	6.12746
2632.81250	0.95493	223.13669	-0.72413	3.88770
2636.71875	2.15254	244.31671	-1.52974	4.74586
2640.62500	0.93250	79.11573	-5.15577	0.71332
2644.53125	4.54760	-26.57963	-3.54375	-0.55064
2648.43750	3.32757	203.64761	-3.94630	0.08062
2652.34375	-2.32468	86.18398	-9.18404	-7.10385
2656.25000	-0.32120	6.10624	-7.57198	-4.59754
2660.15625	0.07061	-115.36166	-5.15405	-4.46658
2664.06250	-2.76109	-52.51506	-5.55669	-7.69104
2667.96875	-2.36948	196.92204	-7.57103	-3.12800
2671.87500	-0.36610	152.47171	-6.36191	1.25276
2675.78125	-1.58610	190.90935	-5.95864	-1.46222
2679.68750	0.01449	85.89677	-7.16713	-4.02064
2683.59375	1.21212	114.65144	-5.95802	0.48229
2687.50000	-0.41086	223.77541	-5.15187	2.54487
2691.40625	-2.03382	256.35208	-5.15158	-0.05167
2695.31250	-4.05975	196.75281	-5.95716	-2.36671
2699.21875	-6.08572	39.05714	-0.71881	0.03540
2703.12500	-6.90293	80.47609	-3.94200	-0.61249
2707.03125	-11.74940	177.79813	-13.20911	-9.49565
2710.93750	-10.14901	225.72064	-9.17954	-10.20980
2714.84375	-2.10173	56.67085	-1.52364	-1.66835
2718.75000	-0.90429	-120.85389	-1.12042	-0.35803
2722.65625	-2.52742	87.96230	-3.13479	-3.32208
2726.56250	5.92274	89.59262	2.90944	3.05741
2730.46875	4.29968	122.98357	5.73018	4.22367
2734.37500	-1.35275	35.78435	2.50704	-2.18511
2738.28125	0.24753	-29.13757	0.89555	-3.58915
2742.18750	-1.77849	159.31113	1.29875	-2.41062
2746.09375	-2.19277	76.39275	3.71660	-0.89609
2750.00000	-0.59245	22.22701	2.50821	0.94266
2753.90625	-4.23017	41.80294	0.49389	0.51781
2757.81250	-7.86790	115.19500	4.12059	2.43020
2761.71875	-9.49090	178.11696	5.73266	2.52270
2765.62500	-7.48762	186.53999	2.10666	-0.80826
2769.53125	-9.91657	194.97644	1.30120	2.10982
2773.43750	-11.94264	-98.15347	2.51039	5.63732
2777.34375	-7.11899	-88.33078	2.51072	4.00100
2781.25000	-4.30999	104.13992	0.49641	5.02851
2785.15625	-0.29227	171.42729	-0.30918	5.33328
2789.06250	0.90501	123.01478	0.09412	1.27835
2792.96875	-2.33000	-155.25212	0.90031	-0.92772
2796.87500	-4.35620	-9.50761	0.90068	-3.30926
2800.78125	-1.54723	191.67308	1.30404	-0.53684
2804.68750	-1.96172	218.82181	2.51323	1.00568
2808.59375	-1.97339	81.49539	6.14004	-3.16312
2812.50000	-2.79100	-103.34012	5.73761	-3.46029
2816.40625	-4.41453	102.67721	5.33521	-0.15872
2820.31250	-4.02362	223.99503	5.73859	0.33003
2824.21875	-2.02103	218.73976	1.70981	-0.49746
2828.12500	-0.82435	89.71929	-2.72186	-2.35100
2832.03125	-1.23935	58.35031	-2.31846	-3.16813
2835.93750	-1.25140	113.25873	-0.70620	-5.08141
2839.84375	-4.89000	15.40637	-3.92915	-8.48970
2843.75000	-6.11100	49.91783	-4.33158	-1.19287
2847.65625	-4.91438	-96.93223	0.10119	3.71525
2851.56250	-4.12078	-104.99261	0.90751	0.35530
2855.46875	-3.73007	145.93724	-1.50962	-0.74843
2859.37500	-5.35409	184.04796	-1.91204	-2.82029
2863.28125	-3.35155	203.95650	-0.70278	-0.27614
2867.18750	-1.34907	-65.08342	1.71520	0.53074
2871.09375	-1.76419	-29.71293	1.31269	-5.37773
2875.00000	-4.99971	189.03447	-2.31333	-8.51211
2878.90625	-6.62354	171.91444	-3.11879	-5.22546
2882.81250	-2.20345	109.93806	2.11970	-1.37534
2886.71875	-6.24467	-6.15268	1.71713	-9.08459
2890.62500	-9.48001	25.05224	-3.52064	-12.70905
2894.53125	-9.49192	54.37038	-3.92322	-12.25213
2898.43750	-11.51842	212.34563	-1.10243	-8.04940
2902.34375	-10.32140	93.87086	0.91251	-3.28354
2906.25000	-10.73608	-100.67203	0.50990	-7.40240
2910.15625	-10.34485	97.93380	0.51014	-8.74294
2914.06250	-8.74467	213.35973	-1.50428	-6.72811
2917.96875	-6.74168	234.46687	-3.51860	-2.83043
2921.87500	-2.32116	109.05853	0.10810	0.84670
2925.78125	-1.92977	92.95822	0.91422	0.33769
2929.68750	0.07340	191.29660	0.91451	0.07502
2933.59375	-3.96737	93.81599	0.10893	-1.60797
2937.50000	-0.75548	62.23051	2.92968	4.38746
2941.40625	5.27683	-107.97305	6.95923	7.78921
2945.31250	3.25060	-152.55870	4.13901	5.26853
2949.21875	2.83604	112.89297	1.31879	8.90982
2953.12500	3.22737	245.31020	2.12491	9.96010
2957.03125	1.20117	223.51004	4.54281	10.38121
2960.93750	2.39840	-17.64652	6.55775	10.69192
2964.84375	5.61021	54.06549	6.15509	8.19378
2968.75000	1.97223	263.99609	2.93195	8.09154
2972.65625	1.15486	250.37067	4.14104	6.62275
2976.56250	6.78420	134.48099	6.15595	6.28656
2980.46875	5.56384	-25.25966	0.11230	4.71680
2984.37500	-3.71515	74.19658	-3.11089	-0.56002
2988.28125	-2.11513	166.28500	-0.29016	0.03752
2992.18750	0.69373	244.34399	-4.72203	0.47016
2996.09375	1.08497	145.30765	-5.12475	-1.44778
