 	TP9	AF7	AF8	TP10	
-1000.00000	1.86715	-3.99145	1.54044	3.40413
-996.09375	10.32896	2.05270	4.36140	3.18571
-992.18750	11.13508	8.09685	6.77943	7.66444
-988.28125	3.07679	5.27642	10.00323	12.20701
-984.37500	-4.17576	3.26192	10.80953	13.84717
-980.46875	-10.62249	0.44154	11.21284	11.07621
-976.56250	-11.02524	0.44167	7.98983	3.69759
-972.65625	5.09219	4.47111	4.76682	1.68064
-968.75000	9.92756	7.29176	7.18482	7.70955
-964.84375	1.06322	8.09780	9.19989	6.49355
-960.93750	-4.98064	6.48615	5.97688	5.03270
-957.03125	-3.77162	3.26286	2.35096	4.60790
-953.12500	2.27263	3.26302	3.15727	3.76852
-949.21875	-2.56230	4.06906	4.76942	4.03144
-945.31250	1.06435	2.45745	4.76989	5.98587
-941.40625	5.49678	1.65177	6.38208	7.03197
-937.50000	-4.57621	1.65193	5.17375	6.72029
-933.59375	-6.59060	0.84623	5.98006	10.70294
-929.68750	-2.56100	-3.98880	9.20395	12.45553
-925.78125	-1.35192	-5.19744	8.39861	15.14681
-921.87500	9.12456	-2.77964	4.77271	17.07423
-917.96875	13.55705	-0.76482	3.56443	19.70306
-914.06250	11.54259	1.24996	2.35613	17.64718
-910.15625	8.72228	2.45889	-0.46388	11.62783
-906.25000	9.12546	1.65316	1.55128	12.22079
-902.34375	19.19900	0.44447	3.16342	10.17886
-898.43750	22.42274	-1.57007	1.55217	7.29071
-894.53125	14.76735	-3.18162	3.16432	11.30245
-890.62500	12.35012	-2.77851	6.38821	12.42765
-886.71875	17.99141	1.65393	4.37404	11.71516
-882.81250	16.38003	4.87754	0.74808	10.11899
-878.90625	13.15675	2.46014	1.15144	10.98261
-875.00000	0.66596	1.65450	1.55483	12.61820
-871.09375	-2.55755	3.26634	3.97281	12.03391
-867.18750	7.11274	3.66945	5.58506	10.81086
-863.28125	-1.75179	0.44621	-0.05552	8.83689
-859.37500	-3.76652	-1.97118	-2.87556	7.80995
-855.46875	4.29199	-3.17975	-0.86040	5.07154
-851.56250	3.48582	-3.17957	-0.45696	6.41683
-847.65625	4.69431	-1.16471	-0.85938	5.88389
-843.75000	6.70865	0.44714	0.34996	5.93132
-839.84375	-0.54438	2.86489	-0.05248	5.02465
-835.93750	-1.75347	-0.35843	0.75389	1.95734
-832.03125	1.46966	-1.97002	3.17201	1.21742
-828.12500	0.26055	1.65656	4.78424	2.98036
-824.21875	-0.94828	1.65679	5.18774	4.22511
-820.31250	1.06633	-0.35764	-0.04977	3.02958
-816.40625	7.11033	1.25426	-4.48145	0.05072
-812.50000	11.54262	2.86618	-6.09260	0.06261
-808.59375	10.73682	1.65752	-4.48036	6.93919
-804.68750	5.09598	3.67232	-0.45049	6.94573
-800.78125	0.66395	2.46370	1.16178	1.42297
-796.87500	-0.14164	3.26975	-1.25524	7.40929
-792.96875	7.11145	8.10513	2.77460	11.41358
-789.06250	18.39386	9.71699	7.20738	11.31509
-785.15625	19.20009	10.12012	3.98443	13.28916
-781.25000	10.73902	6.49391	3.17906	13.09827
-777.34375	9.53074	4.47944	6.40293	12.34521
-773.43750	8.72522	10.12062	7.20923	13.91271
-769.53125	3.08463	12.53833	6.80675	14.49682
-765.62500	1.87621	6.49459	6.00120	13.58663
-761.71875	3.48830	2.06252	6.80751	17.10242
-757.81250	3.08583	1.25682	5.59913	18.48204
-753.90625	5.10090	4.07757	5.19657	11.18437
-750.00000	7.92179	4.07772	2.77935	7.62073
-746.09375	14.36910	0.04851	-0.44364	8.64616
-742.18750	15.98130	-3.17468	-2.45794	9.00375
-738.28125	6.31152	-5.18918	-1.24875	9.70051
-734.37500	-4.16421	-2.36842	-2.05418	7.65861
-730.46875	-2.95498	-1.15944	-3.66544	5.59563
-726.56250	0.26886	-2.77104	-1.65044	3.30512
-722.65625	-3.76002	-8.41185	-2.45596	4.11442
-718.75000	-6.58010	-9.21755	-2.05259	4.13064
-714.84375	1.88183	-3.57628	-3.26095	2.12436
-710.93750	2.28509	-3.57608	-3.26053	2.37753
-707.03125	0.67369	-5.18765	-1.24546	7.23576
-703.12500	3.89745	-6.39615	2.38137	11.70262
-699.21875	5.10655	-6.39596	0.36715	8.62036
-695.31250	9.13620	-6.79878	-2.45299	8.68169
-691.40625	1.48089	-7.60440	-4.06428	6.83090
-687.50000	-1.33922	-7.20128	-3.25802	4.32326
-683.59375	3.09342	-5.99225	-1.64587	5.17693
-679.68750	10.34651	-3.97739	-3.66007	2.61954
-675.78125	9.94388	-3.97716	-5.67438	0.73525
-671.87500	-2.14368	-5.18576	-5.27104	-1.19094
-667.96875	-7.38141	-2.76796	-4.86764	-0.19231
-664.06250	-7.38105	-2.76773	-6.07605	4.28228
-660.15625	-7.38070	-5.18514	-4.86681	4.25889
-656.25000	-0.93352	-4.37908	-6.07517	5.68179
-652.34375	1.48431	-2.76722	-4.06013	8.93375
-648.43750	11.15497	-0.75242	-1.64212	11.82305
-644.53125	13.57285	1.66529	-2.04463	9.82706
-640.62500	3.09697	1.26245	-2.04421	5.88239
-636.71875	-1.73793	0.85967	0.37385	6.99891
-632.81250	-4.15520	2.87447	3.59771	3.35788
-628.90625	-2.54325	2.87461	-0.02828	-0.72830
-625.00000	4.70976	0.86002	-1.23668	1.66633
-621.09375	7.12763	-2.36332	-0.02751	0.63967
-617.18750	-0.52785	-3.97500	0.37579	1.05751
-613.28125	0.27821	-0.75144	1.18195	3.83812
-609.37500	-0.12442	2.87502	-0.02649	-1.98405
-605.46875	-1.73591	0.86043	1.18266	-2.06547
-601.56250	3.90538	-2.36288	4.00354	4.24562
-597.65625	5.92033	-1.95987	-0.02541	7.59971
-593.75000	11.96460	-1.55684	-2.84554	4.73240
-589.84375	14.78546	-1.55676	-0.02466	3.22209
-585.93750	13.57704	2.87560	0.37868	10.31927
-582.03125	8.74214	3.68157	-1.63559	13.07438
-578.12500	-0.52498	0.05531	-2.03808	9.29746
-574.21875	-0.52471	-2.36207	-2.84348	6.03874
-570.31250	1.08727	-1.95906	0.38043	5.22044
-566.40625	1.08754	-1.95894	1.58961	4.17080
-562.50000	-0.92675	-2.36172	-2.03643	2.54802
-558.59375	-8.98522	-2.76459	-2.84188	-2.71584
-554.68750	-1.32933	0.05602	-5.25905	-5.13893
-550.78125	3.90899	2.07083	-6.46744	-7.27088
-546.87500	-4.14937	1.26508	-6.06406	-4.79463
-542.96875	-2.53744	-2.36115	-5.66073	2.08130
-539.06250	2.70089	-3.16692	-2.83984	1.37495
-535.15625	3.50706	-1.55512	-0.42187	4.64014
-531.25000	-8.17756	-3.56964	-2.03322	2.41462
-527.34375	0.68720	-3.16659	-4.04750	-0.86039
-523.43750	13.98422	0.05695	-4.04710	-4.44149
-519.53125	5.92586	1.26587	-2.83787	-5.42742
-515.62500	-3.74437	-2.76334	-2.83749	-2.50144
-511.71875	-5.75888	-2.36030	-2.43423	-5.21031
-507.81250	-8.17626	0.05734	0.38669	-2.96239
-503.90625	-7.37024	-4.37471	0.78997	-0.49887
-500.00000	-10.99663	-8.00094	-2.83594	-2.57533
-496.09375	-17.04068	-6.79199	-2.02966	-3.19695
-492.18750	-4.14709	-6.38881	-2.02927	-2.74789
-488.28125	-4.14733	-6.79165	-5.65522	-3.84680
-484.37500	-10.59451	-6.38853	-5.65479	-2.60997
-480.46875	-2.53625	-3.16502	-2.83383	5.09468
-476.56250	0.28386	-1.95614	-3.23627	10.60923
-472.65625	2.29812	-6.38820	-5.25041	4.96532
-468.75000	3.10348	-7.19402	-3.63810	0.11442
-464.84375	-1.73218	-4.77630	-3.23471	-1.10219
-460.93750	-8.17949	-4.77622	-4.84588	-3.36945
-457.03125	-6.16531	-4.77612	-5.24836	-3.39195
-453.12500	-4.55412	-5.98481	-1.62145	-3.42608
-449.21875	-4.15161	-6.38759	-5.24736	-3.56674
-445.31250	-2.13729	-2.76118	-11.29081	-6.44804
-441.40625	-8.98745	-0.74643	-10.48454	-5.40252
-437.50000	-3.74968	0.46246	-10.88700	-3.29712
-433.59375	-3.74999	0.46256	-10.48369	-6.56770
-429.68750	-7.37651	-0.34320	-8.87148	-6.83021
-425.78125	2.29360	-0.74604	-8.87104	-7.76574
-421.87500	-0.52712	-3.56641	-10.07940	-11.88268
-417.96875	-3.34768	-3.96924	-7.66145	-10.46288
-414.06250	-3.34764	-0.34271	-7.25804	-10.50445
-410.15625	-10.60030	-1.55138	-10.88399	-9.67417
-406.25000	-4.15316	-3.56586	-12.09241	-9.48432
-402.34375	0.68225	-3.96872	-12.09208	-15.15282
-398.43750	-4.15268	-5.17739	-13.30056	-11.19123
-394.53125	-6.57000	-1.95380	-10.07673	-3.95597
-390.62500	-3.74919	0.86685	-9.67356	-4.03944
-386.71875	-2.13714	-1.95361	-12.89665	-10.39283
-382.81250	-10.19536	-2.75939	-10.07588	-15.21221
-378.90625	-12.20966	-3.16217	-6.44928	-11.93072
-375.00000	-13.01507	-5.17674	-8.46365	-9.89179
-371.09375	-11.40274	-7.99715	-10.88097	-9.66979
-367.18750	-6.96999	-8.39995	-8.06023	-7.66883
-363.28125	-8.98415	-4.77348	-5.64240	-3.59833
-359.37500	-10.19237	-5.17632	-7.25387	-3.81886
-355.46875	-7.37134	-6.38489	-9.26829	-10.98877
-351.56250	-10.99726	-4.77308	-9.67098	-11.65746
-347.65625	-14.22023	-3.56415	-5.64141	-7.35456
-343.75000	-8.57867	-4.77286	-0.80601	-6.09772
-339.84375	-2.53430	-5.98155	-2.41753	-4.98904
-335.93750	4.71890	-6.38432	-2.82019	1.61466
-332.03125	-0.51876	-7.99602	-4.83453	4.50189
-328.12500	-8.17397	-10.81639	-6.04301	-0.58428
-324.21875	-10.18817	-10.01041	-6.04270	-4.97996
-320.31250	-12.60537	-9.20448	-6.84827	-2.95160
-316.40625	-4.54636	-9.60726	-7.25087	4.54621
-312.50000	-6.96352	-8.80126	-8.05643	3.34970
-308.59375	-9.78358	-5.17478	-4.42982	3.37673
-304.68750	-1.72460	-4.36873	-3.22079	8.21870
-300.78125	-0.51542	-7.59199	-4.42935	7.53135
-296.87500	-1.72382	-7.59182	-7.24958	6.66795
-292.96875	-4.14097	-5.17413	-8.86098	2.61371
-289.06250	-4.54350	-5.57691	-6.84613	0.09769
-285.15625	-4.94610	-5.97969	-6.44297	-2.76326
-281.25000	-3.33395	-4.36777	-10.47194	-0.53655
-277.34375	-5.75118	-5.97935	-10.87446	1.53098
-273.43750	-2.93025	-3.56159	-6.84485	4.30742
-269.53125	5.53162	-2.35264	-3.21819	6.90619
-265.62500	4.72612	-6.78478	-4.42668	3.98134
-261.71875	-2.52626	-9.60515	-7.64984	2.66203
-257.81250	-0.10826	-9.60499	-4.82900	3.63872
-253.90625	9.96539	-7.99312	-5.23169	5.20557
-250.00000	12.38340	-7.58998	-6.84309	12.92405
-246.09375	7.54862	-5.97810	-3.21643	13.54658
-242.18750	2.31094	-6.78378	-1.60435	3.83094
-238.28125	-3.32974	-11.21586	-1.60399	2.91600
-234.37500	-7.76169	-12.42453	-1.60365	8.12678
-230.46875	-3.73209	-13.63316	0.00839	12.10772
-226.56250	-0.91116	-14.03596	-2.40888	16.66695
-222.65625	-2.11966	-12.02118	-4.42317	20.69969
-218.75000	-0.10463	-10.00633	-4.42279	17.89545
-214.84375	1.10459	-3.55924	-2.81067	14.27750
-210.93750	0.70199	-5.97670	-3.21328	10.90439
-207.03125	3.52281	-10.81171	-10.46572	6.09232
-203.12500	6.34365	-5.17050	-14.09168	7.73877
-199.21875	2.71756	-3.55854	-10.06201	9.08884
-195.31250	3.92671	-3.96134	-9.25586	5.52385
-191.40625	5.13585	-1.54356	-8.85253	9.31411
-187.50000	-2.92243	-2.34922	-5.62884	10.43273
-183.59375	1.10717	-4.36372	-2.40512	6.85409
-179.68750	5.53962	-7.58700	-4.82236	5.10261
-175.78125	-6.95096	-8.79568	-6.03090	5.63596
-171.87500	-7.75648	-4.76625	-3.61297	2.50092
-167.96875	-0.10047	-5.16904	-6.43326	3.09678
-164.06250	-1.71191	-7.18353	-7.23880	4.34793
-160.15625	-4.12917	-7.58626	-4.82092	1.10103
-156.25000	-6.54653	-10.00371	-6.02943	2.12094
-152.34375	-7.35214	-10.00354	-9.65552	1.74652
-148.43750	1.51249	-9.19749	-8.44646	4.23285
-144.53125	6.75090	-11.21193	-6.02856	6.26604
-140.62500	0.30440	-11.61460	-6.02822	4.33606
-136.71875	-0.50104	-8.39101	-7.63968	6.25841
-132.81250	5.54325	-4.36151	-6.83347	4.22927
-128.90625	3.52893	-3.15252	-4.41561	-1.46860
-125.00000	-1.70890	-5.16703	-3.20653	-5.11788
-121.09375	-6.14077	-5.16683	-5.22089	-4.53275
-117.18750	-6.14046	-7.58418	-6.02641	-0.89136
-113.28125	-3.31964	-9.59866	-11.26422	-0.12533
-109.37500	-4.12517	-7.18091	-10.05514	-1.51528
-105.46875	-2.91604	-5.97192	-3.20515	0.82084
-101.56250	-4.12450	-9.59809	-6.83125	3.90844
-97.65625	-4.12415	-12.41846	-9.65155	4.03916
-93.75000	-3.31799	-5.56847	-6.42789	2.38057
-89.84375	-7.34701	-3.95663	-7.23348	2.07903
-85.93750	-5.73505	-10.00039	-9.24791	-0.49410
-82.03125	-6.13758	-11.61188	-8.44178	-2.17133
-78.12500	-3.31684	-9.19420	-6.82975	0.49850
-74.21875	5.14496	-4.76177	-4.00899	6.10422
-70.31250	-4.92802	-5.56748	-8.84382	0.45078
-66.40625	-11.37455	-9.59660	-11.26119	-3.01643
-62.50000	-0.89810	-9.19353	-12.46972	2.21061
-58.59375	0.31091	-3.95523	-14.48413	2.58770
-54.68750	0.31118	-0.73157	-12.87207	1.77625
-50.78125	3.93789	-1.13428	-12.06599	6.09125
-46.87500	-0.49400	-1.13406	-11.66279	2.12068
-42.96875	-5.73180	2.08959	-10.05064	-3.89721
-39.06250	-0.49347	0.88101	-12.87086	-2.99170
-35.15625	3.93890	-5.96867	-15.28820	-4.96471
-31.25000	-8.55173	-7.58016	-14.48214	-6.78731
-27.34375	-16.20718	-4.75949	-15.28767	-2.00370
-23.43750	-11.37170	-9.19159	-14.88451	1.66804
-19.53125	-3.31281	-11.20606	-14.88421	2.69687
-15.62500	5.55194	-7.57949	-12.86920	4.81721
-11.71875	5.55230	-5.16179	-11.25721	6.13788
-7.81250	6.76146	-3.54985	-8.43642	2.34205
-3.90625	4.74708	-5.16150	-10.45083	0.37355
0.00000	-0.08789	-5.96724	-10.85346	4.74429
3.90625	1.52406	-3.54949	-7.62978	6.54073
7.81250	1.12147	-2.34052	-8.03242	6.58738
11.71875	2.73345	-3.95215	-6.01748	8.71247
15.62500	-0.48971	-6.36952	-4.80844	6.72639
19.53125	3.13700	-3.95184	-7.62876	9.19365
23.43750	7.97242	-2.74287	-8.03141	11.48547
27.34375	5.15224	-1.93685	-4.80768	9.06576
31.25000	6.76427	-0.72788	-3.59863	13.48310
35.15625	9.98804	-3.14530	-5.21023	13.87895
39.06250	2.33271	-8.78619	-4.00121	8.79191
42.96875	-5.72559	-7.57724	-6.41857	9.17311
46.87500	-5.32233	-6.36824	-9.23883	3.49867
50.78125	-0.08395	-8.78569	-8.02982	4.56755
54.68750	3.13979	-7.97971	-8.02964	8.13385
58.59375	2.33421	-7.57664	-10.44706	1.92732
62.50000	4.75205	-5.15898	-13.67028	-2.81649
66.40625	7.57293	-2.33827	-13.26710	-3.26584
70.31250	5.55873	-3.14406	-14.47566	-5.54239
74.21875	-6.12576	-8.78497	-15.28120	-10.10368
78.12500	-18.21336	-9.99365	-10.84867	-12.20529
82.03125	-17.80997	-5.96427	-8.83367	-7.15870
85.93750	-13.37742	-5.15834	-10.04226	-5.18513
89.84375	-4.10969	-3.14355	-8.83324	-4.35448
93.75000	3.94919	2.90047	-7.62431	1.07375
97.65625	1.53190	-1.93468	-9.23578	-0.96806
101.56250	-0.48245	-7.97859	-11.25014	0.57616
105.46875	-1.69097	-6.76972	-12.45871	2.17053
109.37500	-8.54049	-9.18723	-10.84676	1.28125
113.28125	-8.13732	-12.41059	-11.65239	1.77771
117.18750	-2.09310	-9.99291	-13.66677	1.39059
121.09375	0.72768	-6.36643	-15.27823	4.67213
125.00000	1.13097	-6.76938	-13.26339	3.48761
128.90625	-0.07745	-11.60439	-10.44265	2.90381
132.81250	-5.71816	-12.41026	-11.65124	4.09886
136.71875	-4.91200	-9.99259	-12.85971	-0.29224
140.62500	-1.68817	-12.41010	-15.27706	-4.54204
144.53125	-2.49362	-14.42469	-13.66516	-2.04176
148.43750	0.73020	-10.79824	-8.02393	-1.90467
152.34375	-0.47825	-6.76886	-12.85884	-0.01943
156.25000	-2.89538	-4.75416	-17.29095	3.25209
160.15625	1.94024	-4.35121	-14.47031	2.34603
164.06250	0.73180	-5.55993	-18.49943	-1.52644
167.96875	1.94092	-6.36557	-18.09622	-2.66859
171.87500	3.15008	-6.76844	-15.27552	-0.09904
175.78125	4.35923	-8.38007	-16.08119	-2.88294
179.68750	2.34491	-7.57412	-16.48385	-2.06333
183.59375	-3.69871	-7.17111	-14.87195	-1.01239
187.50000	-5.71294	-8.37977	-10.43948	-2.61175
191.40625	-8.93600	-5.55917	-12.85676	-5.00235
195.31250	-4.90630	-4.35026	-16.88596	-7.01022
199.21875	-2.89123	-3.94726	-14.06513	-9.30930
203.12500	-6.92029	-5.96177	-12.85608	-6.14344
207.03125	-9.33752	-9.18510	-14.87062	-5.36257
210.93750	-8.12840	-3.94691	-16.07920	-6.26684
214.84375	-2.08416	-4.34976	-14.87024	-4.29285
218.75000	6.37767	-6.36432	-13.25833	-2.06617
222.65625	5.57212	-6.76724	-15.27269	-4.43100
226.56250	-1.68024	-6.76717	-18.49592	-5.68397
230.46875	1.54358	-2.33482	-12.85456	-1.47348
234.37500	9.19962	-1.52888	-8.82501	2.04845
238.28125	7.99113	-7.16981	-13.25700	0.32616
242.18750	4.76800	-9.18435	-11.64498	0.09397
246.09375	1.94779	-10.39305	-10.83881	-1.56282
250.00000	2.35100	-11.19880	-11.24150	-0.29135
253.90625	4.36594	-11.19875	-13.25595	-0.87780
257.81250	-1.27491	-11.19868	-11.24102	-6.16128
261.71875	-4.49813	-11.60147	-5.59967	-5.46470
265.62500	-3.69208	-12.40739	-10.03161	-5.49209
269.53125	3.96383	-10.39272	-14.86659	-0.70541
273.43750	3.15824	-9.98969	-10.83698	-2.59306
277.34375	-9.73522	-12.00424	-8.41915	-11.05122
281.25000	-11.74956	-9.98945	-9.22476	-8.61746
285.15625	-5.30243	-6.76595	-7.20985	-4.17690
289.06250	-6.91388	-8.37754	-6.80666	-5.93835
292.96875	-2.88418	-11.19790	-5.19466	-9.54155
296.87500	9.60706	-9.58603	0.04379	-4.67158
300.78125	12.42789	-6.76543	-1.56757	0.30498
304.68750	10.81641	-7.97412	-5.19365	-2.05130
308.59375	8.80209	-5.95935	-4.79040	-0.67861
312.50000	-5.70306	-4.34751	-5.19313	-0.36577
316.40625	-12.14965	-2.33271	-6.40168	-1.12386
320.31250	-13.76099	0.48791	-5.59553	-2.47249
324.21875	-9.32847	-3.94428	-5.59529	-4.75964
328.12500	-3.68717	-6.36177	-4.78919	-7.49171
332.03125	-8.11905	-2.33242	-3.58011	-10.11933
335.93750	-11.34216	-4.74995	-4.38578	-6.85355
339.84375	-8.52145	-6.76459	-6.40022	-4.45943
343.75000	-4.49193	-3.13812	-8.01174	-2.63358
347.65625	-5.70052	-2.33217	-8.41446	-5.42559
351.56250	-2.87978	-1.52632	-10.02591	-8.58023
355.46875	0.34387	2.10006	-8.41404	-9.77034
359.37500	3.16473	2.90603	-4.78735	-7.67100
363.28125	0.34444	0.48852	-5.59292	-6.95732
367.18750	-8.11678	0.48858	-7.20435	-12.20993
371.09375	-12.54865	0.08567	-7.20407	-7.43145
375.00000	-14.96590	-2.73481	-6.80088	-4.63384
378.90625	-11.33918	-0.72014	-6.39774	-5.66043
382.81250	0.34598	-2.73478	-7.60630	-5.24242
386.71875	6.39028	-7.56987	-9.21777	-8.90874
390.62500	2.36129	-6.76400	-7.20284	-7.47808
394.53125	-6.50295	-3.54051	-3.57615	-8.76833
398.43750	-9.32319	-3.54049	-5.59065	-10.51593
402.34375	-0.05547	-6.36090	-8.00808	-3.93840
406.25000	-6.90498	-7.97269	-3.17271	-1.56760
410.15625	-16.57493	-7.97270	-1.15784	-1.86904
414.06250	-8.51605	-3.54041	-2.76929	-2.42742
417.96875	-10.53046	-1.12276	-3.57484	-5.71628
421.87500	-16.17124	-6.36079	-3.17173	-4.25514
425.78125	-13.75329	-7.56956	-5.18616	-3.88740
429.68750	-10.93249	-5.55485	-8.00645	-5.51147
433.59375	-8.11165	-7.56940	-9.21500	-7.76981
437.50000	-9.32013	-5.95766	-7.60304	-7.78077
441.40625	-4.48467	-4.34590	-5.18522	-2.56833
445.31250	5.58887	-5.15179	-6.79669	-2.57376
449.21875	7.60390	-2.73417	-10.42287	-4.70560
453.12500	6.39551	-2.73413	-11.63143	0.18844
457.03125	3.17247	-4.74872	-5.18426	-0.18820
460.93750	-4.48287	-2.33107	-7.19863	-3.31185
464.84375	-9.72069	-1.92814	-11.22769	-0.44942
468.75000	-5.28818	-3.53982	-10.82452	-3.48067
472.65625	-0.85558	-0.31640	-10.01840	-3.12920
476.56250	-2.86996	2.50408	-8.00362	-1.47202
480.46875	-2.46667	-0.71937	-9.61515	-3.26356
484.37500	1.56304	-4.34571	-12.43537	-5.17245
488.28125	0.75754	-2.33098	-11.22631	-4.25454
492.18750	1.56373	0.89248	-9.21144	-1.60344
496.09375	-5.68862	0.89249	-9.21122	-8.00403
500.00000	-10.92638	0.08658	-9.21100	-9.27410
503.90625	-16.97003	-2.73392	-11.62836	-11.10399
507.81250	-21.40183	-11.19544	-16.86622	-14.28074
511.71875	-12.53693	-13.21008	-16.86597	-11.34963
515.62500	-10.52201	-8.77783	-12.43347	-13.33576
519.53125	-8.91001	-3.53973	-12.83614	-12.48012
523.43750	-3.26865	-4.74852	-13.23897	-5.75604
527.34375	-0.04492	-7.16610	-11.62710	-6.96699
531.25000	4.38769	-6.76316	-15.65620	-11.41412
535.15625	1.16459	-9.98656	-12.83539	-6.58605
539.06250	0.35905	-14.01578	-7.59720	0.41481
542.96875	-0.44649	-9.58348	-11.62631	-5.65099
546.87500	-7.69893	-1.92773	-14.44664	-12.93714
550.78125	-5.68397	-3.94230	-14.04346	-3.80965
554.68750	1.97198	-7.56858	-12.83448	-3.86967
558.59375	6.40451	-3.53924	-11.62556	-4.83803
562.50000	10.03120	-1.52457	-7.99895	3.71483
566.40625	10.03154	-2.33035	-5.98410	4.07127
570.31250	12.85241	-3.13617	-4.37224	9.85334
574.21875	16.88210	-5.55373	-2.76030	12.14184
578.12500	14.86773	-3.94199	-4.77471	7.21956
582.03125	14.06218	-2.73317	-3.96870	7.43090
585.93750	16.88298	-1.12138	-7.99783	5.37515
589.84375	12.04805	0.89326	-12.42992	5.39984
593.75000	2.78091	-3.53899	-14.04141	7.60461
597.65625	0.76653	-5.95662	-15.25000	5.96563
601.56250	4.39319	-7.16544	-11.62349	5.49519
605.46875	-0.84457	-10.38892	-10.81739	4.67199
609.37500	2.78211	-11.19473	-9.60843	1.76815
613.28125	7.21470	-7.56828	-5.17602	0.24994
617.18750	-0.84353	-7.56825	-7.99636	3.08636
621.09375	-4.87256	-9.58286	-13.63724	5.15913
625.00000	-3.66338	-8.37400	-9.60783	5.98922
628.90625	-2.05124	-7.97111	-6.78714	5.80838
632.81250	0.76961	-7.56815	-7.18991	7.80929
636.71875	4.39634	-9.98573	-7.18974	11.87974
640.62500	3.18786	-11.59736	-12.83050	9.24168
644.53125	7.62033	-9.58272	-12.42746	6.90680
648.43750	11.64998	-6.76221	-9.60684	3.82042
652.34375	10.84442	-6.35921	-6.38325	3.69098
656.25000	12.05358	-1.52414	-3.15963	6.55954
660.15625	12.45690	2.50514	-3.96533	5.65356
664.06250	15.68062	-0.31538	-1.54755	15.07779
667.96875	14.06916	-7.16521	2.48194	19.17384
671.87500	-0.43605	-11.59735	-5.17357	2.80562
675.78125	3.99646	-8.37397	-12.02322	-6.42518
679.68750	2.78797	-6.35930	-13.63480	-7.21745
683.59375	-18.16416	-5.15065	-14.03754	-19.46330
687.50000	-16.55210	-2.73313	-7.18765	-23.48049
691.40625	-24.20752	-0.71854	-8.79920	-29.09458
695.31250	-45.56253	-5.95667	-9.60501	-41.17572
699.21875	-61.27655	-10.79185	-5.97847	-52.33933
703.12500	-69.33487	-7.56845	-5.57542	-60.05258
707.03125	-69.33469	-4.74802	-4.76941	-64.50976
710.93750	-74.97559	-1.92754	-5.97803	-71.05510
714.84375	-81.82516	-2.33047	-4.36620	-81.16889
718.75000	-89.07766	-0.71881	0.87201	-89.01553
722.65625	-89.07738	3.31043	0.87213	-92.58913
726.56250	-88.27122	-1.92770	0.06642	-98.67725
730.46875	-93.91199	-3.94236	1.27538	-92.04922
734.37500	-89.88242	-1.52477	4.49898	-80.06570
738.28125	-79.00296	-1.52477	5.70793	-74.13237
742.18750	-70.54110	1.69868	4.49925	-71.54401
746.09375	-60.87048	2.90748	4.49937	-66.35088
750.00000	-56.43795	1.29574	5.70830	-58.22959
753.90625	-50.39372	2.90753	6.11131	-49.54858
757.81250	-32.66458	0.89290	3.69384	-39.52071
761.71875	-21.38221	-0.31588	-0.33537	-26.73608
765.62500	-11.30864	3.71343	-1.54409	-14.67547
769.53125	1.18246	1.69879	-1.94695	-5.45651
773.43750	6.42085	-3.13636	-7.58793	0.31155
777.34375	10.85336	-1.52464	-10.81124	9.17946
781.25000	22.13576	-1.12163	-12.82572	21.28362
785.15625	24.55373	-5.15096	-14.84031	24.51562
789.06250	27.37456	-9.18025	-14.43723	26.38067
792.96875	33.01595	-7.56849	-17.25763	32.44784
796.87500	29.79301	-5.55387	-18.06335	32.07972
800.78125	33.82284	-3.94219	-16.45157	28.19183
804.68750	26.97359	-6.35972	-14.83985	27.04456
808.59375	23.75082	-12.80663	-13.22806	30.02926
812.50000	36.64537	-10.79206	-13.22803	34.77467
816.40625	30.19928	-12.80667	-15.64559	32.40534
820.31250	27.37957	-14.82136	-15.24254	33.07193
824.21875	38.66255	-12.00086	-12.82489	36.02345
828.12500	33.82830	-14.82134	-13.22784	33.29203
832.03125	25.77064	-13.20963	-13.22782	30.66506
835.93750	28.59203	-11.19502	-9.19850	32.72275
839.84375	27.38409	-9.98630	-7.58679	27.05892
843.75000	19.32640	-9.58344	-12.82477	24.45321
847.65625	14.49217	-12.40403	-14.43657	23.67652
851.56250	10.06079	-13.61285	-11.61607	19.31370
855.46875	22.55245	-11.19537	-11.21309	20.13881
859.37500	33.83532	-11.19540	-12.82476	21.83579
863.28125	20.13646	-13.61300	-10.81018	20.93825
867.18750	6.84050	-14.01599	-10.81016	20.52139
871.09375	14.49691	-13.70401	-10.00420	26.33644
875.00000	16.91519	-12.47207	-9.19837	27.14336
878.90625	14.09528	-13.97164	-12.42179	23.51801
882.81250	6.44018	-18.62643	-8.39246	22.31017
886.71875	6.44072	-14.58563	-6.78065	19.89348
890.62500	14.09689	-12.46740	-6.37768	18.68554
894.53125	17.32073	-9.99042	-3.96000	20.29805
898.43750	26.58841	-7.50888	-9.60095	18.28412
902.34375	33.84140	-9.41245	-14.43602	16.67303
906.25000	29.00642	-10.60914	-15.24172	16.67362
910.15625	22.15674	-7.21241	-14.03280	17.88299
914.06250	9.66613	-5.89710	-11.21220	17.07772
917.96875	4.42820	-9.89994	-12.01794	16.27239
921.87500	5.23417	-13.08510	-11.21195	13.85528
925.78125	4.83132	-15.50303	-6.77961	11.03525
929.68750	8.86065	-12.44502	-6.37660	15.06501
933.59375	11.68116	-9.46155	-9.59991	16.67709
937.50000	15.71043	-8.65484	-9.59982	12.64816
941.40625	12.08401	-7.88479	-9.19680	11.84268
945.31250	-1.21271	-9.52208	-7.98790	11.84298
949.21875	-1.61564	-8.42199	-7.18196	7.41100
953.12500	8.86062	-6.18032	-7.58485	9.82891
957.03125	12.88999	-3.37191	-7.18174	11.84396
960.93750	14.09885	-1.06298	-10.80797	13.85902
964.84375	14.09885	-0.72261	-10.40493	11.03890
968.75000	11.27847	-1.18675	-5.56960	10.63638
972.65625	17.72550	-2.50191	-4.36069	13.05443
976.56250	12.48744	-1.30495	-6.77807	8.21967
980.46875	2.01127	-1.88607	-6.37502	3.38494
984.37500	5.23474	-2.80240	-3.15142	4.19126
988.28125	6.44361	-5.64751	-4.76297	4.99764
992.18750	10.87592	-0.03995	-5.97165	7.01272
996.09375	13.29369	2.78199	-4.76274	8.62488
1000.00000	13.69687	-1.89219	-2.34510	9.43117
1003.90625	16.92051	1.56683	1.68436	12.25217
1007.81250	14.90602	1.97005	-0.33022	13.46142
1011.71875	6.04181	-0.00391	-3.95650	11.44726
1015.62500	2.41565	0.42658	-2.34465	8.62726
1019.53125	8.45979	-2.69195	-1.13571	11.04538
1023.43750	6.44543	-0.50623	0.47618	9.83712
1027.34375	0.40173	0.71489	-0.32960	2.18197
1031.25000	1.20786	0.42536	-0.32953	0.16791
1035.15625	4.83444	3.31121	-0.32947	-1.04032
1039.06250	8.46106	1.35469	0.47648	-0.23382
1042.96875	17.72869	-0.96164	-0.32931	8.22821
1046.87500	18.13186	-2.96508	-3.14977	10.24347
1050.78125	5.23841	-6.00598	-2.74677	6.61759
1054.68750	2.01522	-4.28046	-1.53792	6.61811
1058.59375	-0.40218	-3.04947	-0.32906	1.38055
1062.50000	0.40391	-2.21549	-1.53778	-2.64818
1066.40625	0.40414	-3.42727	-1.53772	0.17288
1070.31250	-2.41625	-8.41953	-1.13473	1.38224
1074.21875	-0.40140	-8.65104	-1.53753	6.21800
1078.12500	-1.60984	-5.02635	2.49184	5.00993
1082.03125	0.00226	-5.47522	3.70075	2.99591
1085.93750	2.42023	-9.53439	0.07444	4.60829
1089.84375	0.00310	-11.24755	-5.16360	0.98264
1093.75000	0.80950	-6.57903	-7.17820	2.19225
1097.65625	3.63052	-4.17425	-2.34308	5.41653
1101.56250	12.09256	-5.09855	-0.73134	7.02915
1105.46875	6.04917	-5.57002	-4.35776	4.61255
1109.37500	-1.60587	-5.22256	-5.16365	3.40479
1113.28125	0.40949	-6.93073	-4.76072	3.00294
1117.18750	4.03664	-3.71803	-5.16372	2.60107
1121.09375	5.24613	7.77967	-1.13446	7.43726
1125.00000	6.45559	4.84141	0.47726	8.64707
1128.90625	0.41224	-8.07275	-4.76092	8.64813
1132.81250	0.81584	-8.49888	-3.95517	10.26093
1136.71875	7.26343	-3.25648	-4.35820	7.84428
1140.62500	6.86107	-1.08909	-4.76117	7.44227
1144.53125	10.48798	-1.66796	-2.34370	6.23444
1148.43750	16.12950	-0.85943	-1.53786	4.62365
1152.34375	14.51829	2.41473	-1.53794	7.04209
1156.25000	5.25134	6.07314	0.07366	10.26633
1160.15625	4.84878	6.17090	5.71462	9.46116
1164.06250	8.87842	5.92969	5.31159	9.05899
1167.96875	9.68466	1.51030	4.50568	13.08897
1171.87500	8.87901	-1.99291	4.10264	11.47786
1175.78125	15.32614	-0.71278	1.68505	4.62870
1179.68750	18.95273	-0.25746	2.49083	7.85281
1183.59375	10.08838	0.63960	2.49079	12.68857
1187.50000	8.47683	-2.17101	0.87908	13.49497
1191.40625	12.90911	-6.41175	-1.53844	12.28673
1195.31250	9.68582	-8.70817	-5.56778	9.86957
1199.21875	4.04489	-10.30179	-4.35903	11.48168
1203.12500	14.92410	-7.86636	-1.53848	13.49676
1207.03125	21.37117	-5.45489	-1.13555	13.09436
1210.93750	16.93912	-6.81268	-0.73254	12.69192
1214.84375	14.11875	-5.42392	-0.73252	12.28958
1218.75000	15.73075	-0.18987	-3.55297	11.88728
1222.65625	20.96915	1.76870	-2.34424	15.11142
1226.56250	24.59588	-0.28044	-2.34420	17.52980
1230.46875	27.41678	-5.21015	-3.95589	14.30724
1234.37500	22.58212	-2.94979	-5.97049	13.50229
1238.28125	18.95636	-1.35142	-6.77632	16.72669
1242.18750	18.15108	-5.10611	-5.56754	17.53354
1246.09375	10.89899	-1.95746	-5.16464	17.93744
1250.00000	10.49669	2.02187	-5.16463	17.93843
1253.90625	16.54138	1.53241	-7.17928	7.06037
1257.81250	18.15382	-0.08884	-8.38812	3.03213
1261.71875	10.90173	-1.89692	-7.98523	6.25656
1265.62500	5.66427	-3.63388	-8.79106	3.84013
1269.53125	5.26201	-3.65036	-7.17940	3.84119
1273.43750	-0.37842	-2.45452	-2.74718	3.43926
1277.34375	0.83094	-3.65590	-2.74719	1.02269
1281.25000	1.23451	-9.55522	-3.95599	0.62078
1285.15625	-4.40588	-12.15729	-5.56766	0.62173
1289.06250	-7.22581	-12.15244	-6.77642	-0.58617
1292.96875	-4.40489	-12.89735	-4.76174	-2.59994
1296.87500	-4.00164	-11.65171	-5.16473	-5.41966
1300.78125	2.44551	-9.54624	-3.55293	-6.62778
1304.68750	-0.37479	-6.97642	-3.95590	-6.62718
1308.59375	0.83418	-4.14266	-7.17927	-2.59737
1312.50000	4.46064	-8.03915	-7.58223	-0.17933
1316.40625	-5.20971	-11.99085	-5.97047	-1.79069
1320.31250	-7.22431	-15.16726	-9.19387	-3.40194
1324.21875	3.25180	-17.90661	-13.62600	-2.19276
1328.12500	4.46063	-16.68929	-13.22293	-1.78948
1332.03125	-3.59802	-11.25062	-11.61114	-3.80372
1335.93750	-0.37460	-7.49551	-13.22280	0.62886
1339.84375	5.26638	-12.71933	-12.81974	3.44966
1343.75000	13.32495	-16.33806	-12.41679	2.64418
1347.65625	4.05761	-14.33273	-12.01378	3.45039
1351.56250	-8.43320	-14.87658	-7.98440	2.64485
1355.46875	-9.64202	-14.68794	-5.16380	2.24217
1359.37500	-7.22436	-12.27648	-5.96952	1.03371
1363.28125	-8.83617	-10.32804	-5.56648	-1.38349
1367.18750	-5.61274	-9.56164	-3.14885	-3.80076
1371.09375	4.05755	-11.66409	-5.16345	-2.59161
1375.00000	9.29563	-10.20008	-7.17803	-0.57663
1378.90625	6.47515	-6.58719	-9.19265	-2.59084
1382.81250	2.04292	-6.72510	-10.40142	-4.20220
1386.71875	2.84875	-8.41801	-9.59555	-5.41055
1390.62500	0.02832	-9.26853	-10.80431	-7.02195
1394.53125	-15.68589	-9.74787	-12.01311	-11.85664
1398.43750	-18.10341	-10.96460	-8.78958	-11.85624
1402.34375	-8.03006	-11.16995	-6.37206	-4.20022
1406.25000	-4.40365	-8.88535	-7.98376	-3.79677
1410.15625	-8.02994	-8.49522	-12.41598	-7.82557
1414.06250	-7.62699	-8.90097	-13.62478	-6.61626
1417.96875	-1.98584	-9.29318	-13.62479	-3.39238
1421.87500	3.65531	-12.78280	-12.41603	-3.39188
1425.78125	0.43198	-12.17025	-10.80436	-8.62948
1429.68750	-7.22351	-6.92538	-12.41610	-8.62897
1433.59375	-1.58238	-6.04844	-12.41609	-7.01676
1437.50000	0.43245	-6.40966	-14.43072	-5.80742
1441.40625	1.64149	-5.51968	-14.02766	-0.56875
1445.31250	-3.59637	-7.79458	-10.80420	-0.97112
1449.21875	-6.41666	-6.57245	-10.80416	-0.16458
1453.12500	-4.80475	-4.41527	-9.19244	1.85060
1457.03125	-4.40158	-5.94286	-7.98360	-5.40152
1460.93750	-0.77493	-6.70688	-8.78934	-4.99808
1464.84375	0.03103	-9.45637	-10.40112	-0.96815
1468.75000	3.65755	-11.06134	-10.80402	-0.16158
1472.65625	1.24018	-10.04610	-9.59522	-0.56392
1476.56250	-3.59489	-6.68610	-9.59516	-0.96620
1480.46875	0.03166	-5.46660	-9.19218	-1.36845
1484.37500	-0.77391	-6.67795	-9.19211	-5.39707
1488.28125	-5.20596	-6.28782	-10.80373	-4.59063
1492.18750	0.03237	-5.21224	-7.58026	-1.76949
1496.09375	-2.78792	-3.40309	-7.17724	-3.38056
1500.00000	-3.59363	-7.44039	-13.22113	-6.20046
1503.90625	8.49457	-13.96357	-16.44441	1.45593
1507.81250	15.74758	-11.99353	-13.62384	7.50054
1511.71875	7.68919	-10.86600	-4.35637	7.90419
1515.62500	2.04847	-14.63048	1.68774	14.35178
1519.53125	12.92782	-17.46462	-0.72975	24.02276
1523.43750	24.61307	-18.01511	-2.34144	31.67912
1527.34375	33.47781	-19.31158	1.68799	43.36474
1531.25000	41.53666	-19.35123	4.10555	53.03567
1535.15625	46.77503	-19.41764	4.10556	55.85686
1539.06250	47.17825	-19.02082	4.50857	54.24576
1542.96875	47.17850	-16.41452	2.89683	53.03764
1546.87500	49.99931	-18.97298	-0.32656	57.06761
1550.78125	48.38782	-17.77353	-2.34120	61.90350
1554.68750	54.02903	-14.54274	-1.93816	59.88951
1558.59375	56.04384	-15.73729	-2.74398	57.87551
1562.50000	48.38836	-14.39971	-4.35570	53.04099
1566.40625	49.19446	-15.81078	-4.35568	44.98307
1570.31250	41.13614	-15.80251	-3.54972	44.58091
1574.21875	39.12180	-8.87176	0.07659	48.20798
1578.12500	45.16608	-8.01906	0.07663	44.17941
1582.03125	42.74892	-9.15016	-4.75849	41.35968
1585.93750	32.27308	-10.62903	-4.75848	37.33114
1589.84375	32.67629	-11.01882	-3.14681	35.31717
1593.75000	39.12354	-10.46393	-1.53509	35.72086
1597.65625	36.70643	-11.17909	-3.14682	32.49817
1601.56250	34.28926	-9.12772	-3.54967	34.51356
1605.46875	29.05147	-9.46978	-3.14680	28.47031
1609.37500	19.38134	-11.07679	-4.35561	26.45634
1613.28125	13.74063	-8.84406	-0.32629	30.48634
1617.18750	16.15844	-9.10260	2.09124	27.26356
1621.09375	19.78515	-9.90115	-1.93810	24.84673
1625.00000	21.80014	-7.89944	-5.16159	21.22106
1628.90625	20.99456	-12.75110	-4.75864	20.41587
1632.81250	9.30989	-16.50298	-6.77333	20.01364
1636.71875	4.47509	-13.07333	-7.98218	17.19390
1640.62500	12.53395	-13.08286	-10.80275	15.98584
1644.53125	12.93712	-13.97516	-9.99694	13.97191
1648.43750	10.92277	-14.02515	-4.75896	13.97261
1652.34375	21.80227	-13.29430	-3.95323	15.98796
1656.25000	13.34109	-11.81116	-5.16213	13.16813
1660.15625	4.47703	-12.63053	-5.56511	11.55702
1664.06250	8.90952	-15.60824	-6.37106	9.54305
1667.96875	-3.17814	-10.06181	-6.37110	8.73789
1671.87500	-7.61011	-5.26144	-7.57994	10.35038
1675.78125	-4.78933	-9.34712	-7.17702	8.73936
1679.68750	-2.77431	-14.18649	-6.37124	6.32252
1683.59375	6.49348	-11.18606	-5.96831	5.51742
1687.50000	9.31428	-6.09693	-6.37135	3.90644
1691.40625	9.71755	-5.70026	-7.17727	6.72762
1695.31250	11.32956	-5.68274	-5.16271	2.69900
1699.21875	15.76209	-6.06775	-3.95397	4.71431
1703.12500	15.76241	-3.93186	-5.96866	6.32669
1707.03125	8.51000	-2.12859	-7.58052	0.68638
1710.93750	10.52497	-2.11882	-5.96883	1.89585
1714.84375	12.53997	-1.22210	-4.35725	1.49358
1718.75000	15.36076	-0.76696	-4.76025	6.32938
1722.65625	10.92880	-6.73952	-2.34284	7.13593
1726.56250	1.25876	-10.24281	0.88051	5.12194
1730.46875	3.27369	-9.42419	-0.32836	11.97236
1734.37500	5.69155	-6.44232	0.47741	11.57004
1738.28125	6.90070	-5.94190	2.08901	10.36192
1742.18750	10.52739	-3.49240	-0.32861	14.79469
1746.09375	14.15399	-0.62114	-2.74628	11.57183
1750.00000	15.36308	3.00777	-6.77567	1.90214
1753.90625	7.30474	2.02568	-9.59633	1.90274
1757.81250	2.06690	-6.68638	-7.17885	6.73854
1761.71875	3.67891	-5.87636	-5.97015	7.54503
1765.62500	8.11146	-0.66144	-5.56728	5.53101
1769.53125	4.48543	-3.90535	-5.56735	-0.51229
1773.43750	6.90331	-7.64975	-3.14991	3.11478
1777.34375	8.51545	-2.19632	-5.16472	0.69785
1781.25000	2.47190	0.21028	-4.35898	-4.94250
1785.15625	-0.34828	0.11381	-3.15031	-5.74765
1789.06250	-19.28575	3.28164	-9.59734	-24.68464
1792.96875	-39.83484	2.40691	-13.22380	-42.81577
1796.87500	-44.26669	4.70569	-14.02969	-46.84434
1800.78125	-44.66933	5.09561	-14.83569	-50.46999
1804.68750	-47.08664	4.52610	-12.82102	-55.70736
1808.59375	-51.92149	9.66261	-9.19480	-59.73597
1812.50000	-57.96517	10.84120	-6.77726	-65.77926
1816.40625	-57.56199	7.97436	-10.00076	-65.77859
1820.31250	-59.57634	6.36066	-9.59802	-63.36033
1824.21875	-53.12910	6.12909	-8.38932	-58.12156
1828.12500	-47.89063	1.94263	-13.22457	-51.27104
1832.03125	-47.48730	-0.47825	-12.01586	-48.44986
1835.93750	-42.65171	0.75829	-9.59838	-47.24035
1839.84375	-33.38394	3.60072	-10.40431	-43.61323
1843.75000	-33.78664	3.71448	-10.00142	-40.38916
1847.65625	-37.00975	1.88220	-8.79273	-35.15041
1851.56250	-32.57735	0.28138	-7.98702	-28.70285
1855.46875	-36.20344	-0.42365	-8.79294	-32.73148
1859.37500	-42.65007	-3.99225	-10.00183	-35.55133
1863.28125	-36.20289	-3.52406	-9.19613	-32.32723
1867.18750	-25.72640	1.02149	-5.16696	-30.71490
1871.09375	-24.11436	-0.17521	-5.97289	-33.13180
1875.00000	-26.53158	1.60720	-7.58475	-26.68412
1878.90625	-28.14295	2.51760	-7.18187	-24.66863
1882.81250	-19.27829	0.12734	-5.16729	-23.86193
1886.71875	-14.44281	1.77958	-6.77905	-17.81724
1890.62500	-17.66593	2.18252	-10.80844	-17.81648
1894.53125	-6.38360	2.41766	-7.18212	-14.59217
1898.43750	-3.56275	2.98131	-2.74992	-10.15920
1902.34375	-0.74185	4.59435	-0.73530	-5.32323
1906.25000	4.49653	7.78439	-0.73536	-4.91963
1910.15625	-1.94998	8.96853	-0.33245	-7.33641
1914.06250	-5.57602	5.63431	0.87622	-12.97667
1917.96875	0.06527	0.62054	-0.33278	-15.39367
1921.87500	0.46832	-2.61507	-4.76525	-16.60181
1925.78125	-7.59022	-4.33337	-5.16838	-16.19830
1929.68750	-14.03708	-5.60360	-1.13925	-8.94492
1933.59375	-18.06625	-5.66661	-1.13944	-8.94427
1937.50000	-17.66297	-6.17860	-3.15427	-8.54069
1941.40625	-8.79824	-4.98227	-3.15444	-3.30192
1945.31250	-5.57451	-3.94953	-5.16927	-0.07772
1949.21875	-2.75365	-3.25247	-3.96065	-0.48001
1953.12500	6.11118	-4.08415	-4.36371	1.53537
1957.03125	6.51443	-4.12035	-6.78138	0.73027
1960.93750	6.51475	-5.32865	-5.97562	-0.88070
1964.84375	3.69450	-7.18047	0.06819	1.94057
1968.75000	1.68013	-6.13727	3.29155	-0.87925
1972.65625	1.68045	-6.13791	-1.14080	-6.11659
1976.56250	0.87493	-6.10012	-3.96142	-7.72748
1980.46875	6.91923	-4.05945	-2.75273	-5.71204
1984.37500	0.87565	-4.75891	0.06770	-4.50243
1988.28125	-5.57095	-4.18293	-1.14114	-4.90459
1992.18750	0.47326	-5.37995	-3.96174	-4.90382
1996.09375	3.29413	-6.47817	-3.15603	-2.88841
2000.00000	-1.13779	-7.22053	-3.15617	-0.47008
2003.90625	-5.97251	-9.17592	-5.17090	-3.69278
2007.81250	-1.94289	-4.64035	-2.75338	-3.69204
2011.71875	3.69848	3.42931	2.08167	4.77024
2015.62500	6.11646	7.23559	7.31966	7.59151
2019.53125	-1.13593	5.33261	8.52834	5.57767
2023.43750	4.50555	2.93804	6.91656	5.57852
2027.34375	7.72937	1.75962	6.91649	4.37055
2031.25000	7.72982	1.35406	6.11050	0.74498
2035.15625	17.80356	3.61225	2.88695	-4.49232
2039.06250	10.95413	3.78129	0.06634	-4.89447
2042.96875	0.88139	2.97406	0.46922	-4.49072
2046.87500	4.91126	2.12457	1.67795	-4.08699
2050.78125	8.13521	1.69265	1.27486	1.15191
2054.68750	3.70337	-1.23137	1.27474	0.34686
2058.59375	3.70375	-2.60929	0.46881	-2.06987
2062.50000	8.13638	0.19840	1.27456	3.16910
2066.40625	8.13684	-0.72372	1.67746	1.96116
2070.31250	-3.14477	-3.20858	0.46856	0.35027
2074.21875	-5.56198	-2.45990	2.08015	1.15695
2078.12500	-4.35278	-3.36488	2.88592	0.35194
2082.03125	0.07986	-4.58501	2.48292	3.57620
2085.93750	8.94476	-3.15859	1.27400	4.38289
2089.84375	4.51304	-2.87178	-3.96416	2.36907
2093.75000	4.51350	-3.69926	-1.94955	3.57871
2097.65625	4.11092	-1.71060	1.67679	4.78835
2101.56250	-0.72374	0.71036	2.88544	5.19218
2105.46875	6.52947	-2.35849	4.09414	1.56664
2109.37500	10.15631	-3.74125	4.09409	1.97040
2113.28125	7.73902	-2.12772	3.69116	5.59752
2117.18750	7.73924	-4.90038	2.88519	1.56894
2121.09375	8.54545	-3.66105	-2.35300	1.97266
2125.00000	1.29308	-2.35310	-5.97940	1.57053
2128.90625	1.29345	-4.60697	-5.17360	3.98894
2132.81250	8.94947	-2.57992	0.87034	10.43669
2136.71875	2.90587	-0.84779	4.89961	5.19941
2140.62500	-3.94350	-4.80760	6.51134	3.99148
2144.53125	-14.01633	-8.78336	8.52597	-3.66332
2148.43750	-18.44811	-11.10760	8.12296	-17.36212
2152.34375	-19.25357	-13.11232	6.10829	-19.77872
2156.25000	-22.07362	-10.50571	4.89941	-20.18083
2160.15625	-19.65562	-9.98373	5.70524	-18.97118
2164.06250	-12.40238	-11.97948	1.67594	-20.98487
2167.96875	-14.01374	-6.72126	1.27298	-18.56644
2171.87500	-22.87772	-7.93572	1.67596	-16.55083
2175.78125	-20.86266	-13.32505	-3.96513	-24.60847
2179.68750	-21.66797	-13.14752	0.06416	-22.99584
2183.59375	-22.07046	-14.35999	4.49638	-18.15973
2187.50000	-24.89044	-16.42849	2.07871	-16.14416
2191.40625	-22.47241	-17.67097	5.30206	-8.48755
2195.31250	-18.03980	-15.75290	6.91371	-8.08382
2199.21875	-21.26274	-14.30100	4.09306	-10.50046
2203.12500	-14.41247	-12.70273	4.89887	-5.66446
2207.03125	-13.20323	-12.02285	4.09292	-5.26059
2210.93750	-13.60569	-11.29049	-3.15989	-6.46852
2214.84375	-6.35264	-7.31272	-3.56281	-8.48236
2218.75000	-5.14354	-5.38736	-2.35417	-12.51081
2222.65625	-9.17247	-4.18875	-1.14544	-12.10701
2226.56250	-13.60425	-3.98016	2.88376	-8.88266
2230.46875	-12.39500	-10.95359	6.51010	-10.49346
2234.37500	-4.33598	-13.79173	8.12177	-13.71608
2238.28125	-5.14145	-13.80751	6.10706	-15.32696
2242.18750	-3.93231	-10.57777	2.88350	-10.49093
2246.09375	5.73830	-6.80488	2.48047	-4.04332
2250.00000	6.94744	-8.59930	1.67453	-4.84833
2253.90625	4.12730	-8.59528	-1.95198	-12.10026
2257.81250	-6.75145	-9.74601	-6.38435	-13.71115
2261.71875	-22.46535	-12.53134	-8.39913	-20.96303
2265.62500	-20.04734	-8.00675	-7.19045	-27.81208
2269.53125	-22.86747	-5.43492	-3.16125	-23.78189
2273.43750	-47.04304	-10.66014	-3.96721	-34.25732
2277.34375	-51.87781	-11.33583	2.47958	-41.10640
2281.25000	-52.28040	-14.08062	4.89701	-45.13496
2285.15625	-65.97961	-13.22664	-1.95294	-66.08660
2289.06250	-71.62024	-9.11393	-1.55012	-75.75608
2292.96875	-77.66374	-8.29950	2.47907	-77.76991
2296.87500	-90.96003	-6.89268	5.29946	-93.48341
2300.78125	-100.63002	-7.16902	4.49349	-101.13829
2304.68750	-97.00320	-5.94528	2.88159	-101.54040
2308.59375	-102.64369	-5.53250	6.91083	-101.94249
2312.50000	-106.67253	-7.15296	9.73121	-101.94168
2316.40625	-94.18124	-5.28151	9.32815	-100.32912
2320.31250	-88.53981	-3.48358	10.13389	-97.91067
2324.21875	-86.52480	-2.68355	7.71622	-97.10397
2328.12500	-79.27163	-0.32995	5.29852	-87.02984
2332.03125	-67.58625	-4.80064	7.31307	-69.30001
2335.93750	-67.18291	-9.72554	5.70126	-67.68740
2339.84375	-64.36198	-3.42902	0.86596	-67.28368
2343.75000	-48.64724	1.39231	0.46295	-51.16561
2347.65625	-35.35014	-2.77276	0.86573	-35.85349
2351.56250	-20.03840	-4.46428	1.67155	-23.36175
2355.46875	-7.14419	-3.30170	2.88017	-14.49645
2359.37500	0.51184	-4.99270	0.46250	-6.43706
2363.28125	14.21193	-7.82174	-3.56690	2.02527
2367.18750	20.25632	-10.84561	-3.97002	7.66711
2371.09375	15.42162	-7.75332	-5.58179	16.93539
2375.00000	23.88361	-6.55846	-7.59658	27.00953
2378.90625	32.74853	-8.17572	-7.59672	31.84549
2382.81250	29.92852	-7.36029	-6.38802	34.26388
2386.71875	27.91434	-7.62477	-10.41740	37.08515
2390.62500	29.52648	-9.02490	-12.43218	42.72697
2394.53125	27.91521	-9.42177	-10.82063	41.51909
2398.43750	26.70675	-9.75649	-12.02960	37.49061
2402.34375	39.60085	-8.50749	-10.01505	40.31194
2406.25000	45.64514	-10.43650	-7.59766	36.28346
2410.15625	36.78103	-8.67998	-6.79186	29.43440
2414.06250	30.73731	-6.24927	-2.35977	32.65862
2417.96875	36.37867	-11.75058	-3.16572	37.09159
2421.87500	45.24345	-14.89181	-6.38929	36.68936
2425.78125	35.57344	-15.25189	-2.76302	35.07838
2429.68750	25.50039	-16.79019	-1.95727	35.07912
2433.59375	29.12703	-12.35101	-3.16620	39.51207
2437.50000	25.09797	-8.92057	-1.95754	40.72151
2441.40625	32.35100	-12.81539	-1.55474	35.48409
2445.31250	37.99236	-11.99813	-2.36080	35.48472
2449.21875	29.53120	-8.77501	-3.16679	33.47076
2453.12500	29.12866	-8.38414	-0.34639	30.65098
2457.03125	28.32319	-8.92238	3.27987	30.65172
2460.93750	30.33820	-7.51854	5.69734	26.62316
2464.84375	37.99422	-3.49699	3.27963	28.63854
2468.75000	31.54776	-5.58572	-0.74975	33.07153
2472.65625	26.71292	-4.82338	-1.95867	32.66936
2476.56250	33.56313	-0.47428	-1.95883	26.62619
2480.46875	30.34002	-3.83850	-1.55605	25.41817
2484.37500	21.07296	-3.85236	-4.77961	26.22481
2488.28125	23.49085	1.24030	-3.16805	28.24024
2492.18750	36.38498	-0.86069	0.05526	25.82350
2496.09375	37.99702	-1.70764	0.45811	30.25654
2500.00000	32.75927	1.44662	4.89017	30.66034
2503.90625	28.32740	-0.57492	8.11347	26.22892
2507.81250	19.86616	-1.99598	7.71041	26.22971
2511.71875	22.68699	1.08834	5.69564	23.00705
2515.62500	25.10491	3.89842	5.29255	20.59028
2519.53125	21.07591	3.50003	5.69537	15.35295
2523.43750	32.35829	3.11010	4.48641	18.57721
2527.34375	31.14984	4.85236	6.09797	24.62195
2531.25000	22.28573	2.63748	7.70957	16.56416
2535.15625	26.31552	1.03350	3.27714	13.74441
2539.06250	23.89837	1.11172	3.27700	18.17748
2542.96875	16.24312	0.75409	4.88859	19.79008
2546.87500	8.99081	0.83311	3.67969	13.74685
2550.78125	13.42345	-0.64350	5.29123	10.92712
2554.68750	23.09416	1.38407	4.48524	12.13670
2558.59375	10.20069	0.32458	3.67925	3.67594
2562.50000	1.73947	-2.81007	4.08201	4.48258
2566.40625	3.75446	-1.56350	4.48482	10.93025
2570.31250	-2.69211	-3.51489	3.67883	11.73688
2574.21875	-1.88594	-4.31568	2.46989	8.91714
2578.12500	2.14371	-5.30872	5.69321	4.88860
2582.03125	1.74107	-3.95771	5.29013	8.51573
2585.93750	3.35315	-3.94976	4.88703	9.32238
2589.84375	2.95051	-5.57212	1.66347	10.12900
2593.75000	2.14506	-1.55856	-1.15728	10.93565
2597.65625	0.93660	0.32842	-2.36627	8.92181
2601.56250	0.13108	-3.49700	-4.78399	2.87867
2605.46875	8.99593	-3.90934	-0.75484	-2.35864
2609.37500	11.81695	-0.77003	1.25968	-0.74612
2613.28125	-3.09101	1.59875	0.45370	1.26933
2617.18750	-11.55220	1.11909	0.85642	-3.56506
2621.09375	-13.16360	0.18201	0.05037	-4.37023
2625.00000	-9.93983	0.16829	1.25900	1.67450
2628.90625	-6.71610	2.02793	2.87054	2.07829
2632.81250	-3.89525	2.74067	2.87040	5.30260
2636.71875	2.55188	3.51022	2.87028	8.12392
2640.62500	4.16385	5.06278	3.67607	6.91591
2644.53125	2.14949	6.26659	3.27302	1.67858
2648.43750	2.14981	6.85142	3.27290	-2.75290
2652.34375	5.77652	3.88380	5.69035	-3.96096
2656.25000	2.55343	4.27949	6.09310	-4.76610
2660.15625	2.15078	6.30882	4.07828	-0.73603
2664.06250	4.16569	9.54891	1.66057	2.48821
2667.96875	5.77771	8.46300	2.06327	2.48898
2671.87500	8.59855	4.62731	2.06305	5.31026
2675.78125	9.40466	6.65108	4.48044	9.74317
2679.68750	7.39026	7.54509	5.68902	10.95274
2683.59375	-3.89154	3.16348	3.27119	5.71538
2687.50000	-7.11457	-0.39023	1.65927	-2.74545
2691.40625	-3.48796	0.13809	0.85314	-3.14764
2695.31250	-2.27894	2.16534	0.45002	-4.35576
2699.21875	-7.51676	6.35349	3.67322	-9.99609
2703.12500	-5.50168	10.47835	6.49351	-7.98070
2707.03125	-2.27786	11.72003	3.67278	-8.38285
2710.93750	-0.66568	7.74384	-0.35676	-5.15861
2714.84375	3.76687	4.12036	0.85180	1.69193
2718.75000	6.18474	4.74757	4.88089	4.11029
2722.65625	10.61728	3.68898	3.26895	-1.12702
2726.56250	7.79710	8.52890	2.05993	-10.39357
2730.46875	-0.26111	15.35787	5.68613	-7.97523
2734.37500	-7.11050	14.93531	5.68596	-10.39189
2738.28125	-13.96007	12.80054	2.86523	-19.65844
2742.18750	-13.95964	15.02808	0.44749	-23.28400
2746.09375	-20.40593	15.42017	2.86480	-27.71548
2750.00000	-24.43473	12.50552	4.47636	-27.31167
2753.90625	-21.61380	14.46583	6.08786	-19.25231
2757.81250	-20.00173	14.39534	7.29645	-9.98416
2761.71875	-10.33111	9.84166	3.26695	-4.74526
2765.62500	-3.07795	13.05178	4.07259	-1.92392
2769.53125	-7.91269	14.90191	10.11635	-1.92311
2773.43750	-9.52401	10.36958	2.86342	-6.35447
2777.34375	-4.28546	8.32348	-0.36014	-7.96544
2781.25000	-9.52314	16.33310	5.68367	-8.77048
2785.15625	-15.16375	9.88353	2.86297	-7.96384
2789.06250	-11.13404	2.40117	0.44527	-9.17171
2792.96875	-6.70143	7.08099	2.05680	-6.35043
2796.87500	-1.46288	5.06213	-0.36089	-7.15553
2800.78125	1.76098	2.66947	0.84775	-5.94591
2804.68750	-3.07373	3.09310	3.66815	-1.91570
2808.59375	-0.25277	6.02898	2.05624	-0.70610
2812.50000	0.55353	8.63107	2.45902	-1.51111
2816.40625	-5.89285	6.62679	2.45880	-7.15129
2820.31250	-5.48953	7.53068	4.47325	-8.35925
2824.21875	1.76357	10.00433	5.27887	-4.73207
2828.12500	5.79310	10.47363	5.27864	-2.31371
2832.03125	0.95816	11.39488	8.50186	-1.50715
2835.93750	-11.12941	10.19801	7.69575	-7.14747
2839.84375	-0.65283	9.96313	4.87496	-7.14677
2843.75000	12.24129	10.87146	5.27765	-0.69916
2847.65625	4.18311	11.70545	6.48623	-0.29545
2851.56250	4.58644	13.76289	6.08306	0.51120
2855.46875	11.03364	14.56909	6.48577	2.12371
2859.37500	9.01940	16.81652	5.67970	-2.30774
2863.28125	6.60220	17.78073	1.65021	-2.70993
2867.18750	4.18497	13.75317	0.44124	0.91725
2871.09375	1.76771	11.70741	6.08203	2.12681
2875.00000	4.18561	12.89238	7.29062	2.12758
2878.90625	1.36546	9.15328	4.06698	1.32247
2882.81250	-2.26055	6.15182	2.45512	1.72628
2886.71875	-1.85725	8.55737	2.05200	-1.49633
2890.62500	0.15769	11.67668	1.64887	-0.68968
2894.53125	4.18734	14.84001	3.26031	0.51990
2898.43750	6.20232	15.98419	5.27469	-1.89692
2902.34375	8.62024	17.08126	6.48326	4.95361
2906.25000	9.42644	20.29204	8.09475	6.96903
2910.15625	9.82977	17.70060	8.49751	6.96976
2914.06250	13.85949	17.19051	7.69143	10.59689
2917.96875	17.08340	15.55170	9.30291	11.80639
2921.87500	13.45742	16.72157	8.89979	13.82183
2925.78125	9.83144	17.52714	7.69076	11.00216
2929.68750	9.42881	15.67727	7.69053	7.77952
2933.59375	13.05553	15.91651	8.89912	10.60088
2937.50000	10.23539	13.90026	11.71939	15.83967
2941.40625	9.02694	13.93530	14.13677	15.03461
2945.31250	18.69766	11.54251	9.30139	17.85593
2949.21875	25.14490	9.23292	8.09238	23.09477
2953.12500	19.10129	13.43745	14.53907	17.85751
2957.03125	4.99906	10.62829	15.74764	13.42612
2960.93750	3.79069	6.30400	16.15038	10.20353
2964.84375	5.40292	6.36581	16.15015	7.38390
2968.75000	13.46198	4.41166	12.52353	13.83164
2972.65625	14.67125	2.90554	14.13510	23.90587
2976.56250	4.19555	-0.70969	16.14961	23.90683
2980.46875	5.00185	-4.15869	14.53770	17.05791
2984.37500	18.29898	4.00961	15.34340	20.28226
2988.28125	26.76096	9.67442	16.55202	22.29777
2992.18750	28.37312	5.67778	15.74597	16.65762
2996.09375	26.35891	7.28730	14.93991	13.03207
