 	TP9	AF7	AF8	TP10	
-1000.00000	15.96970	-4.24574	5.68317	-1.10508
-996.09375	6.29887	-1.82799	6.08724	0.10340
-992.18750	-0.55148	0.58979	6.89417	2.52067
-988.28125	4.68611	0.18700	4.88057	1.71442
-984.37500	5.08850	-1.02166	4.07573	3.72874
-980.46875	6.29676	-1.42439	2.06216	4.93720
-976.56250	4.68456	1.39627	0.45154	7.75737
-972.65625	11.93682	0.99347	4.48193	9.77177
-968.75000	9.51882	-1.02100	7.30354	7.75677
-964.84375	0.25090	-0.61791	3.67828	3.32427
-960.93750	8.71206	-4.64704	3.67933	1.30931
-957.03125	7.90584	-7.46737	5.29211	2.92075
-953.12500	1.45849	-3.84081	4.08434	1.71167
-949.21875	7.90495	-2.22902	2.87657	1.30849
-945.31250	7.50160	-3.84055	1.66880	5.74041
-941.40625	5.48655	-5.45211	2.87864	8.15770
-937.50000	11.12728	-5.45190	2.87968	5.33692
-933.59375	6.29176	-5.45171	2.88072	6.14252
-929.68750	10.32067	-5.04854	6.10522	8.55983
-925.78125	11.52908	-5.04833	6.10626	8.55956
-921.87500	5.48465	-5.45112	4.49553	13.39447
-917.96875	9.11065	-8.67437	2.07898	14.20009
-914.06250	9.51329	-7.86833	1.67711	10.97641
-910.15625	8.30409	-3.03299	5.70748	10.17028
-906.25000	1.45379	-6.25624	8.52907	6.54362
-902.34375	0.64757	-9.07650	4.90381	8.15506
-898.43750	4.67643	-11.09094	2.89023	10.16944
-894.53125	7.09353	-12.29954	5.30888	12.58675
-890.62500	8.70477	-9.07585	4.10116	13.79526
-886.71875	12.33070	-5.44929	1.68465	12.58616
-882.81250	15.55373	-6.25488	-3.55240	14.19758
-878.90625	13.13578	-7.46346	-4.35716	9.36216
-875.00000	12.32959	-6.65731	-5.56494	5.73555
-871.09375	9.50873	-5.44837	-5.56389	7.34708
-867.18750	3.46437	-4.23934	-4.75701	7.34682
-863.28125	0.64355	-5.85078	-5.15891	3.72019
-859.37500	5.07545	-5.85047	-5.56071	4.92878
-855.46875	6.68676	-4.64139	-3.94789	9.36088
-851.56250	6.68633	-6.25289	-0.32040	8.15195
-847.65625	7.08888	-8.67023	-1.52813	6.54009
-843.75000	2.65627	-9.87878	-6.36222	7.34583
-839.84375	-0.16454	-9.47561	-6.76406	4.92808
-835.93750	5.07322	-11.48992	-6.36004	3.71913
-832.03125	7.49044	-13.50427	-6.35895	2.91313
-828.12500	-7.41826	-15.11569	-4.74617	2.91299
-824.21875	-14.26856	-15.11539	-4.74507	1.70407
-820.31250	-5.80736	-14.71218	-4.34099	-3.93711
-816.40625	-1.37546	-15.51770	-4.33989	-6.75791
-812.50000	-1.37587	-14.30859	-5.54763	-5.54936
-808.59375	6.68230	-13.50250	-2.32307	0.89733
-804.68750	7.89068	-12.29348	-4.33653	3.31473
-800.78125	6.27863	-11.89018	-5.94719	-2.72943
-796.87500	4.26365	-13.09868	0.09788	1.70258
-792.96875	-3.39240	-10.68091	0.09895	7.34345
-789.06250	-5.00444	-7.45711	-4.33209	4.92567
-785.15625	-0.97535	-8.26265	-5.94275	0.49321
-781.25000	2.24769	-10.67999	-3.92695	0.09011
-777.34375	5.06777	-7.85916	-1.91118	2.50751
-773.43750	6.67911	-3.42665	-1.10415	5.32785
-769.53125	13.12568	-4.63518	3.73215	7.74526
-765.62500	22.39269	-0.20270	9.37424	15.40077
-761.71875	21.58652	3.82694	10.18123	17.41523
-757.81250	24.80966	3.82717	8.16765	16.60921
-753.90625	18.76534	4.23026	8.97459	23.05593
-750.00000	17.15317	3.82759	8.97567	24.26459
-746.09375	17.15287	2.21607	6.55918	18.22045
-742.18750	11.10863	-0.60415	9.78371	17.41442
-738.28125	20.77865	-0.20094	8.97896	21.44355
-734.37500	23.59883	0.60526	6.15959	20.63750
-730.46875	13.12238	0.20259	5.75776	20.23431
-726.56250	11.91333	-1.40885	-0.28504	19.83121
-722.65625	15.13646	-3.02036	-1.89572	17.41343
-718.75000	14.33029	-3.02013	0.92597	14.59281
-714.84375	11.91231	-2.21402	2.94175	12.17509
-710.93750	11.50896	-2.61665	4.55457	13.38372
-707.03125	11.50862	-1.00468	3.74988	11.36892
-703.12500	14.32882	1.81612	6.16865	10.15994
-699.21875	16.74607	4.23400	13.01960	10.56271
-695.31250	23.19256	5.04010	15.43840	14.18888
-691.40625	30.44493	5.44332	14.23080	16.20327
-687.50000	23.59475	6.65238	12.21730	17.41185
-683.59375	25.20609	7.86146	10.20379	18.21751
-679.68750	28.42915	8.66756	9.80193	15.79976
-675.78125	22.78774	7.45898	13.02650	15.79953
-671.87500	17.95210	4.23575	12.62463	18.61977
-667.96875	14.32534	2.62427	11.01402	22.64884
-664.06250	19.96596	-0.59895	11.41807	20.23102
-660.15625	30.03890	-1.00162	11.41922	21.43957
-656.25000	29.23257	1.41622	13.43507	25.06574
-652.34375	29.63509	0.61060	12.63032	21.43912
-648.43750	25.20247	-1.00088	11.82562	19.02137
-644.53125	15.53187	-3.01526	8.60331	14.18598
-640.62500	5.86121	-4.62670	9.00740	11.76825
-636.71875	5.45791	-3.82053	11.82901	8.54464
-632.81250	8.27816	-1.40260	9.00963	7.33563
-628.90625	10.29246	-2.61108	8.20487	12.57356
-625.00000	6.66571	-3.41665	6.19134	6.12650
-621.09375	10.29180	-1.80471	4.58069	4.51462
-617.18750	13.11197	-0.59566	6.19356	8.54377
-613.28125	7.87360	0.21048	4.17999	5.72313
-609.37500	7.87338	0.61375	6.59875	9.75244
-605.46875	-2.20006	-1.80350	7.80872	10.96115
-601.56250	-5.82672	-4.62366	3.37765	8.14061
-597.65625	6.66389	-4.62329	5.79639	8.14055
-593.75000	4.64908	-3.41414	5.39451	8.14055
-589.84375	6.26063	-5.02556	2.57511	6.12595
-585.93750	10.28971	-7.44283	2.97918	2.09662
-582.03125	1.82801	-5.02484	1.77152	-3.14154
-578.12500	1.42490	-3.81564	0.96682	-4.75327
-574.21875	1.82768	-7.84459	2.98256	-3.14149
-570.31250	-4.21653	-9.85890	4.19244	-1.93277
-566.40625	-8.24606	-10.66443	2.58185	-3.54455
-562.50000	-8.24626	-11.46991	1.77707	-2.33574
-558.59375	-3.81422	-9.05200	0.97232	-2.33571
-554.68750	-4.62015	-11.46929	0.97341	-1.12686
-550.78125	-7.84371	-11.06606	-0.63726	-3.54443
-546.87500	-4.62035	-11.06578	-0.23314	-9.58837
-542.96875	-3.41168	-13.88593	-0.23200	-6.76789
-539.06250	-2.20311	-13.48265	-1.43966	-0.72387
-535.15625	3.03476	-10.25885	-2.64732	4.91704
-531.25000	-2.20351	-9.04975	-0.63158	-1.93285
-527.34375	-12.27699	-13.07872	2.19001	-4.75354
-523.43750	-8.65077	-13.07840	-1.43524	2.49918
-519.53125	-0.59235	-11.46645	-4.65765	5.72252
-515.62500	-2.20420	-12.67493	-2.64192	6.93133
-511.71875	3.03383	-12.27161	-2.23791	7.73724
-507.81250	11.89817	-10.25653	-3.84853	6.93135
-503.90625	3.03363	-10.25611	-4.65328	-0.72427
-500.00000	-1.39870	-10.25572	-3.44337	0.88740
-496.09375	-1.39876	-10.65831	-3.44224	5.31967
-492.18750	-9.86041	-8.64323	-4.24690	-1.12722
-488.28125	-5.83126	-9.85167	-3.84292	-3.14185
-484.37500	-4.21962	-12.26891	-1.42414	4.11094
-480.46875	-8.24906	-15.89485	-2.22884	6.93149
-476.56250	-7.44335	-16.29747	-3.03362	6.93144
-472.65625	-2.60848	-13.87945	-2.62955	5.31966
-468.75000	0.61474	-10.65564	-5.04604	-1.93313
-464.84375	-3.41475	-7.83468	-8.26837	0.08148
-460.93750	-3.81789	-7.43138	-12.29653	2.49905
-457.03125	-3.41511	-7.83384	-12.29536	-1.12738
-453.12500	-7.04171	-11.05693	-10.27951	-2.33620
-449.21875	-9.05656	-10.25066	-7.86068	-1.93325
-445.31250	0.61369	-7.83264	-2.62141	3.70770
-441.40625	1.01657	-7.02642	-0.20263	3.30480
-437.50000	-4.22159	-7.02604	1.00738	0.08136
-433.59375	0.61347	-9.44325	0.60563	1.29022
-429.68750	-2.20717	-8.63697	-3.82539	-3.54488
-425.78125	-6.23664	-5.01023	-8.25642	-8.78291
-421.87500	0.20998	-2.59223	-6.24050	-7.17107
-417.96875	0.20981	-3.39777	-3.41882	-5.15645
-414.06250	-8.65482	-1.38278	-3.82067	-5.96227
-410.15625	-11.47544	-1.78542	-4.22246	-6.76824
-406.25000	-9.05812	-7.42616	-5.43022	-6.36535
-402.34375	-2.20846	-8.23173	-5.02624	-4.35075
-398.43750	-10.67019	-7.02262	-5.02512	-6.36546
-394.53125	-14.69962	-8.23107	-6.23272	-9.58893
-390.62500	-17.52022	-7.42487	-7.44037	-16.03586
-386.71875	-16.71442	-6.61863	-6.63344	-15.22988
-382.81250	-6.64138	-5.00667	-9.45287	-7.17122
-378.90625	-1.00045	-2.18588	-8.64600	-5.96238
-375.00000	-1.80653	-3.79729	-4.61565	-7.57413
-371.09375	-12.68575	-7.82631	-2.59992	-12.81216
-367.18750	-18.32696	-7.82604	-1.38999	-20.87067
-363.28125	-23.56520	-6.21411	-2.59771	-22.88519
-359.37500	-19.53604	-5.00505	-3.80542	-20.87054
-355.46875	-19.13317	-0.97548	-2.59552	-15.63238
-351.56250	-20.34213	-1.78107	-0.98276	-10.79723
-347.65625	-9.46322	-5.40721	-0.98173	-6.76798
-343.75000	-6.23989	-3.39226	0.22809	-5.55918
-339.84375	-2.21079	-0.97444	2.24382	-4.35035
-335.93750	5.84756	1.04046	1.84202	-6.76800
-332.03125	1.01212	3.45834	-1.38029	-8.37976
-328.12500	-3.01748	2.65279	-3.39380	-12.00618
-324.21875	-2.21190	1.84718	-1.37794	-15.22961
-320.31250	-7.85327	3.45918	3.05543	-9.58875
-316.40625	-6.64480	4.26530	3.45943	-5.55960
-312.50000	-1.00402	1.44510	4.66935	-5.55974
-308.59375	-0.60143	1.44541	4.67047	-6.36567
-304.68750	-1.00454	1.44571	2.65698	-7.57455
-300.78125	-1.00481	-0.16573	1.04642	-3.14240
-296.87500	-9.86965	-1.37417	0.24160	-3.94839
-292.96875	-11.07878	0.64074	3.06322	-5.96315
-289.06250	-1.40874	5.07323	7.09362	-5.15753
-285.15625	-3.02069	5.87941	6.28889	-4.75481
-281.25000	-1.00619	3.86508	3.46942	-7.17241
-277.34375	-1.40940	3.05947	3.06761	-10.79891
-273.43750	-1.40959	3.46272	2.66575	-3.14330
-269.53125	0.20195	4.26886	1.86102	-6.76979
-265.62500	-5.84213	2.25447	0.65336	-12.00791
-261.71875	-8.66280	1.04594	0.65448	-13.21667
-257.81250	-8.66303	-2.58013	2.26729	-15.63431
-253.90625	-13.90134	-5.80334	1.05967	-10.79918
-250.00000	-15.51326	-4.99722	-1.75978	-7.57580
-246.09375	-8.26073	-3.78812	-3.77330	-10.79926
-242.18750	-5.44042	-0.56440	-1.35461	-10.39634
-238.28125	-12.29046	1.85344	-0.14472	-7.57583
-234.37500	-22.76683	2.65964	-2.15828	-9.59042
-230.46875	-21.55815	1.85401	-1.75423	-12.41084
-226.56250	-13.49961	3.06311	-0.94718	-9.99311
-222.65625	-10.27620	2.66051	-2.55778	-9.18720
-218.75000	-10.27637	-0.56262	-3.76548	-12.00767
-214.84375	-11.08241	-2.17401	-2.15267	-10.79882
-210.93750	-8.26199	-0.56191	-0.13695	-5.15778
-207.03125	-5.84467	1.45312	0.26697	3.30373
-203.12500	1.00489	0.64766	0.26805	10.95933
-199.21875	3.42208	5.08024	0.67212	4.51244
-195.31250	2.61579	10.72167	-3.35600	-3.54636
-191.40625	2.21247	10.72207	-5.36944	-2.74058
-187.50000	-3.02605	10.72246	-2.14484	-1.93491
-183.59375	-0.60891	10.31988	-0.93483	2.49707
-179.68750	9.86679	9.51448	-4.15700	10.95830
-175.78125	11.47799	9.51494	-3.34997	8.94335
-171.87500	4.62759	9.11240	-0.52832	3.30198
-167.96875	-3.02868	8.70986	-0.52720	5.71908
-164.06250	-1.01454	9.51609	-0.52604	4.91281
-160.15625	0.99951	10.72529	-2.13656	2.49487
-156.25000	-2.62747	11.53155	-3.34418	3.30036
-152.34375	0.19257	12.33783	-2.13418	3.70289
-148.43750	2.20691	10.32360	1.89633	4.10561
-144.53125	3.81815	7.90650	2.70340	8.53770
-140.62500	5.02656	7.50397	1.89879	10.55219
-136.71875	1.80276	7.10141	0.69122	8.53741
-132.81250	1.80250	7.50478	2.70706	6.11972
-128.90625	-2.62982	7.90817	5.12580	3.70221
-125.00000	-4.64454	7.50565	1.50050	2.49356
-121.09375	3.81688	8.31196	-0.91596	1.28483
-117.18750	9.45784	9.11822	2.30850	-1.13273
-113.28125	6.63713	9.52160	3.51833	3.70247
-109.37500	1.80193	7.91033	1.90761	2.09085
-105.46875	0.19014	5.49316	-0.10607	-7.57945
-101.56250	-1.42160	8.31411	-0.10509	-6.37056
-97.65625	0.19004	12.74676	3.11932	0.47932
-93.75000	0.59299	12.74713	5.94077	3.29993
-89.84375	3.41347	9.92698	4.73293	2.09117
-85.93750	5.83101	8.71855	2.31631	-2.34103
-82.03125	5.42799	11.13650	3.52610	-3.54974
-78.12500	4.21917	11.94271	7.95930	-3.14672
-74.21875	-1.42196	11.94305	8.36322	-3.14670
-70.31250	-3.43660	10.33160	7.55832	-1.53501
-66.40625	-4.24256	9.52608	7.55932	-2.34086
-62.50000	-4.64568	12.34690	5.94860	-3.54970
-58.59375	-0.61663	13.95895	9.17302	-7.17612
-54.68750	0.18896	12.75045	9.17403	-6.37044
-50.78125	-1.42306	9.93026	5.54864	-4.75887
-46.87500	-3.43805	12.34816	4.74380	-9.19123
-42.96875	-0.61786	13.15441	5.55070	-10.80312
-39.06250	6.23164	12.75180	3.53708	-11.20619
-35.15625	0.18728	13.96095	1.12054	-12.01237
-31.25000	-9.48331	13.15542	1.92737	-8.38619
-27.34375	-7.46885	13.96154	5.95766	-1.93945
-23.43750	-9.48385	13.96185	9.58496	-2.74553
-19.53125	-8.67835	14.76801	9.18303	-4.35750
-15.62500	-3.84354	12.75362	9.18401	-1.53727
-11.71875	-0.62037	11.54506	8.78201	-1.94044
-7.81250	2.60286	11.14245	8.78303	-2.74648
-3.90625	1.39378	10.33684	8.38119	-5.97000
0.00000	-3.44168	9.12834	9.18809	-10.40241
3.90625	-9.08300	5.90524	8.78619	-6.37317
7.81250	-4.24795	8.72604	5.56382	-1.94090
11.71875	-1.02457	10.74101	5.16195	-7.17893
15.62500	-6.26269	9.93546	3.95414	-8.38762
19.53125	-3.03923	12.35334	3.95514	-1.13468
23.43750	-7.06852	10.33904	5.97077	0.07433
27.34375	-9.08305	9.53353	5.97178	-2.34301
31.25000	-5.05358	13.96607	3.55519	-3.14853
35.15625	-3.84460	14.77220	5.16795	-4.35698
39.06250	-3.44147	11.95197	5.57184	-3.95364
42.96875	-2.63543	13.56395	4.36401	-2.34148
46.87500	1.39419	15.98184	6.78256	0.88240
50.78125	2.20039	16.78794	5.17179	2.09165
54.68750	3.40939	17.19118	1.54630	-1.53427
58.59375	5.02135	17.99727	5.17361	-0.72790
62.50000	0.58934	20.41513	7.18918	-3.14506
66.40625	3.41021	21.22125	6.78719	-7.80697
70.31250	9.85752	21.22152	7.99694	-2.59185
74.21875	1.79929	25.65406	9.20668	-2.00676
78.12500	-1.02079	26.86309	10.81932	-4.40941
82.03125	3.41172	22.02820	13.23786	-0.01703
85.93750	1.80034	24.84894	11.22416	6.24870
89.84375	12.67972	23.64034	7.19586	8.98774
93.75000	13.48590	17.99955	5.58514	6.83722
97.65625	1.80120	16.38805	6.39206	3.34147
101.56250	-2.22782	17.59715	5.18422	2.48871
105.46875	0.18994	20.41796	5.58807	2.59009
109.37500	-1.01846	20.82114	7.60365	1.22562
113.28125	-2.22693	17.59800	7.60460	0.35415
117.18750	0.59392	15.98659	10.02316	-2.61715
121.09375	-1.42049	17.19563	10.02408	-3.05554
125.00000	-1.42031	20.82224	7.20452	2.97578
128.90625	-2.22596	20.41961	5.99666	1.12008
132.81250	0.99767	20.82280	9.62395	1.91467
136.71875	4.62415	21.22601	13.65426	4.70916
140.62500	-1.82265	19.61451	14.86397	1.07699
144.53125	0.59508	18.40606	13.65621	3.37709
148.43750	-1.41948	18.40634	11.23959	-3.81715
152.34375	-0.61354	20.01828	11.64343	-7.82050
156.25000	1.80416	20.01855	12.04732	-2.48292
160.15625	-6.65724	18.40719	13.66001	-4.05311
164.06250	-6.65709	18.00456	14.46683	-4.26420
167.96875	-8.26869	18.40786	15.27362	-5.12190
171.87500	-11.49191	17.60232	14.87163	-5.88262
175.78125	-8.67128	18.00560	11.64911	-4.04823
179.68750	-1.41836	20.82638	10.03832	-5.55458
183.59375	-2.22398	20.42374	11.24803	-5.84593
187.50000	4.62598	17.60345	12.45775	0.83410
191.40625	10.67006	18.81255	9.63813	-1.13464
195.31250	-5.84990	19.61871	9.63907	-2.80807
199.21875	-9.47606	17.60439	10.84881	0.19683
203.12500	-3.43193	17.20185	10.04390	-0.56268
207.03125	-4.23767	17.20215	10.44780	1.96511
210.93750	-0.20827	20.82881	12.86623	0.38166
214.84375	7.44753	24.85845	12.46417	0.02813
218.75000	3.82130	20.42658	9.24145	-0.09799
222.65625	2.20971	17.60637	7.22741	-1.71219
226.56250	2.20986	19.21847	4.40742	-3.33916
230.46875	-3.83402	15.59243	2.39329	-6.57009
234.37500	-5.04280	15.18990	4.81136	-6.01653
238.28125	3.01589	16.39900	5.21473	-4.82984
242.18750	1.80718	14.78765	3.60333	-11.31050
246.09375	-1.01324	15.19093	6.82712	-10.24203
250.00000	-3.02787	16.40000	6.42459	-6.67612
253.90625	-5.44539	15.59446	5.21612	-5.63039
257.81250	-5.44541	12.77428	5.61935	-7.55417
261.71875	-6.65426	8.74529	4.81380	-11.22758
265.62500	-5.44561	6.32802	6.82875	-13.90764
269.53125	-5.44577	9.55182	7.23201	-14.44038
273.43750	-2.22244	13.17855	8.44115	-13.72237
277.34375	-4.23741	14.38762	7.23265	-15.92936
281.25000	-6.25238	12.37330	5.62120	-14.35970
285.15625	0.99990	11.56779	4.81563	-11.91823
289.06250	-1.41819	12.77693	4.41301	-10.52035
292.96875	-4.23917	11.56845	4.81631	-8.93682
296.87500	-1.41910	8.74827	2.80204	-12.22879
300.78125	-9.88104	9.15148	3.20539	-15.47052
304.68750	-14.71659	11.16651	5.22045	-10.71968
308.59375	-14.31401	9.55510	4.01205	-9.82122
312.50000	-19.95536	8.34663	2.40071	-14.64136
316.40625	-20.35864	11.16750	1.19243	-14.18125
320.31250	-7.86812	14.79417	2.40161	-12.94912
324.21875	-3.03307	13.98866	2.40210	-15.14531
328.12500	-8.27119	12.37728	3.20854	-12.74201
332.03125	-12.70332	15.60113	3.61197	-13.10444
335.93750	-5.85346	14.79570	3.61249	-12.11680
339.84375	0.59356	12.78144	4.41886	-10.01985
343.75000	-8.27078	11.57304	3.61349	-7.86853
347.65625	-12.70288	10.76758	5.62866	-6.38662
351.56250	-15.12031	11.17086	3.61452	-10.36829
355.46875	-15.92593	13.99173	0.39165	-12.48345
359.37500	-14.71681	15.20092	3.21280	-9.10340
363.28125	-20.76046	8.75440	4.01927	-7.42525
367.18750	-23.17778	5.93426	2.00518	-11.30293
371.09375	-15.52174	9.15801	1.60282	-13.28122
375.00000	-10.68634	10.36718	1.60344	-15.68535
378.90625	-21.16216	5.93537	-0.00762	-19.06700
382.81250	-25.19107	3.92110	-1.61876	-19.86083
386.71875	-17.53501	6.33898	-2.82696	-23.05752
390.62500	-16.32585	8.35399	-4.03504	-25.06561
394.53125	-26.39884	6.33965	-4.84036	-26.55912
398.43750	-23.98099	4.32536	-1.61629	-28.22862
402.34375	-21.56315	3.51987	0.39904	-28.25377
406.25000	-23.17464	6.74369	0.39972	-23.51733
410.15625	-19.54813	7.95285	-1.61423	-22.34939
414.06250	-19.95082	3.11799	-4.03099	-25.36109
417.96875	-14.71253	2.31243	-4.43324	-24.09963
421.87500	-7.05669	5.13320	-4.43250	-22.12942
425.78125	-6.65356	6.34228	-4.43176	-21.54568
429.68750	-11.48851	8.76016	-1.61052	-22.05330
433.59375	-14.71190	9.16333	-2.01267	-19.74655
437.50000	-14.71180	7.55187	-2.81782	-18.36734
441.40625	-14.71172	9.16382	1.21230	-17.60683
445.31250	-20.75552	10.77587	2.01889	-20.36499
449.21875	-17.12911	7.14977	2.01968	-18.13112
453.12500	-9.07044	2.31491	3.63215	-14.14744
457.03125	-10.68207	1.50934	3.23001	-16.27162
460.93750	-19.54642	-0.90793	0.00735	-15.89626
464.84375	-23.17252	-0.50464	-0.79772	-14.73615
468.75000	-14.30788	1.91328	-1.19984	-16.22110
472.65625	-7.05491	0.30193	-0.79608	-19.44144
476.56250	-8.66647	-0.50360	1.21941	-17.00799
480.46875	-7.86053	1.91426	-1.60033	-11.76190
484.37500	-3.02527	4.33213	-2.40530	-9.89731
488.28125	-12.29260	2.31777	-0.38977	-13.50095
492.18750	-12.29244	-0.90533	-2.80650	-15.07828
496.09375	-6.24823	0.30381	-6.02902	-14.53435
500.00000	-11.48613	0.70708	-7.63985	-14.07045
503.90625	-4.23325	3.12495	-6.02725	-11.08634
507.81250	5.43712	7.55748	-2.80299	-9.56507
511.71875	5.43714	6.34897	-4.01080	-10.72644
515.62500	-0.20376	4.73759	-4.41291	-5.62850
519.53125	-3.42703	2.32030	-2.80033	0.94855
523.43750	-6.65038	1.11181	-3.60526	3.85724
527.34375	-15.11178	3.12678	-4.41021	5.25852
531.25000	-7.45600	2.32123	-3.60343	11.34449
535.15625	5.84065	0.30689	-4.00537	12.12654
539.06250	-2.21803	4.33644	-3.19866	1.86406
542.96875	-9.06800	8.76895	-1.18307	-4.55471
546.87500	-9.47089	7.56046	-0.37632	-1.66578
550.78125	-3.02397	5.14319	0.02759	3.59065
554.68750	5.43753	3.12883	-1.18031	5.68952
558.59375	6.24345	5.14375	0.02937	7.61156
562.50000	7.45224	7.15869	1.64200	6.38787
566.40625	12.28749	7.56186	2.04589	7.94254
570.31250	13.89922	6.35330	0.43506	10.73980
574.21875	7.04945	7.56237	-1.98160	7.29528
578.12500	-1.00902	7.96566	-4.39824	-0.34563
582.03125	-0.60603	7.96601	-5.20309	-1.19162
585.93750	3.82630	6.35455	-0.76991	0.64159
589.84375	11.48208	5.54897	0.84272	-2.26066
593.75000	9.87045	5.54925	-2.37981	-4.81441
597.65625	4.22964	2.72910	-3.58768	-5.89276
601.56250	-1.81414	1.52064	-2.78090	-3.92514
605.46875	-13.49894	4.34145	-3.98867	-0.19757
609.37500	-13.09591	1.92416	-2.77904	2.87009
613.28125	-11.48398	1.92448	0.04245	3.20738
617.18750	-8.26048	4.34242	-1.97124	4.66821
621.09375	-7.05167	0.31348	-3.98485	5.43850
625.00000	-7.85745	-0.49202	-4.38688	5.42586
628.90625	-3.02214	4.34352	-2.37128	1.95835
632.81250	-2.21616	4.74687	-0.75860	-1.67940
636.71875	0.20149	1.92675	-2.77231	-0.89955
640.62500	-1.00720	1.52424	-0.35370	0.30337
644.53125	-6.64830	1.12166	0.45316	0.99163
648.43750	-2.61894	3.94258	-3.57513	-1.77039
652.34375	5.03681	5.15167	-2.76828	-2.55034
656.25000	3.82805	2.73454	-1.15549	-0.83931
660.15625	-2.61879	5.15251	-1.96033	-1.20077
664.06250	-3.82751	4.34709	-2.36222	-3.82942
667.96875	-5.84206	2.33285	-1.55532	-5.49304
671.87500	-9.06541	4.34791	-3.97180	-5.04505
675.78125	-11.48281	2.33364	-5.17963	-4.41945
679.68750	-9.06523	2.73700	-4.77573	-3.91126
683.59375	-3.82705	6.36374	-3.96881	-2.18808
687.50000	-7.45329	3.94663	-4.37082	-3.16379
691.40625	-5.03572	3.14116	-8.39913	-4.72966
695.31250	1.81429	3.14157	-8.39816	-4.79142
699.21875	1.81440	1.93317	-6.78548	-4.20412
703.12500	-3.82665	7.97754	-6.78450	-2.14320
707.03125	-10.27344	8.38082	-6.38059	-3.24190
710.93750	-9.87048	1.12847	-4.76795	-6.03420
714.84375	-5.84110	2.74067	-5.57285	-5.98492
718.75000	-8.66148	3.14402	-1.94553	-5.70801
722.65625	-7.45251	-0.07901	-1.13873	-6.91936
726.56250	-8.66132	0.72732	-3.95821	-5.32305
730.46875	-15.10819	1.93654	-1.94263	-4.92762
734.37500	-20.34628	0.72826	-0.73283	-8.40342
738.28125	-17.12291	0.32580	-2.34358	-9.23154
742.18750	-3.82623	0.72921	-4.35731	-4.02738
746.09375	-3.42329	1.13255	-4.35631	-5.37657
750.00000	-3.42330	3.14763	-2.74363	-11.88387
753.90625	-3.82626	2.74511	-3.14565	-14.06146
757.81250	-8.66135	0.32788	-3.14475	-11.14997
761.71875	-7.04959	-0.88052	-0.72623	-8.37624
765.62500	1.81497	-0.88011	2.09521	-5.41511
769.53125	-0.60258	0.73202	1.69319	-5.94744
773.43750	-1.00532	1.94116	2.49993	-3.21448
777.34375	-1.81118	3.15038	2.50081	0.62281
781.25000	0.60649	0.33029	1.69588	-1.03038
785.15625	8.26231	-0.87813	1.29393	1.41147
789.06250	6.24776	-0.47483	0.48892	-2.42819
792.96875	0.60676	-1.68323	-1.12190	-5.27624
796.87500	-2.61667	-4.90630	0.49067	0.29683
800.78125	-6.64586	-2.48835	2.50621	-2.94436
804.68750	-6.24276	-1.27921	0.49245	-3.02817
808.59375	-5.43689	-2.08475	0.09046	2.30310
812.50000	-6.24256	1.13907	1.70308	1.51269
816.40625	-0.19851	0.73651	2.50986	1.57038
820.31250	4.63676	0.73685	-1.51852	1.99711
824.21875	6.65148	3.55771	-2.32347	-3.42233
828.12500	-5.43633	3.15514	1.30385	-1.42187
832.03125	-13.49485	0.33502	1.70766	3.05112
835.93750	-5.83917	1.54415	0.49978	0.81553
839.84375	-3.82451	1.14151	-0.30517	-3.53446
843.75000	-7.04794	1.94773	-2.31889	-3.39774
847.65625	-5.03320	8.39502	-2.31799	-1.51295
851.56250	-3.01837	11.21593	2.11516	-3.88286
855.46875	1.01097	9.20158	2.11604	0.44875
859.37500	4.63733	5.57557	0.90810	1.41103
863.28125	3.42852	4.77007	-0.29984	1.47730
867.18750	6.24909	4.36750	-0.70188	7.67265
871.09375	7.05499	3.96494	2.11951	10.12637
875.00000	-2.21233	3.96527	2.92625	8.12493
878.90625	-10.27089	1.95090	0.91245	5.54895
882.81250	-8.25639	1.54836	1.31630	2.74022
886.71875	-6.64476	3.96635	2.12301	1.96087
890.62500	-9.46530	2.35493	3.33267	-0.04749
894.53125	-1.80972	-2.07699	2.52761	-0.33241
898.43750	7.86057	-2.47953	4.54311	0.81833
902.34375	4.63712	1.14716	8.97624	2.40463
906.25000	7.45756	1.14750	7.36543	6.73797
910.15625	4.23407	1.14786	5.35168	7.09987
914.06250	-0.19823	2.35703	5.35254	4.49093
917.96875	1.41348	4.37204	4.54751	3.33449
921.87500	-1.00403	3.16360	2.53374	0.46938
925.78125	-1.00401	2.76106	-0.28590	0.24722
929.68750	-1.80993	1.14968	-1.89675	-2.67808
933.59375	-1.80989	-1.67042	-0.28419	-3.59502
937.50000	0.60779	1.15051	2.13430	1.41051
941.40625	6.24886	2.35974	3.34401	4.58856
945.31250	13.09858	4.77777	6.56833	5.85957
949.21875	12.29263	7.19571	7.77790	4.86977
953.12500	7.86031	7.59902	6.57002	4.82390
957.03125	6.65148	4.77888	6.97374	10.75821
960.93750	8.66609	3.16747	6.97461	9.52167
964.84375	6.65139	1.15317	3.34915	2.21998
968.75000	7.45727	0.34777	5.36473	4.76413
972.65625	2.21925	4.78045	9.39497	4.36414
976.56250	-3.82474	6.39261	4.56068	-3.67870
980.46875	2.21931	3.16965	3.35283	-2.86490
984.37500	14.30726	3.17011	6.98014	5.84937
988.28125	11.88970	4.37934	4.56346	4.26026
992.18750	3.02532	6.39441	4.96731	-1.74946
996.09375	-1.00392	7.60366	6.57999	-0.39980
1000.00000	-3.42154	8.40994	4.96913	0.86991
1003.90625	-2.21270	8.81328	2.95537	-1.38417
1007.81250	-2.61564	5.18730	0.53866	-7.51864
1011.71875	6.65181	4.38190	2.55421	-9.08302
1015.62500	6.65189	5.59116	8.59911	-7.61142
1019.53125	-5.03307	5.99454	5.37656	-7.48143
1023.43750	-1.40665	2.77151	4.16868	-9.00507
1027.34375	-1.80961	-0.04866	9.00470	-7.20083
1031.25000	-1.80964	5.59281	7.39389	-1.92071
1035.15625	-3.42127	2.77274	5.38014	-1.94447
1039.06250	-3.82417	1.56439	4.97805	-1.73066
1042.96875	0.20524	3.57948	3.36723	-3.71716
1046.87500	3.42889	4.38581	4.97984	-4.45458
1050.78125	5.84670	6.40094	9.81585	-1.61573
1054.68750	-1.40590	5.19258	8.20498	-4.35194
1058.59375	-3.82337	7.20769	4.98230	-4.84745
1062.50000	2.62369	8.81990	7.40070	-2.04184
1066.40625	7.05608	8.82031	6.59567	0.72156
1070.31250	0.20634	10.43243	3.77587	-4.94272
1074.21875	-4.22569	10.02995	1.76202	-7.58133
1078.12500	-7.44898	6.80696	-0.65474	-4.74616
1082.03125	-14.70169	2.37516	-1.45983	-8.00981
1085.93750	-13.08990	2.37558	-0.25019	-14.63820
1089.84375	-9.46344	6.80827	2.16824	-20.36095
1093.75000	-1.40483	6.40573	3.37784	-17.67671
1097.65625	-0.19607	2.77977	3.78153	-11.09952
1101.56250	-3.82242	1.16840	3.78232	-6.31142
1105.46875	-4.22521	1.16880	5.39487	-5.00157
1109.37500	2.22171	5.60149	7.41029	-3.54581
1113.28125	8.66862	8.01957	7.41109	-1.99981
1117.18750	4.23659	6.81126	7.00895	-2.15076
1121.09375	-3.41896	6.40877	7.81558	-4.60398
1125.00000	-6.64226	3.18579	6.60765	-3.40784
1128.90625	1.41657	2.38037	3.78787	1.58623
1132.81250	-0.59790	4.79841	0.56521	1.97795
1136.71875	-0.59779	5.20174	0.56601	0.34019
1140.62500	3.83454	5.60512	2.17858	4.36373
1144.53125	1.41700	10.03777	1.77645	7.46962
1148.43750	8.26696	8.82937	-1.84910	6.31936
1152.34375	3.02902	5.20337	-2.65415	3.52476
1156.25000	1.41738	5.20376	-1.44452	0.40074
1160.15625	9.07321	6.81591	1.37684	0.84519
1164.06250	7.86461	7.62219	3.79515	5.87223
1167.96875	7.05892	7.21969	7.01942	10.25263
1171.87500	3.02971	6.81721	8.22903	12.31242
1175.78125	-0.99950	2.78829	4.60340	9.71455
1179.68750	2.62685	1.98279	5.81295	5.79057
1183.59375	6.25338	4.80372	7.82835	8.31978
1187.50000	7.86526	7.62458	7.02330	6.94123
1191.40625	4.64198	7.22202	3.39771	5.37540
1195.31250	-8.65455	1.98432	1.78674	0.47852
1199.21875	-5.83394	2.79061	3.80217	-4.57520
1203.12500	-0.99858	3.59686	3.40008	-5.33470
1207.03125	-3.41604	2.79140	2.59501	-7.64199
1210.93750	-1.80422	4.40348	4.61049	-0.76392
1214.84375	0.61352	4.80684	8.64064	5.73236
1218.75000	1.41952	5.61312	11.86484	0.77115
1222.65625	-1.40080	5.21056	7.43342	-2.45467
1226.56250	-2.20644	4.00219	0.98726	0.35059
1230.46875	-0.19166	4.80841	0.58509	1.14901
1234.37500	-6.23545	4.00299	5.82399	-1.11785
1238.28125	-10.66757	4.40629	7.83938	-0.73701
1242.18750	-11.07031	5.21253	3.81081	-1.97956
1246.09375	-11.87604	4.00423	0.99108	-1.31389
1250.00000	-5.83194	0.37824	0.99187	-0.56840
1253.90625	0.21214	-1.23306	1.79851	0.88033
1257.81250	-0.99644	-0.42682	-0.61831	-0.64037
1261.71875	-9.05509	0.37946	-1.02044	-4.31358
1265.62500	-7.04044	6.42384	3.41262	-1.35231
1269.53125	-4.62278	5.21546	3.81631	-2.28771
1273.43750	-10.66657	2.79832	-1.01801	-3.58389
1277.34375	-7.44286	6.02215	-1.82302	-2.16401
1281.25000	-7.03975	4.00790	3.01304	-3.41417
1285.15625	-10.26279	4.00828	3.81974	-1.77795
1289.06250	-0.99499	6.02329	3.41765	2.03842
1292.96875	6.25812	4.81489	1.80673	2.01113
1296.87500	17.13767	5.21825	1.80757	1.54072
1300.78125	15.92942	6.02461	1.80840	2.32931
1304.68750	-1.79888	3.20452	-2.22009	0.63436
1308.59375	-6.63337	2.80206	-4.23392	-2.89830
1312.50000	-4.61804	5.22005	-1.41261	-5.70280
1316.40625	-6.63208	6.02638	-1.00886	-4.03286
1320.31250	-5.42266	3.20625	-2.61987	-1.99380
1324.21875	1.02487	1.99789	0.20148	-8.62146
1328.12500	-4.21265	-0.01634	0.60515	-13.87312
1332.03125	-11.06197	-4.44811	-4.63216	-10.20553
1335.93750	-5.01759	-4.04481	-4.63140	-10.02306
1339.84375	-0.18199	-1.62683	-2.61603	-12.35789
1343.75000	-5.01682	-1.22345	-2.21231	-12.22089
1347.65625	-5.01653	-0.82014	-0.19689	-8.32108
1351.56250	-4.61332	-1.62557	2.62440	-5.45260
1355.46875	5.46007	-0.01342	2.22228	-2.32956
1359.37500	11.90712	-0.41587	2.22310	0.24456
1363.28125	2.63988	0.79339	3.43274	1.11675
1367.18750	3.44583	4.01731	3.03063	1.26833
1371.09375	0.22242	-1.62339	1.01682	-1.91889
1375.00000	-0.98626	-2.02598	-1.39992	0.10913
1378.90625	-1.38922	0.79497	1.42150	2.77129
1382.81250	-2.59800	-1.21922	1.82525	-1.24615
1386.71875	-0.58338	-4.44228	-2.20320	-9.68119
1390.62500	1.43125	-5.24779	-3.81403	-10.48068
1394.53125	0.22238	-3.23272	-3.41033	-6.73629
1398.43750	-9.44800	-4.44114	-1.39483	-4.37673
1402.34375	-10.65684	-4.44075	0.62068	-1.17857
1406.25000	0.62518	-2.02282	-1.79602	-1.68043
1410.15625	7.07199	2.00688	-3.40689	1.50210
1414.06250	5.05720	0.79852	-0.58548	0.10203
1417.96875	1.43076	-2.82750	-0.58462	-4.27793
1421.87500	5.46008	-2.02125	-0.98669	-1.90493
1425.78125	8.68349	-2.82670	1.02877	1.49930
1429.68750	9.48924	-0.00578	-0.58212	4.61792
1433.59375	9.48910	0.80049	-1.79014	8.13316
1437.50000	3.44499	-1.21379	-0.98347	3.06533
1441.40625	4.25084	-0.81053	-1.38564	-0.20352
1445.31250	3.04199	-0.81014	1.83864	0.66462
1449.21875	-3.40498	-1.61562	3.04825	0.07780
1453.12500	-6.22549	-2.82399	2.64610	-3.99737
1457.03125	-8.24026	-0.80892	1.84108	-11.76257
1460.93750	-2.19641	1.20607	5.87116	-10.17861
1464.84375	-3.80829	0.40060	4.66310	-13.85394
1468.75000	-14.28458	-1.61373	-0.17133	-14.93622
1472.65625	-19.92569	-1.21046	1.03816	-18.55981
1476.56250	-17.50817	-2.41895	3.45640	-28.61740
1480.46875	-25.96971	-2.41865	7.48632	-29.81835
1484.37500	-27.58150	1.20796	7.88983	-29.96867
1488.28125	-16.70235	3.62585	8.69633	-24.30516
1492.18750	-26.77577	4.02911	10.71162	-20.64466
1496.09375	-29.59638	2.01468	15.95039	-14.86299
1500.00000	-28.79065	6.04427	17.15980	-14.39930
1503.90625	-24.35835	13.29733	18.77223	-16.25062
1507.81250	-16.70263	16.52103	21.99633	-5.46209
1511.71875	-11.46450	17.32725	20.78819	1.03203
1515.62500	-6.22632	14.10405	21.19184	3.71238
1519.53125	-3.00288	13.29847	20.78958	3.43948
1523.43750	6.26459	12.89574	16.35802	5.13917
1527.34375	4.25004	11.68714	13.53823	3.31706
1531.25000	1.02658	12.49317	11.92709	-0.67022
1535.15625	5.86175	13.29928	11.12188	5.75283
1539.06250	5.05589	9.67309	13.13718	7.98121
1542.96875	5.45883	9.27035	12.73495	8.00938
1546.87500	2.63840	8.86770	11.92970	10.89828
1550.78125	2.23562	2.42106	12.33330	9.70774
1554.68750	4.25038	2.01838	12.33398	12.20965
1558.59375	4.65330	5.64506	13.94642	14.93760
1562.50000	10.29435	7.65997	13.94710	13.31101
1566.40625	13.51785	4.03389	9.51550	15.26857
1570.31250	16.33851	3.22825	11.12786	14.84251
1574.21875	18.35325	6.45196	12.74029	13.81559
1578.12500	12.30930	7.25805	10.72634	16.65077
1582.03125	1.83316	4.43781	12.33872	19.83409
1585.93750	1.02740	2.02043	10.32473	18.44403
1589.84375	7.07155	-1.20279	7.50489	11.51259
1593.75000	6.26595	-0.39676	7.50555	6.54141
1597.65625	11.10137	2.82690	10.32672	11.10428
1601.56250	14.72794	1.21535	8.71570	15.08667
1605.46875	11.10181	1.61853	7.10466	15.99386
1609.37500	4.25220	-1.60473	8.31414	8.98834
1613.28125	1.43187	-3.61915	5.89720	0.05843
1617.18750	1.43216	1.21621	5.89787	-2.91286
1621.09375	-8.64077	1.21643	3.07804	-11.81268
1625.00000	-13.47565	0.00788	1.86990	-23.51013
1628.90625	-16.29587	4.03751	1.06470	-31.00674
1632.81250	-23.95127	4.84356	-0.14343	-35.45012
1636.71875	-48.12689	-0.79727	0.26020	-49.57861
1640.62500	-57.39413	-4.82635	6.30476	-57.23998
1644.53125	-50.94711	1.62075	10.33468	-49.70174
1648.43750	-65.85542	2.42678	9.12649	-64.95450
1652.34375	-81.16662	1.62118	8.72417	-80.64277
1656.25000	-81.97233	4.03905	7.91889	-75.70806
1660.15625	-84.38979	4.84513	10.74008	-79.29285
1664.06250	-81.16615	5.24829	13.56119	-80.71259
1667.96875	-80.76305	4.03981	14.36764	-81.57018
1671.87500	-85.19505	2.02534	13.56241	-85.95720
1675.78125	-74.31578	-1.19780	16.38351	-71.22892
1679.68750	-61.01887	-3.21223	17.99587	-55.81210
1683.59375	-54.97467	0.81732	12.75838	-57.71512
1687.50000	-54.97454	1.62344	13.56483	-50.63213
1691.40625	-48.52755	-0.79386	18.80357	-37.28947
1695.31250	-34.42475	1.62406	17.19249	-32.11296
1699.21875	-25.15715	4.44489	14.37264	-23.46698
1703.12500	-21.53052	2.83349	12.76157	-14.55610
1707.03125	-8.23364	-0.38971	7.12115	-12.83408
1710.93750	10.30135	-0.79240	2.28659	-5.95593
1714.84375	6.27228	0.81959	2.69007	6.18147
1718.75000	10.70467	0.41693	1.07898	15.72583
1722.65625	21.58397	-2.00038	-0.12919	22.57330
1726.56250	17.15187	-4.01473	-1.74026	26.99033
1730.46875	20.77850	-6.02905	-2.94846	33.02696
1734.37500	26.01680	-5.22293	-3.75367	31.56599
1738.28125	24.40523	-6.02849	-5.36485	30.33517
1742.18750	27.62889	-4.41646	-5.36421	33.92794
1746.09375	29.64372	-4.41620	-5.36361	30.56435
1750.00000	24.80870	-6.43056	-5.36304	28.08648
1753.90625	28.43519	-8.44501	-4.15368	31.14713
1757.81250	38.50869	-7.63890	-6.97362	32.85004
1761.71875	38.10602	-9.65332	-5.76425	29.98282
1765.62500	42.53851	-9.25016	-3.74898	32.13824
1769.53125	27.63020	-9.24994	-7.37485	33.21769
1773.43750	12.31897	-10.86146	-11.00066	31.11566
1777.34375	20.78062	-9.24956	-12.61186	25.28274
1781.25000	14.33382	-12.06985	-10.99961	19.19742
1785.15625	17.15447	-14.89013	-9.79033	18.01315
1789.06250	30.85426	-12.47234	-7.37218	19.00887
1792.96875	27.63093	-10.86038	-4.95399	22.20477
1796.87500	22.39301	-11.26310	-6.56517	26.56926
1800.78125	22.79615	-9.24824	-7.77343	20.91064
1804.68750	21.18461	-6.42743	-6.96701	22.03582
1808.59375	24.00539	-8.03899	-4.95180	23.33790
1812.50000	26.42312	-8.84456	-5.35419	24.15936
1816.40625	22.79692	-10.05312	-7.77126	23.81428
1820.31250	21.18529	-10.85879	-4.14433	22.62939
1824.21875	17.15617	-7.23220	-2.93489	29.70100
1828.12500	14.33589	-5.21731	-5.35184	28.47824
1832.03125	17.96244	-10.05220	-4.14248	24.48985
1835.93750	15.14214	-11.66362	-6.15656	21.44851
1839.84375	15.54523	-10.85757	-8.97645	19.11331
1843.75000	13.12776	-11.66315	-10.58769	14.41489
1847.65625	9.50158	-10.45424	-8.57249	17.10569
1851.56250	14.73972	-8.43931	-8.97480	18.76514
1855.46875	14.73983	-6.82738	-11.79487	15.44122
1859.37500	10.71065	-7.23010	-12.60019	15.19478
1863.28125	0.23464	-8.03574	-10.58504	11.23191
1867.18750	-3.39143	-6.82675	-9.37574	11.78643
1871.09375	-0.97357	-7.22946	-10.58405	10.21107
1875.00000	-3.79394	-6.42331	-8.97176	6.19515
1878.90625	-7.42001	-5.21443	-8.56838	2.81361
1882.81250	-8.22571	-5.61713	-9.37369	-1.60655
1886.71875	-7.82264	-4.00524	-11.38778	-6.81784
1890.62500	-5.80779	-3.19915	-15.81952	-10.84049
1894.53125	-7.82224	-2.79603	-16.22194	-12.33398
1898.43750	-5.80736	-3.19872	-12.59512	-10.37709
1902.34375	-1.37499	-5.21322	-8.56535	-8.79050
1906.25000	-6.21000	-6.01888	-7.75903	-12.11259
1910.15625	-14.67146	-4.80990	-7.35555	-11.34745
1914.06250	-17.08888	-4.00389	-7.35500	-7.10624
1917.96875	-13.46224	-7.22717	-8.56323	-6.65060
1921.87500	-9.83566	-10.04753	-7.35386	-9.51552
1925.78125	-1.77686	-8.43566	-5.74158	-10.54327
1929.68750	1.04390	-5.21212	-3.32349	-4.60397
1933.59375	-5.40280	-6.82363	-2.51713	-7.13234
1937.50000	-8.62602	-6.82344	-2.91954	-4.54421
1941.40625	-9.83462	-5.21155	-1.30736	-2.17172
1945.31250	-8.62563	-7.22604	1.11075	-5.33270
1949.21875	-0.56683	-6.01710	2.72293	-3.90456
1953.12500	10.31251	-4.80817	3.52932	-0.32377
1957.03125	9.50685	-5.61387	3.93270	7.22257
1960.93750	5.88063	-8.03129	3.53029	12.43318
1964.84375	8.29843	-6.41933	2.72486	11.17579
1968.75000	5.07520	-1.58405	1.51657	9.69091
1972.65625	0.24027	-2.79267	-1.30352	10.09702
1976.56250	8.70206	-4.00132	-3.31766	8.90423
1980.46875	13.94030	-2.79239	-4.12303	2.46554
1984.37500	9.50824	-3.19514	-2.51082	3.12146
1988.28125	4.67323	-1.18034	1.51906	9.18827
1992.18750	-2.57926	-1.58322	1.51958	10.43160
1996.09375	-4.59363	-6.41818	1.92301	4.52870
2000.00000	-3.78765	-6.82100	1.92352	-0.64819
2003.90625	-2.17575	-6.41785	1.11813	2.73879
2007.81250	-0.56380	-7.22366	1.52158	6.67770
2011.71875	8.30094	-0.77661	1.92494	6.72526
2015.62500	13.13627	1.64116	1.92542	4.57057
2019.53125	14.34532	-3.59672	2.32886	3.08905
2023.43750	8.70451	-4.80534	1.92641	0.35680
2027.34375	-4.99493	-3.19340	2.73272	-1.86805
2031.25000	-7.41221	-3.19318	1.52442	4.62110
2035.15625	-5.39740	-3.99884	0.31600	1.77704
2039.06250	-5.80000	-5.20741	2.33095	-3.24699
2042.96875	-3.38199	-4.40125	0.71947	-2.81560
2046.87500	-4.99340	-3.59512	-3.30958	-1.53810
2050.78125	-3.78426	-1.98317	-3.71219	-2.32537
2054.68750	7.09521	-0.37118	-3.30904	-1.83788
2058.59375	1.85738	-1.17676	-4.11459	1.69619
2062.50000	-2.17162	-0.37064	-2.90549	0.87575
2066.40625	-6.60361	-1.57918	-2.50227	0.01299
2070.31250	-7.40919	-1.17600	-4.11365	0.79581
2074.21875	-0.96205	0.43591	-2.50170	-0.63385
2078.12500	1.05283	2.04780	-0.48675	0.99267
2082.03125	7.09703	0.43629	1.12521	4.57906
2085.93750	5.88849	-2.38399	0.72259	5.20367
2089.84375	-3.37858	-3.18967	-3.70921	3.51049
2093.75000	0.65104	-4.39827	-3.70886	2.56866
2097.65625	1.05433	-3.59221	0.32074	2.69935
2101.56250	5.08401	-2.78620	-0.08189	0.63784
2105.46875	14.75468	-1.57723	0.72434	3.55976
2109.37500	8.30816	-2.78591	3.94815	8.64229
2113.28125	1.86153	-3.59157	3.14267	6.96510
2117.18750	1.45883	-0.36795	2.33720	6.81448
2121.09375	6.29439	-0.36776	1.53178	7.98803
2125.00000	4.68296	1.24412	0.72632	6.36395
2128.90625	-0.95769	2.85607	3.54729	3.70262
2132.81250	4.68371	-2.78478	2.33891	4.49748
2136.71875	3.87824	-5.60508	-0.48115	-0.76639
2140.62500	-2.97122	-3.18732	-2.09246	-3.59249
2144.53125	-9.82074	-5.20187	-2.49497	-1.29210
2148.43750	-7.80585	-6.00758	-1.28573	0.37829
2152.34375	-3.37332	-4.39572	1.53530	6.04550
2156.25000	-2.16436	0.03658	0.32700	4.13050
2160.15625	-1.76131	2.85724	-1.68719	-1.46887
2164.06250	-0.95512	-0.36613	-1.68672	-4.09736
2167.96875	0.25386	-0.36600	-0.88038	-3.34318
2171.87500	2.26883	-1.57467	2.34351	-2.49206
2175.78125	-0.95431	-4.39506	-0.47652	-0.65747
2179.68750	0.25457	-5.20086	-3.29657	3.07446
2183.59375	-0.14816	-4.39484	-2.89319	2.38036
2187.50000	-5.78898	-1.57420	-2.48986	1.80787
2191.40625	-2.96826	-1.57404	-1.28061	5.88327
2195.31250	1.86715	-3.99145	1.54044	3.40413
2199.21875	10.32896	2.05270	4.36140	3.18571
2203.12500	11.13508	8.09685	6.77943	7.66444
2207.03125	3.07679	5.27642	10.00323	12.20701
2210.93750	-4.17576	3.26192	10.80953	13.84717
2214.84375	-10.62249	0.44154	11.21284	11.07621
2218.75000	-11.02524	0.44167	7.98983	3.69759
2222.65625	5.09219	4.47111	4.76682	1.68064
2226.56250	9.92756	7.29176	7.18482	7.70955
2230.46875	1.06322	8.09780	9.19989	6.49355
2234.37500	-4.98064	6.48615	5.97688	5.03270
2238.28125	-3.77162	3.26286	2.35096	4.60790
2242.18750	2.27263	3.26302	3.15727	3.76852
2246.09375	-2.56230	4.06906	4.76942	4.03144
2250.00000	1.06435	2.45745	4.76989	5.98587
2253.90625	5.49678	1.65177	6.38208	7.03197
2257.81250	-4.57621	1.65193	5.17375	6.72029
2261.71875	-6.59060	0.84623	5.98006	10.70294
2265.62500	-2.56100	-3.98880	9.20395	12.45553
2269.53125	-1.35192	-5.19744	8.39861	15.14681
2273.43750	9.12456	-2.77964	4.77271	17.07423
2277.34375	13.55705	-0.76482	3.56443	19.70306
2281.25000	11.54259	1.24996	2.35613	17.64718
2285.15625	8.72228	2.45889	-0.46388	11.62783
2289.06250	9.12546	1.65316	1.55128	12.22079
2292.96875	19.19900	0.44447	3.16342	10.17886
2296.87500	22.42274	-1.57007	1.55217	7.29071
2300.78125	14.76735	-3.18162	3.16432	11.30245
2304.68750	12.35012	-2.77851	6.38821	12.42765
2308.59375	17.99141	1.65393	4.37404	11.71516
2312.50000	16.38003	4.87754	0.74808	10.11899
2316.40625	13.15675	2.46014	1.15144	10.98261
2320.31250	0.66596	1.65450	1.55483	12.61820
2324.21875	-2.55755	3.26634	3.97281	12.03391
2328.12500	7.11274	3.66945	5.58506	10.81086
2332.03125	-1.75179	0.44621	-0.05552	8.83689
2335.93750	-3.76652	-1.97118	-2.87556	7.80995
2339.84375	4.29199	-3.17975	-0.86040	5.07154
2343.75000	3.48582	-3.17957	-0.45696	6.41683
2347.65625	4.69431	-1.16471	-0.85938	5.88389
2351.56250	6.70865	0.44714	0.34996	5.93132
2355.46875	-0.54438	2.86489	-0.05248	5.02465
2359.37500	-1.75347	-0.35843	0.75389	1.95734
2363.28125	1.46966	-1.97002	3.17201	1.21742
2367.18750	0.26055	1.65656	4.78424	2.98036
2371.09375	-0.94828	1.65679	5.18774	4.22511
2375.00000	1.06633	-0.35764	-0.04977	3.02958
2378.90625	7.11033	1.25426	-4.48145	0.05072
2382.81250	11.54262	2.86618	-6.09260	0.06261
2386.71875	10.73682	1.65752	-4.48036	6.93919
2390.62500	5.09598	3.67232	-0.45049	6.94573
2394.53125	0.66395	2.46370	1.16178	1.42297
2398.43750	-0.14164	3.26975	-1.25524	7.40929
2402.34375	7.11145	8.10513	2.77460	11.41358
2406.25000	18.39386	9.71699	7.20738	11.31509
2410.15625	19.20009	10.12012	3.98443	13.28916
2414.06250	10.73902	6.49391	3.17906	13.09827
2417.96875	9.53074	4.47944	6.40293	12.34521
2421.87500	8.72522	10.12062	7.20923	13.91271
2425.78125	3.08463	12.53833	6.80675	14.49682
2429.68750	1.87621	6.49459	6.00120	13.58663
2433.59375	3.48830	2.06252	6.80751	17.10242
2437.50000	3.08583	1.25682	5.59913	18.48204
2441.40625	5.10090	4.07757	5.19657	11.18437
2445.31250	7.92179	4.07772	2.77935	7.62073
2449.21875	14.36910	0.04851	-0.44364	8.64616
2453.12500	15.98130	-3.17468	-2.45794	9.00375
2457.03125	6.31152	-5.18918	-1.24875	9.70051
2460.93750	-4.16421	-2.36842	-2.05418	7.65861
2464.84375	-2.95498	-1.15944	-3.66544	5.59563
2468.75000	0.26886	-2.77104	-1.65044	3.30512
2472.65625	-3.76002	-8.41185	-2.45596	4.11442
2476.56250	-6.58010	-9.21755	-2.05259	4.13064
2480.46875	1.88183	-3.57628	-3.26095	2.12436
2484.37500	2.28509	-3.57608	-3.26053	2.37753
2488.28125	0.67369	-5.18765	-1.24546	7.23576
2492.18750	3.89745	-6.39615	2.38137	11.70262
2496.09375	5.10655	-6.39596	0.36715	8.62036
2500.00000	9.13620	-6.79878	-2.45299	8.68169
2503.90625	1.48089	-7.60440	-4.06428	6.83090
2507.81250	-1.33922	-7.20128	-3.25802	4.32326
2511.71875	3.09342	-5.99225	-1.64587	5.17693
2515.62500	10.34651	-3.97739	-3.66007	2.61954
2519.53125	9.94388	-3.97716	-5.67438	0.73525
2523.43750	-2.14368	-5.18576	-5.27104	-1.19094
2527.34375	-7.38141	-2.76796	-4.86764	-0.19231
2531.25000	-7.38105	-2.76773	-6.07605	4.28228
2535.15625	-7.38070	-5.18514	-4.86681	4.25889
2539.06250	-0.93352	-4.37908	-6.07517	5.68179
2542.96875	1.48431	-2.76722	-4.06013	8.93375
2546.87500	11.15497	-0.75242	-1.64212	11.82305
2550.78125	13.57285	1.66529	-2.04463	9.82706
2554.68750	3.09697	1.26245	-2.04421	5.88239
2558.59375	-1.73793	0.85967	0.37385	6.99891
2562.50000	-4.15520	2.87447	3.59771	3.35788
2566.40625	-2.54325	2.87461	-0.02828	-0.72830
2570.31250	4.70976	0.86002	-1.23668	1.66633
2574.21875	7.12763	-2.36332	-0.02751	0.63967
2578.12500	-0.52785	-3.97500	0.37579	1.05751
2582.03125	0.27821	-0.75144	1.18195	3.83812
2585.93750	-0.12442	2.87502	-0.02649	-1.98405
2589.84375	-1.73591	0.86043	1.18266	-2.06547
2593.75000	3.90538	-2.36288	4.00354	4.24562
2597.65625	5.92033	-1.95987	-0.02541	7.59971
2601.56250	11.96460	-1.55684	-2.84554	4.73240
2605.46875	14.78546	-1.55676	-0.02466	3.22209
2609.37500	13.57704	2.87560	0.37868	10.31927
2613.28125	8.74214	3.68157	-1.63559	13.07438
2617.18750	-0.52498	0.05531	-2.03808	9.29746
2621.09375	-0.52471	-2.36207	-2.84348	6.03874
2625.00000	1.08727	-1.95906	0.38043	5.22044
2628.90625	1.08754	-1.95894	1.58961	4.17080
2632.81250	-0.92675	-2.36172	-2.03643	2.54802
2636.71875	-8.98522	-2.76459	-2.84188	-2.71584
2640.62500	-1.32933	0.05602	-5.25905	-5.13893
2644.53125	3.90899	2.07083	-6.46744	-7.27088
2648.43750	-4.14937	1.26508	-6.06406	-4.79463
2652.34375	-2.53744	-2.36115	-5.66073	2.08130
2656.25000	2.70089	-3.16692	-2.83984	1.37495
2660.15625	3.50706	-1.55512	-0.42187	4.64014
2664.06250	-8.17756	-3.56964	-2.03322	2.41462
2667.96875	0.68720	-3.16659	-4.04750	-0.86039
2671.87500	13.98422	0.05695	-4.04710	-4.44149
2675.78125	5.92586	1.26587	-2.83787	-5.42742
2679.68750	-3.74437	-2.76334	-2.83749	-2.50144
2683.59375	-5.75888	-2.36030	-2.43423	-5.21031
2687.50000	-8.17626	0.05734	0.38669	-2.96239
2691.40625	-7.37024	-4.37471	0.78997	-0.49887
2695.31250	-10.99663	-8.00094	-2.83594	-2.57533
2699.21875	-17.04068	-6.79199	-2.02966	-3.19695
2703.12500	-4.14709	-6.38881	-2.02927	-2.74789
2707.03125	-4.14733	-6.79165	-5.65522	-3.84680
2710.93750	-10.59451	-6.38853	-5.65479	-2.60997
2714.84375	-2.53625	-3.16502	-2.83383	5.09468
2718.75000	0.28386	-1.95614	-3.23627	10.60923
2722.65625	2.29812	-6.38820	-5.25041	4.96532
2726.56250	3.10348	-7.19402	-3.63810	0.11442
2730.46875	-1.73218	-4.77630	-3.23471	-1.10219
2734.37500	-8.17949	-4.77622	-4.84588	-3.36945
2738.28125	-6.16531	-4.77612	-5.24836	-3.39195
2742.18750	-4.55412	-5.98481	-1.62145	-3.42608
2746.09375	-4.15161	-6.38759	-5.24736	-3.56674
2750.00000	-2.13729	-2.76118	-11.29081	-6.44804
2753.90625	-8.98745	-0.74643	-10.48454	-5.40252
2757.81250	-3.74968	0.46246	-10.88700	-3.29712
2761.71875	-3.74999	0.46256	-10.48369	-6.56770
2765.62500	-7.37651	-0.34320	-8.87148	-6.83021
2769.53125	2.29360	-0.74604	-8.87104	-7.76574
2773.43750	-0.52712	-3.56641	-10.07940	-11.88268
2777.34375	-3.34768	-3.96924	-7.66145	-10.46288
2781.25000	-3.34764	-0.34271	-7.25804	-10.50445
2785.15625	-10.60030	-1.55138	-10.88399	-9.67417
2789.06250	-4.15316	-3.56586	-12.09241	-9.48432
2792.96875	0.68225	-3.96872	-12.09208	-15.15282
2796.87500	-4.15268	-5.17739	-13.30056	-11.19123
2800.78125	-6.57000	-1.95380	-10.07673	-3.95597
2804.68750	-3.74919	0.86685	-9.67356	-4.03944
2808.59375	-2.13714	-1.95361	-12.89665	-10.39283
2812.50000	-10.19536	-2.75939	-10.07588	-15.21221
2816.40625	-12.20966	-3.16217	-6.44928	-11.93072
2820.31250	-13.01507	-5.17674	-8.46365	-9.89179
2824.21875	-11.40274	-7.99715	-10.88097	-9.66979
2828.12500	-6.96999	-8.39995	-8.06023	-7.66883
2832.03125	-8.98415	-4.77348	-5.64240	-3.59833
2835.93750	-10.19237	-5.17632	-7.25387	-3.81886
2839.84375	-7.37134	-6.38489	-9.26829	-10.98877
2843.75000	-10.99726	-4.77308	-9.67098	-11.65746
2847.65625	-14.22023	-3.56415	-5.64141	-7.35456
2851.56250	-8.57867	-4.77286	-0.80601	-6.09772
2855.46875	-2.53430	-5.98155	-2.41753	-4.98904
2859.37500	4.71890	-6.38432	-2.82019	1.61466
2863.28125	-0.51876	-7.99602	-4.83453	4.50189
2867.18750	-8.17397	-10.81639	-6.04301	-0.58428
2871.09375	-10.18817	-10.01041	-6.04270	-4.97996
2875.00000	-12.60537	-9.20448	-6.84827	-2.95160
2878.90625	-4.54636	-9.60726	-7.25087	4.54621
2882.81250	-6.96352	-8.80126	-8.05643	3.34970
2886.71875	-9.78358	-5.17478	-4.42982	3.37673
2890.62500	-1.72460	-4.36873	-3.22079	8.21870
2894.53125	-0.51542	-7.59199	-4.42935	7.53135
2898.43750	-1.72382	-7.59182	-7.24958	6.66795
2902.34375	-4.14097	-5.17413	-8.86098	2.61371
2906.25000	-4.54350	-5.57691	-6.84613	0.09769
2910.15625	-4.94610	-5.97969	-6.44297	-2.76326
2914.06250	-3.33395	-4.36777	-10.47194	-0.53655
2917.96875	-5.75118	-5.97935	-10.87446	1.53098
2921.87500	-2.93025	-3.56159	-6.84485	4.30742
2925.78125	5.53162	-2.35264	-3.21819	6.90619
2929.68750	4.72612	-6.78478	-4.42668	3.98134
2933.59375	-2.52626	-9.60515	-7.64984	2.66203
2937.50000	-0.10826	-9.60499	-4.82900	3.63872
2941.40625	9.96539	-7.99312	-5.23169	5.20557
2945.31250	12.38340	-7.58998	-6.84309	12.92405
2949.21875	7.54862	-5.97810	-3.21643	13.54658
2953.12500	2.31094	-6.78378	-1.60435	3.83094
2957.03125	-3.32974	-11.21586	-1.60399	2.91600
2960.93750	-7.76169	-12.42453	-1.60365	8.12678
2964.84375	-3.73209	-13.63316	0.00839	12.10772
2968.75000	-0.91116	-14.03596	-2.40888	16.66695
2972.65625	-2.11966	-12.02118	-4.42317	20.69969
2976.56250	-0.10463	-10.00633	-4.42279	17.89545
2980.46875	1.10459	-3.55924	-2.81067	14.27750
2984.37500	0.70199	-5.97670	-3.21328	10.90439
2988.28125	3.52281	-10.81171	-10.46572	6.09232
2992.18750	6.34365	-5.17050	-14.09168	7.73877
2996.09375	2.71756	-3.55854	-10.06201	9.08884
