 	TP9	AF7	AF8	TP10	
-1000.00000	5.05122	-0.42623	4.48366	-20.50092
-996.09375	-1.07344	-0.45847	1.66344	-21.11862
-992.18750	6.28715	2.58931	0.85783	-16.44623
-988.28125	9.78654	4.39161	0.45522	-21.31682
-984.37500	4.34618	4.01636	0.05253	-18.90970
-980.46875	1.25318	3.56436	-1.55889	-11.49773
-976.56250	5.04657	3.50245	-3.57327	-12.71232
-972.65625	-1.95290	0.16288	-1.96135	-13.80482
-968.75000	-6.66184	-0.38131	-2.76698	-16.27906
-964.84375	-0.26055	4.47170	-1.96088	-19.80633
-960.93750	0.65957	3.94166	2.06861	-17.80899
-957.03125	1.06212	2.62653	2.06880	-18.44640
-953.12500	2.69905	3.36327	0.45731	-17.63330
-949.21875	4.31930	3.70238	1.66636	-23.30727
-945.31250	3.21358	3.32412	3.68124	-14.62159
-941.40625	2.46830	1.10981	3.27854	2.47605
-937.50000	1.47699	0.14021	0.05532	-0.44299
-933.59375	-0.71493	2.52126	0.05560	-15.84730
-929.68750	4.85171	1.32864	2.07052	-24.67648
-925.78125	12.35409	0.16770	4.89128	-17.45640
-921.87500	2.25149	-0.90177	7.30916	-10.67308
-917.96875	-0.96157	-2.74494	6.50356	-11.08020
-914.06250	7.94734	-2.76479	2.87741	-13.28631
-910.15625	12.25884	-1.05749	1.26600	-7.90209
-906.25000	17.09075	1.44652	0.46048	-4.53813
-902.34375	14.92288	2.33928	2.87832	-11.31717
-898.43750	-1.41744	0.82386	6.90792	-15.70286
-894.53125	-4.76105	-2.41924	6.50534	-12.77383
-890.62500	10.82363	-0.63677	5.29685	-5.62665
-886.71875	14.20242	1.11373	6.10299	-6.08705
-882.81250	0.19391	3.57954	5.29740	-13.55383
-878.90625	-8.35117	3.99945	4.89473	-20.75402
-875.00000	-4.59549	1.14265	4.49213	-21.56557
-871.09375	-5.50239	0.17248	4.89531	-19.87086
-867.18750	-5.57726	-0.83381	4.89562	-14.04626
-863.28125	-4.05541	0.39978	4.09009	-14.55796
-859.37500	-5.64458	0.33673	3.68748	-21.39385
-855.46875	-4.45388	2.28269	2.47896	-19.51614
-851.56250	-0.45964	2.17587	4.09092	-15.98814
-847.65625	11.34245	0.83922	2.47948	-8.27129
-843.75000	10.64160	1.26002	-0.34076	-8.28104
-839.84375	2.27361	-1.29795	0.06249	-15.60241
-835.93750	5.73489	2.61579	0.06277	-13.47650
-832.03125	3.38377	7.38872	2.48063	-12.92211
-828.12500	2.91032	7.33887	1.27211	-12.53793
-824.21875	4.80213	5.75470	-2.35399	-7.21036
-820.31250	7.75004	3.52838	-0.74197	-12.23882
-816.40625	7.02961	4.15923	1.67589	-18.75775
-812.50000	-10.90097	0.50050	2.07904	-18.33365
-808.59375	-18.38414	-1.48383	-0.33831	-23.62643
-804.68750	-12.70572	0.98730	-1.94974	-31.48966
-800.78125	-10.97025	0.71355	0.87103	-25.80319
-796.87500	-5.80952	0.46927	-0.33749	-16.42131
-792.96875	-4.63698	1.25648	-1.54599	-19.73676
-789.06250	-10.63706	1.76864	-0.73984	-19.78255
-785.15625	-9.23997	1.05747	-1.94835	-21.48265
-781.25000	-7.94862	3.95701	-0.33638	-32.51628
-777.34375	-11.42789	4.44249	2.08147	-20.16491
-773.43750	-8.45117	3.61519	-1.14170	-13.10674
-769.53125	-4.87548	3.79857	-3.15605	-19.14309
-765.62500	-8.97268	1.12735	-6.78212	-18.68998
-761.71875	-8.16223	4.79663	-7.18477	-14.64386
-757.81250	-5.79673	5.20242	-0.33471	-18.30124
-753.90625	-3.00765	2.74400	2.08314	-23.42929
-750.00000	4.94151	3.39647	-0.33418	-23.32481
-746.09375	-0.61911	1.59670	-1.13977	-29.55798
-742.18750	-6.36835	2.02199	-0.33368	-33.02277
-738.28125	2.21980	2.75086	-2.75099	-28.15327
-734.37500	2.82445	1.46619	-0.73607	-17.66778
-730.46875	-6.17099	0.96531	1.68180	-15.81355
-726.56250	-6.33847	-0.76079	0.87614	-17.42071
-722.65625	0.66061	0.86929	0.07056	-15.92641
-718.75000	-3.09244	5.14804	-1.13798	-13.85635
-714.84375	-9.49418	5.02276	-2.74947	-18.79202
-710.93750	-5.57967	3.75814	-0.73460	-20.79070
-707.03125	2.07583	4.12532	1.68321	-16.12545
-703.12500	-4.39695	3.35040	-0.33129	-22.58096
-699.21875	-6.82370	1.91823	-1.53982	-27.78755
-695.31250	3.95176	2.53754	-1.13669	-15.52209
-691.40625	5.90521	4.12050	0.07238	-8.04221
-687.50000	2.46368	4.56783	-0.73319	-6.73610
-683.59375	0.22283	2.20999	-1.13587	-12.28533
-679.68750	-3.32978	4.34402	-0.73264	-10.30710
-675.78125	-6.40056	3.28081	-0.32948	-5.44054
-671.87500	-2.74548	-0.36347	0.47668	-19.88089
-667.96875	-2.75645	0.96806	0.07394	-24.30998
-664.06250	-10.45718	0.26565	0.07414	-12.83790
-660.15625	-12.75476	0.74011	0.47733	-12.17938
-656.25000	-3.48461	2.01753	2.08923	-15.94771
-652.34375	1.90608	2.39678	0.88060	-18.84040
-648.43750	-6.73592	2.99548	-3.55137	-24.52936
-644.53125	1.84530	1.94684	-4.75995	-18.59534
-640.62500	11.24186	2.79078	-1.93928	-9.62677
-636.71875	-7.85171	1.57067	-0.73028	-14.00295
-632.81250	-14.79603	2.73354	-1.13303	-17.01374
-628.90625	-5.84847	4.20256	0.47893	-19.08237
-625.00000	3.28897	4.83282	0.07618	-16.66061
-621.09375	13.86558	5.25624	2.49400	-14.32742
-617.18750	3.06083	1.94199	6.92641	-18.54164
-613.28125	-0.87916	1.05248	11.35891	-17.22565
-609.37500	0.30665	0.15721	5.31521	-21.27025
-605.46875	-10.55482	-3.16694	2.89786	-27.58148
-601.56250	-15.35538	-1.53575	9.34500	-32.31955
-597.65625	-17.89037	4.74476	12.97165	-38.02320
-593.75000	-28.47192	2.59495	17.40413	-50.10266
-589.84375	-44.68301	-3.49886	16.59858	-64.94369
-585.93750	-60.63551	-0.29692	14.18124	-80.77056
-582.03125	-73.19328	2.55866	14.58440	-94.22000
-578.12500	-86.01706	2.72691	16.59926	-107.90232
-574.21875	-90.32693	6.15494	14.98780	-119.27522
-570.31250	-96.09576	8.54701	17.40560	-117.06863
-566.40625	-103.03159	9.81440	18.61467	-122.63916
-562.50000	-99.60703	10.68680	16.60030	-130.72038
-558.59375	-97.36255	10.79690	15.39179	-125.42895
-554.68750	-103.84750	12.54109	15.79503	-121.59657
-550.78125	-108.80703	12.12058	14.58650	-126.88154
-546.87500	-110.34192	11.45090	12.57208	-132.23550
-542.96875	-105.06820	11.96649	10.96062	-127.30965
-539.06250	-97.85991	14.85165	7.33447	-123.63881
-535.15625	-85.15493	15.71223	6.12595	-118.71673
-531.25000	-80.80576	13.26833	4.11157	-106.87859
-527.34375	-77.72986	12.26741	2.09715	-104.32292
-523.43750	-76.27482	8.40945	2.90322	-106.14449
-519.53125	-70.98638	10.05505	1.29177	-87.61871
-515.62500	-50.36943	10.83552	-1.52848	-75.58231
-511.71875	-52.38926	7.15773	-3.13995	-80.83855
-507.81250	-44.27900	6.21948	-5.15434	-67.91514
-503.90625	-30.54824	4.84793	-7.57167	-57.55040
-500.00000	-28.02161	2.44951	-8.78010	-47.58294
-496.09375	-20.04374	-1.28136	-6.76526	-33.69559
-492.18750	-12.28028	-0.56723	-5.95911	-27.41178
-488.28125	0.08351	1.36600	-7.57059	-21.40368
-484.37500	7.93983	-2.75023	-10.79371	-13.75883
-480.46875	12.90549	-8.37022	-14.41980	-1.91488
-476.56250	21.93694	-8.95209	-5.15210	12.58449
-472.65625	28.23410	-7.48589	-1.52543	22.37081
-468.75000	29.97192	-7.12734	-3.53975	20.70227
-464.84375	34.76137	-7.94057	-1.52482	22.01002
-460.93750	41.72537	-5.88643	-1.52456	32.06573
-457.03125	31.65157	-4.92338	0.08743	23.77240
-453.12500	33.69141	-9.56617	-4.74744	20.95895
-449.21875	52.23476	-9.99198	-5.55304	35.02833
-445.31250	51.53198	-6.69592	2.50583	45.32533
-441.40625	44.33994	-4.20467	-1.52320	46.70831
-437.50000	51.00440	-3.29769	-1.52291	34.11857
-433.59375	50.82719	-3.58147	-0.31387	29.19006
-429.68750	54.78210	-4.00235	-5.55165	34.46304
-425.78125	54.22599	-1.03240	-5.14846	34.02723
-421.87500	40.90009	-0.50728	-2.32765	35.16931
-417.96875	39.29878	-3.67257	-1.52144	34.76178
-414.06250	39.34333	-4.43780	-3.53576	30.94369
-410.15625	35.59628	-4.46734	-5.55011	29.88083
-406.25000	36.39887	-4.24762	-4.34106	27.60351
-402.34375	31.81339	-3.66177	-3.53483	24.04755
-398.43750	27.15796	-1.61696	-3.13164	27.31702
-394.53125	27.84357	-2.46241	-3.13137	31.45448
-390.62500	29.72847	-4.93745	-8.77205	29.33397
-386.71875	28.67488	-3.44812	-10.78645	17.59125
-382.81250	24.33649	-0.77743	-3.93635	14.15348
-378.90625	32.31120	0.85249	-3.13021	10.98223
-375.00000	28.00824	-0.87730	-0.71234	9.76758
-371.09375	26.29543	-0.57473	0.09380	10.25325
-367.18750	27.42916	3.78363	-3.12934	11.24234
-363.28125	26.93629	4.91930	-4.74073	19.99785
-359.37500	35.01740	2.92763	-6.35221	16.78805
-355.46875	37.81976	4.75084	-5.54600	19.87429
-351.56250	38.59063	8.62393	-7.96331	25.81960
-347.65625	42.73703	6.56984	-6.35135	21.44831
-343.75000	48.48310	5.36789	-1.51590	22.64711
-339.84375	38.90626	5.81527	-4.33623	32.24860
-335.93750	25.04149	2.73824	-4.73892	32.35963
-332.03125	23.89921	2.91825	-5.14170	29.28732
-328.12500	27.85814	4.10634	-4.73854	34.90940
-324.21875	30.15297	1.77528	-0.70906	38.22205
-320.31250	29.47468	3.06536	0.90283	33.99911
-316.40625	29.15735	5.57555	1.30597	38.76200
-312.50000	10.42097	2.45773	0.50033	33.94772
-308.59375	9.38494	-0.38149	-1.51410	29.05762
-304.68750	21.51039	0.58678	-1.91681	36.90835
-300.78125	1.89058	-0.48986	-2.31954	37.35646
-296.87500	-3.42481	-0.84066	-1.91632	29.81491
-292.96875	5.40345	1.20063	-1.11023	30.12556
-289.06250	7.46198	1.16730	-1.51290	34.51163
-285.15625	14.09707	-0.61612	-0.70681	35.22891
-281.25000	12.56789	1.99620	-1.10955	36.28284
-277.34375	7.07392	4.84354	-3.12399	35.33719
-273.43750	8.03597	1.16360	-4.33259	35.54523
-269.53125	11.20864	2.71137	-2.31774	36.76132
-265.62500	13.55842	3.80731	-0.70571	31.17024
-261.71875	16.38363	1.65607	-0.70544	34.00732
-257.81250	15.52569	0.46518	-1.10814	31.55845
-253.90625	7.83856	0.33375	-1.51078	29.65355
-250.00000	8.13207	1.03032	-2.71930	36.60751
-246.09375	13.45052	4.99307	-9.56888	33.59747
-242.18750	19.78921	8.96334	-3.92758	32.95297
-238.28125	14.27481	4.55687	5.34006	32.58407
-234.37500	16.49133	3.95043	3.72862	29.36972
-230.46875	15.15166	7.40955	2.92300	35.25303
-226.56250	6.52264	3.74829	0.90863	41.30133
-222.65625	9.08935	0.94888	0.10306	34.33373
-218.75000	13.79783	4.22218	2.92387	32.77725
-214.84375	13.84308	7.58177	4.53592	41.54117
-210.93750	13.32543	5.73454	2.92445	40.34833
-207.03125	16.14584	5.71538	1.31304	35.74613
-203.12500	15.31425	6.21861	4.13380	33.31968
-199.21875	4.82898	3.89038	8.16338	29.32176
-195.31250	1.90489	3.97475	4.13436	24.26109
-191.40625	6.67895	4.46961	1.71713	24.89106
-187.50000	5.65512	5.65830	2.12031	29.01756
-183.59375	9.05535	7.44516	0.10593	25.48280
-179.68750	15.57616	6.78169	0.50919	28.66955
-175.78125	21.77293	4.41062	-0.29642	31.11829
-171.87500	15.35486	5.22894	-3.11666	31.98919
-167.96875	4.86788	8.81779	2.52465	35.21553
-164.06250	5.22592	5.83685	3.73375	33.79392
-160.15625	6.55525	3.62611	1.71943	34.04954
-156.25000	-0.69441	6.47080	0.91383	19.80517
-152.34375	6.71143	6.00033	-1.10051	13.28631
-148.43750	14.99281	7.94418	0.91445	29.75866
-144.53125	20.35077	8.24348	3.33236	37.70742
-140.62500	11.61564	7.31443	0.51217	27.73826
-136.71875	7.43062	6.52670	0.51250	24.97381
-132.81250	15.39491	7.59091	1.72165	19.94825
-128.90625	13.06061	7.47232	1.72193	3.77702
-125.00000	13.73669	2.57735	8.97496	0.15484
-121.09375	5.77854	0.11492	10.18400	2.48792
-117.18750	3.03235	0.94958	8.57259	-7.77049
-113.28125	5.13629	2.34596	8.97582	-13.70734
-109.37500	0.27801	0.55561	6.55852	-15.73751
-105.46875	6.33958	2.53934	4.54420	-15.60205
-101.56250	10.40350	5.79807	4.54451	-15.10233
-97.65625	5.04795	5.45095	4.54485	-20.40332
-93.75000	-5.93661	3.15946	3.33638	-22.00701
-89.84375	-4.82179	3.31404	3.33669	-24.35751
-85.93750	2.99861	3.29597	4.94870	-26.48512
-82.03125	1.32004	0.99240	3.74025	-29.05569
-78.12500	2.59886	0.68734	2.12880	-25.81523
-74.21875	5.54179	1.16699	3.33793	-24.29471
-70.31250	5.01088	0.03631	4.94996	-25.71462
-66.40625	9.76016	0.41733	4.95030	-32.49414
-62.50000	0.29110	1.81385	5.75655	-32.51699
-58.59375	-1.89664	3.17568	5.35394	-29.64339
-54.68750	4.10943	5.63473	0.92202	-25.40816
-50.78125	3.58233	7.24473	-1.49523	-16.59075
-46.87500	12.52372	5.18779	6.16073	-7.03659
-42.96875	8.12723	1.41188	6.16105	-9.36380
-39.06250	4.05353	1.22815	1.72919	-21.40748
-35.15625	8.69987	2.05590	6.56463	-23.33539
-31.25000	2.97579	1.97448	7.37081	-21.97370
-27.34375	-5.23043	1.49332	5.75942	-22.64176
-23.43750	-2.96970	1.39839	1.73041	-24.06064
-19.53125	0.70682	0.07999	0.52189	-21.24936
-15.62500	0.77424	0.09878	1.32802	-20.09247
-11.71875	-1.24565	1.14993	0.52250	-23.33445
-7.81250	-1.59713	-0.99309	3.34332	-26.52843
-3.90625	4.47771	-1.85258	1.32897	-20.59610
0.00000	-1.05439	-3.89806	1.32928	-15.06122
3.90625	-1.94104	-3.86553	7.77649	-10.03848
7.81250	-1.02739	-2.88368	3.34456	-10.20171
11.71875	-4.78085	-1.86524	-0.68440	-13.46119
15.62500	-0.14800	0.92781	3.34520	-14.27796
19.53125	-0.01761	0.57424	3.34549	-27.41603
23.43750	0.14941	-2.18411	0.52530	-31.45159
27.34375	4.83497	-2.47060	-0.28029	-26.50068
31.25000	2.54350	-2.32914	0.92881	-32.19879
35.15625	-1.12855	-1.13787	2.94374	-26.05626
39.06250	1.40336	0.60125	2.13820	-13.58338
42.96875	6.23809	0.70794	2.13852	-17.04172
46.87500	5.86036	-0.43141	2.94467	-19.45251
50.78125	5.06296	-0.36722	3.34793	-13.03911
54.68750	7.58354	0.41425	-1.88985	-14.02439
58.59375	5.22650	-1.40047	2.94558	-11.02983
62.50000	1.81753	-0.02761	7.78110	-4.68211
66.40625	6.07238	0.00919	4.15502	-7.59624
70.31250	5.99784	-0.40957	2.54362	-14.41142
74.21875	5.84444	3.16922	1.33514	-11.62417
78.12500	11.45609	3.83604	0.52963	-11.69128
82.03125	2.19895	1.65020	-2.29064	-21.76951
85.93750	0.63149	2.87907	-3.90206	-23.17055
89.84375	2.52523	1.17215	-1.08128	-14.96648
93.75000	-3.52220	-0.52570	-4.70731	-13.61783
97.65625	7.20363	-0.61225	-2.69238	-10.72720
101.56250	10.20398	-3.52873	2.14312	-11.08425
105.46875	4.03968	-3.50866	1.33760	-11.37921
109.37500	1.49224	-3.67908	7.78484	-7.05306
113.28125	-0.36719	-5.02635	6.57640	-2.67888
117.18750	6.17365	-1.85074	3.75627	-3.69927
121.09375	4.47812	0.14733	3.75663	-13.72050
125.00000	2.59284	-2.23370	2.95108	-10.50334
128.90625	8.13290	-1.66607	1.33970	-6.39171
132.81250	3.22283	-1.06251	5.36931	-10.23803
136.71875	3.53589	-3.10162	5.36961	-5.51217
140.62500	4.76732	-3.44116	-0.67403	-5.09593
144.53125	0.71990	-2.96923	3.75851	-6.44232
148.43750	-4.55332	-0.84733	5.37051	-6.13831
152.34375	-2.82461	-1.12206	3.35622	-10.10680
156.25000	-5.13710	-2.75126	2.55072	-11.32581
160.15625	-7.05826	-2.20752	2.14813	-14.61835
164.06250	-4.40285	-0.47987	3.76018	-12.89582
167.96875	-1.51597	-0.41727	3.35753	-9.52149
171.87500	-0.37766	-0.36713	0.94022	-14.77877
175.78125	-2.51514	-0.79736	-0.26829	-14.68980
179.68750	-8.43162	-1.39123	2.55257	-15.68950
183.59375	-9.95770	-1.61884	0.94116	-24.22349
187.50000	-0.48886	-1.98906	-3.49070	-22.18796
191.40625	-1.12208	-0.00442	2.55353	-11.36402
195.31250	-6.32257	1.15112	4.16551	-14.39241
199.21875	-2.16937	-0.99233	0.13652	-0.64784
203.12500	-2.24658	1.26688	0.53980	3.49543
207.03125	2.95541	1.68873	-2.68336	-11.90846
210.93750	-0.62694	-0.03192	-1.47427	-15.58113
214.84375	-5.67670	-2.54389	2.55532	-16.47581
218.75000	-3.17656	-2.21962	1.34682	-11.79575
222.65625	-8.67057	-3.10767	-1.47337	-9.11520
226.56250	-10.12608	-2.28005	-4.69650	-14.54834
230.46875	-6.55041	0.35747	-3.89036	-12.52663
234.37500	-1.78316	-2.61199	0.54222	-6.03008
238.28125	-0.56978	-2.25158	-3.08383	-3.59623
242.18750	5.82496	-0.64234	-0.26298	0.40146
246.09375	9.82275	0.60766	7.39307	0.91388
250.00000	6.89291	-0.85033	6.18462	0.61475
253.90625	3.74971	-3.48237	2.15566	-4.41019
257.81250	-1.19380	0.52491	-1.87330	-3.84631
261.71875	9.40894	-0.20360	-1.06713	-1.79791
265.62500	5.98429	-3.35074	-1.06679	-15.89168
269.53125	-13.08445	-4.46128	-2.27524	-15.24669
273.43750	-8.81975	-3.54065	1.35153	-15.64551
277.34375	-6.65586	-2.34986	2.15777	-18.98698
281.25000	-0.73864	-1.79312	0.54643	-13.29114
285.15625	0.11241	-3.68220	1.75558	-12.18312
289.06250	-5.24035	-4.02895	0.54712	-8.94411
292.96875	-0.80811	-3.99287	-1.06431	-8.30851
296.87500	1.18086	-2.81478	-1.46691	-3.07955
300.78125	1.97770	-1.78521	-5.09304	-6.67478
304.68750	10.33556	-1.19532	-9.92784	-14.55637
308.59375	11.08036	0.04255	-3.48060	-11.91217
312.50000	6.02716	-1.21036	3.36950	-13.42706
316.40625	10.63610	-3.68739	2.16105	-13.33586
320.31250	3.45725	-3.80647	0.14673	-14.17875
324.21875	-0.41929	-3.54880	-1.06174	-22.20657
328.12500	3.63875	-5.54522	-1.46429	-14.88918
332.03125	0.40440	-4.45887	-0.65807	-8.03677
335.93750	3.17984	-1.33847	-1.46359	-6.23531
339.84375	3.70317	-0.60381	-2.26916	-4.36854
343.75000	1.28851	-2.28378	-4.28347	-5.71957
347.65625	-4.19974	-2.66269	-2.67142	-9.41849
351.56250	-12.03578	-2.85805	-3.47691	-13.89891
355.46875	-10.30435	-2.61488	-3.07368	-17.23278
359.37500	-12.18981	-1.44383	0.55310	-13.90554
363.28125	-8.31626	-1.83505	-1.46120	-21.10265
367.18750	0.45373	-0.57993	-1.46088	-27.74030
371.09375	0.93992	2.38373	-0.25182	-20.13895
375.00000	2.01883	1.75387	-3.87785	-19.73219
378.90625	0.50753	0.92799	-1.45989	-13.37008
382.81250	9.84928	1.42214	-0.65364	-8.72025
386.71875	13.16208	-0.10544	-1.86203	-4.18103
390.62500	8.70670	-2.43311	0.15300	-5.40553
394.53125	8.72422	-3.94364	-1.05544	-14.13492
398.43750	6.34118	-2.35087	-3.47258	-10.41197
402.34375	1.79150	-3.39282	-1.05468	-6.84885
406.25000	5.71531	-7.68938	-1.86018	-6.84110
410.15625	3.60669	-6.83320	-1.85983	-3.55094
414.06250	-6.70485	-4.39368	-4.67997	-5.27581
417.96875	-13.21854	-4.02529	-6.69427	-6.63790
421.87500	-17.17776	-4.99888	-0.24705	5.06395
425.78125	-13.83194	-3.18830	-3.06718	2.15211
429.68750	-6.30424	0.46416	-4.67849	-17.40006
433.59375	-8.40496	0.00312	-1.85763	-23.77684
437.50000	-19.08298	-2.88350	-2.66312	-23.79999
441.40625	-17.24158	-2.59019	-3.46858	-28.17945
445.31250	-6.80345	-1.91634	-6.28882	-21.12404
449.21875	1.93679	-0.28646	-9.10902	-21.17137
453.12500	12.08684	1.59247	-3.46762	-27.73462
457.03125	22.19580	1.88326	0.96492	-16.76538
460.93750	14.09272	2.62501	-3.06401	-19.54189
464.84375	8.66588	0.95913	-6.28712	-27.11124
468.75000	10.59744	1.38892	-4.27211	-11.64723
472.65625	18.91135	3.59915	-4.27172	-3.45102
476.56250	22.78386	3.02531	-3.86838	-1.64664
480.46875	12.76073	4.60371	0.56426	2.37324
484.37500	14.43977	3.42089	0.56464	-1.70808
488.28125	14.43460	2.26408	0.16204	-6.96487
492.18750	-2.43695	2.79991	0.96824	-6.93579
496.09375	-2.80896	2.56036	0.56568	-11.48002
500.00000	-8.34107	3.34762	-1.04571	-15.21283
503.90625	-17.68928	2.24392	-7.89514	-23.08419
507.81250	-14.35819	3.14204	-9.10360	-22.84483
511.71875	-12.87356	4.83574	-1.04467	-21.26941
515.62500	-5.42018	4.52039	-0.23841	-20.87776
519.53125	-1.66342	2.48530	-1.84972	-6.61680
523.43750	4.95049	1.85905	0.56822	-6.22040
527.34375	12.45640	0.79638	1.77739	-10.53722
531.25000	12.98526	0.84128	-0.23694	-8.17709
535.15625	12.53639	2.46094	-0.23656	-2.43777
539.06250	11.44164	4.43667	-0.23621	-4.87361
542.96875	13.45560	6.29473	-1.84756	-13.16750
546.87500	14.68931	8.11756	-2.25014	-14.77273
550.78125	9.86240	7.73813	-0.23512	-15.20950
554.68750	5.93589	4.03972	1.77990	-11.35999
558.59375	6.39917	1.14611	3.39195	-6.35123
562.50000	8.63115	2.65735	2.18350	-4.83897
566.40625	6.03613	8.98574	-0.63668	-13.39440
570.31250	-2.90291	8.19839	-0.63637	-18.59819
574.21875	-1.04166	2.00570	-3.05363	-17.42285
578.12500	-5.90609	4.30173	-7.48552	-11.84902
582.03125	-14.82963	6.76897	-10.30567	-12.84513
585.93750	-19.59697	3.54599	-9.90236	-10.38607
589.84375	-22.98816	2.33763	-7.88740	-12.35780
593.75000	-24.25550	3.94984	-5.06656	-25.54623
597.65625	-27.08824	4.35319	-2.64863	-13.84172
601.56250	-18.56832	4.75657	-3.45414	-7.35181
605.46875	-15.41668	4.75701	-3.85678	-7.46709
609.37500	-22.77667	3.14571	-2.24473	-1.27431
613.28125	-10.96981	0.72863	0.17324	1.47993
617.18750	2.91019	0.32615	0.97947	10.14037
621.09375	1.84068	2.34123	2.18864	20.28071
625.00000	12.91292	3.14753	0.57733	22.01696
628.90625	22.57370	2.34212	-1.03404	19.48301
632.81250	19.27314	0.73088	-0.63067	16.44908
636.71875	19.62464	3.55182	-1.03320	17.21721
640.62500	18.19507	5.56694	-1.03280	19.68949
644.53125	11.39613	6.77622	-1.03243	12.38676
648.43750	9.90764	7.58246	-1.83791	15.25710
652.34375	7.24173	6.77702	-2.24048	17.34497
656.25000	8.15091	6.37447	-2.24010	13.43620
660.15625	12.36636	5.16609	-0.62795	16.26293
664.06250	-3.04612	3.15185	-5.05980	22.46886
667.96875	-11.21940	1.13762	-5.05940	23.51580
671.87500	-9.59270	1.94396	5.41720	20.28253
675.78125	-14.18056	0.33266	6.22345	18.54410
679.68750	-11.61166	1.13892	3.40335	20.48147
683.59375	-12.68607	0.33351	3.80666	21.23726
687.50000	-13.00992	-4.50118	8.23922	17.25830
691.40625	-18.33810	-4.50067	7.43372	13.57404
695.31250	-8.68505	-4.09731	4.21059	11.59099
699.21875	5.49567	-3.29098	5.01677	17.03783
703.12500	-2.21333	-3.29053	0.98783	15.94491
707.03125	-8.36316	-2.88719	-3.04108	16.62691
710.93750	-4.08946	-0.87210	6.62967	18.97479
714.84375	-3.56511	-2.08044	7.43595	17.56111
718.75000	-3.59671	-2.07999	4.61587	16.81659
722.65625	13.86621	1.54685	1.39284	13.84619
726.56250	15.20700	4.77069	-1.83017	11.94757
730.46875	8.57172	5.97992	-1.82974	9.88767
734.37500	8.83825	4.77159	-3.84401	-0.61389
738.28125	9.06584	1.95154	-6.26125	-7.98024
742.18750	-0.30647	-0.06260	-4.64908	-7.21884
746.09375	-8.78650	1.14661	0.18646	-6.05084
750.00000	-7.75709	0.74418	3.00737	2.02290
753.90625	-12.97506	-3.68760	3.00779	3.40376
757.81250	-15.74305	-2.47839	2.60526	4.70292
761.71875	-9.67563	0.74549	2.20272	11.98276
765.62500	-6.20927	1.14886	-0.21449	12.18878
769.53125	-1.50578	2.76108	-2.22878	14.31331
773.43750	-3.72972	2.76149	-0.61663	17.92869
777.34375	-12.34104	0.74729	3.81601	14.57738
781.25000	-13.43342	-0.46100	5.83106	7.79070
785.15625	-4.86693	-0.86344	5.02552	4.61284
789.06250	2.33962	-2.47466	4.22004	18.14681
792.96875	7.96688	-1.66835	1.39993	25.63472
796.87500	12.42695	0.34675	2.60912	28.09451
800.78125	21.06062	-1.66747	4.62416	35.00721
804.68750	25.05468	0.75059	3.01278	32.86797
808.59375	9.41562	2.36278	1.40147	35.27693
812.50000	9.22101	0.75155	-0.20989	40.22046
816.40625	12.63201	-0.45680	-1.41826	27.93221
820.31250	11.61240	-3.27683	0.59678	21.51162
824.21875	10.22022	-2.06760	2.20886	24.82833
828.12500	9.24122	-1.26123	2.61218	27.42055
832.03125	10.91068	-1.66374	3.41841	28.24031
835.93750	21.72129	1.56020	1.80707	37.86618
839.84375	13.42699	-0.85692	1.00153	42.25257
843.75000	3.41162	-0.45351	1.00192	30.45642
847.65625	11.88469	3.57626	-1.81822	31.23993
851.56250	5.78154	3.57674	-3.02667	34.01448
855.46875	8.27019	2.77136	-0.60870	31.30642
859.37500	9.98850	1.56303	-0.20542	31.15464
863.28125	11.07473	0.35470	-4.63724	27.59178
867.18750	2.83514	-1.25652	-3.83102	32.22523
871.09375	-9.39262	-0.85311	-1.81601	29.33490
875.00000	-9.58632	-2.46435	-3.42737	15.50797
878.90625	-10.38325	-3.67270	-3.02412	12.39818
882.81250	-2.24808	-1.25463	-2.62079	10.99719
886.71875	2.63794	-1.65714	-1.41159	13.04691
890.62500	-1.57401	-2.86549	-1.41123	20.24212
894.53125	6.43312	-2.05920	-1.00797	21.09511
898.43750	9.93569	1.16468	-1.00767	20.63952
902.34375	-0.69573	3.17978	-1.00738	25.80159
906.25000	8.06480	2.77735	1.81355	24.87231
910.15625	9.08698	0.36020	3.42561	26.87799
914.06250	4.75539	1.16648	3.42598	26.71324
917.96875	10.51054	5.19623	0.20287	22.03702
921.87500	5.25692	3.58498	-1.81142	16.00013
925.78125	11.05314	-0.04092	-6.24335	13.30359
929.68750	12.91598	-1.65225	-4.63123	20.22788
933.59375	-2.12738	-2.45764	2.62185	24.30437
937.50000	-5.02744	-2.05428	0.60754	14.17792
941.40625	2.31489	-0.03911	-1.00386	10.60658
945.31250	9.18142	0.76720	0.20531	23.46591
949.21875	7.08799	-0.44112	-1.40608	20.43372
953.12500	-2.52966	-2.05242	-2.21165	12.25640
957.03125	5.63423	0.76855	0.60928	20.83898
960.93750	8.20962	2.38065	1.81847	14.45902
964.84375	5.26699	1.57523	3.02756	7.00547
968.75000	13.75955	1.17272	4.23672	11.77653
972.65625	9.18982	-0.03557	3.02833	6.28265
976.56250	-1.01601	-0.43810	1.41704	4.14922
980.46875	12.06557	-0.43765	0.61158	-3.46405
984.37500	14.61905	-0.43719	-1.40278	-12.70888
988.28125	-0.11445	-1.24257	-9.05817	-12.59804
992.18750	-2.42761	-3.25678	-5.83438	-10.13892
996.09375	0.41086	-4.86805	1.41870	-11.71278
1000.00000	0.58963	-2.04708	2.22490	-10.52208
1003.90625	2.58361	1.98271	3.03107	-7.47359
1007.81250	0.11305	-1.24024	3.03138	-5.55217
1011.71875	-9.17818	-4.86611	1.42000	-0.74683
1015.62500	-5.79508	-4.05977	-3.01189	-0.95563
1019.53125	-0.42573	0.37299	-5.42908	-2.68004
1023.43750	1.79775	2.38811	-3.41403	-0.65710
1027.34375	1.54416	2.38859	1.42150	1.07970
1031.25000	-3.00501	0.37443	1.01895	1.41680
1035.15625	8.17154	-1.23680	-1.39821	5.80069
1039.06250	11.03766	-0.02755	-6.63589	5.96362
1042.96875	-1.03712	0.77871	-7.44142	6.12852
1046.87500	6.18715	-0.02670	-1.39706	12.12731
1050.78125	8.02911	1.98837	-1.39666	12.06162
1054.68750	0.81103	2.79466	-1.39625	6.94519
1058.59375	3.55569	-0.02538	-0.99296	6.95092
1062.50000	7.77896	-0.83084	0.61918	7.24258
1066.40625	1.94976	-1.23328	2.23125	7.84286
1070.31250	-2.26935	-1.63576	2.23160	9.82818
1074.21875	3.95738	1.99110	-2.20029	6.91134
1078.12500	1.30928	2.79740	-1.79697	11.97159
1082.03125	1.65370	-2.03733	-3.81127	18.80441
1085.93750	10.58591	-2.84271	-6.63140	17.23406
1089.84375	2.35939	-4.05108	-5.82513	15.66504
1093.75000	-6.56366	-5.66234	-5.01893	12.14677
1097.65625	-5.36707	-5.25892	-1.79515	12.16616
1101.56250	0.73535	-4.04975	1.42862	16.23830
1105.46875	1.87234	-6.86980	1.42896	14.91408
1109.37500	0.15331	-5.66055	-0.18244	11.83937
1113.28125	-0.12787	-0.82493	-0.58502	12.57864
1117.18750	-3.57397	-1.22737	-0.18179	16.80658
1121.09375	-5.44938	-0.82401	-0.98732	5.99420
1125.00000	-0.82410	0.38526	-6.22511	-1.53723
1128.90625	3.59855	1.19157	-4.61301	15.26917
1132.81250	5.93909	0.38622	0.62541	20.69652
1136.71875	3.47014	4.01309	0.62574	11.79401
1140.62500	4.05516	4.41646	-0.98566	11.44554
1144.53125	7.73239	-0.82114	-4.20874	8.57469
1148.43750	0.19990	-0.41770	-4.20840	7.41549
1152.34375	-1.66023	2.40330	-4.61094	13.53244
1156.25000	6.90471	1.19499	-4.61061	14.45854
1160.15625	2.65857	-2.02799	-3.80444	6.00295
1164.06250	-5.50111	-2.83336	-2.59532	7.37342
1167.96875	-2.39224	-0.81817	-0.17742	18.49361
1171.87500	-5.60069	-1.22053	-0.17704	12.03671
1175.78125	-10.99437	-3.63761	-2.59425	12.31277
1179.68750	-18.49883	-4.04004	-2.19102	18.27921
1183.59375	-13.52936	-2.83072	-0.98190	19.43769
1187.50000	-6.60059	-2.42727	-0.98161	17.87615
1191.40625	-1.45263	-5.24726	0.22749	14.59465
1195.31250	0.94771	-6.45558	-1.38380	16.64072
1199.21875	-7.43567	-6.85809	2.24298	20.47565
1203.12500	-5.07136	-7.26055	-2.18890	20.18840
1207.03125	2.07556	-4.43961	-2.18852	20.06424
1210.93750	1.11125	-2.02159	7.07927	10.72686
1214.84375	7.27676	-2.82701	4.25913	12.53640
1218.75000	7.24520	-2.82657	1.43896	15.01502
1222.65625	-3.89997	-4.03491	-0.17239	8.82093
1226.56250	-0.94749	-2.82565	-3.79835	10.54834
1230.46875	-1.13588	-2.01932	-5.81263	-0.37633
1234.37500	-9.33084	-2.01885	-5.40934	-6.04301
1238.28125	-6.28279	-1.61545	-3.79728	2.30457
1242.18750	-7.59655	-1.61498	-0.97643	9.10963
1246.09375	-9.62982	-1.21155	1.03858	8.26273
1250.00000	-1.34768	-2.01700	1.03896	-0.98967
1253.90625	-2.53640	-2.82240	1.03936	2.80870
1257.81250	-7.31902	-4.03074	3.45736	10.15172
1261.71875	-11.72776	-5.64194	4.26359	13.80500
1265.62500	-15.91693	-7.25315	1.44346	9.57877
1269.53125	-18.06321	-8.86443	-0.97378	8.07692
1273.43750	-15.85496	-6.84931	-0.97343	10.88623
1277.34375	-13.58729	-1.61072	1.04155	14.38448
1281.25000	-5.00937	-1.61022	0.63901	16.86489
1285.15625	9.60112	-2.01264	-2.18118	21.74533
1289.06250	1.89927	-1.20626	-2.58373	25.60877
1292.96875	2.69135	-0.39995	-0.97171	15.77061
1296.87500	10.77788	2.42105	1.04331	17.02145
1300.78125	3.29435	0.40689	2.65545	26.35151
1304.68750	-0.77020	-3.21904	2.25294	14.94467
1308.59375	5.34901	-2.00986	2.25336	1.63924
1312.50000	6.76608	1.21402	1.85086	5.77674
1316.40625	10.58003	3.63207	-1.37221	8.79969
1320.31250	9.96329	5.64718	-4.99824	12.45218
1324.21875	5.75056	5.64762	-5.40078	16.17174
1328.12500	9.60679	4.03636	-3.78866	16.34641
1332.03125	11.67923	5.64855	-2.17656	17.16608
1335.93750	9.59610	5.24609	-2.98199	13.49519
1339.84375	8.55442	4.03783	-7.41383	11.03172
1343.75000	4.98594	3.63531	-0.56357	7.29400
1347.65625	0.16231	0.81526	4.67493	11.30078
1351.56250	0.50612	-0.79604	-0.96571	10.04597
1355.46875	8.23297	1.21904	-1.36818	8.94954
1359.37500	2.29563	-2.80981	0.64691	11.21529
1363.28125	-9.51180	-4.42104	0.64727	8.05525
1367.18750	-2.84294	-0.79420	0.24464	13.09140
1371.09375	-1.37103	-1.19664	-0.15796	14.23008
1375.00000	-6.39988	-2.00204	-3.38100	12.08793
1378.90625	-8.00260	-1.59861	-2.97776	8.57500
1382.81250	-1.88209	-3.61275	-2.97740	11.20304
1386.71875	7.43622	-0.79174	-5.79752	12.84962
1390.62500	2.01540	2.02930	-2.17081	9.16557
1394.53125	-5.28885	-1.99954	1.05305	8.80966
1398.43750	-5.00970	-5.22245	1.05344	8.75689
1402.34375	-2.34416	-4.41616	1.05380	7.47198
1406.25000	-3.25385	-2.80400	1.45708	6.94549
1410.15625	0.58875	-2.40056	0.24865	10.15976
1414.06250	1.49519	-0.38546	-0.15390	9.18899
1417.96875	-2.01711	-1.59381	-0.95939	4.91557
1421.87500	5.62296	-4.41385	-4.58535	2.10187
1425.78125	3.36050	-5.21923	-1.36155	4.64317
1429.68750	-8.07339	-0.38363	0.25051	2.70286
1433.59375	-1.76148	-2.39782	-1.76378	2.34697
1437.50000	4.60581	-3.60619	-4.58390	7.12877
1441.40625	0.66612	-1.18814	-1.76303	11.61592
1445.31250	-1.73473	-3.20232	4.28128	10.37247
1449.21875	-6.24559	-5.21648	2.26700	7.34018
1453.12500	-11.43087	-1.18672	2.26736	3.99789
1457.03125	-8.50512	1.23130	2.67063	8.95401
1460.93750	2.53189	0.42595	2.67094	17.88514
1464.84375	8.85669	2.84404	1.86544	16.87815
1468.75000	9.69355	3.65037	4.68628	15.20220
1472.65625	9.15320	5.26258	4.28366	21.39319
1476.56250	1.36497	3.24842	5.08988	23.69180
1480.46875	0.74681	1.23426	5.49319	11.24321
1484.37500	4.50900	4.86115	2.27009	5.62459
1488.28125	1.05747	3.24991	1.06163	14.19687
1492.18750	1.16183	0.42992	0.65906	13.43244
1496.09375	9.64130	1.63922	1.46524	7.82921
1500.00000	1.35867	0.43092	1.46558	9.01991
1503.90625	0.12926	-1.18028	-0.14580	15.69464
1507.81250	7.32911	-0.37395	-0.95131	5.12507
1511.71875	7.70807	3.65588	-0.54802	9.93008
1515.62500	4.64400	3.25344	-2.96527	10.92972
1519.53125	-6.50687	0.43347	-3.36781	-2.07709
1523.43750	-3.47767	-0.77479	-0.94995	8.80999
1527.34375	-1.71672	-3.99769	-1.75546	8.93474
1531.25000	-2.63957	-4.40004	-0.94928	0.81002
1535.15625	-7.17721	-4.80244	-1.75479	2.77611
1539.06250	-6.32567	-5.60775	-6.99254	0.52120
1542.96875	-13.16232	-4.80134	-3.76876	-6.96980
1546.87500	-19.63752	-4.80083	1.46966	-4.19448
1550.78125	-10.94562	-2.38270	0.66415	1.38072
1554.68750	-7.68749	-1.57631	-0.94725	1.09947
1558.59375	-5.34556	-3.99338	1.47072	5.53730
1562.50000	-5.55432	-3.18695	4.29161	10.66410
1566.40625	0.30157	-1.97767	1.87445	13.68201
1570.31250	4.14115	-1.57421	1.06890	14.86158
1574.21875	-1.71997	-0.76782	2.27808	9.93010
1578.12500	-2.35331	-3.18485	-2.15380	6.93180
1582.03125	-1.20280	-3.58726	2.27883	14.16756
1585.93750	-0.32900	-3.18379	5.09968	11.38843
1589.84375	-6.54063	-2.37740	1.07072	7.80477
1593.75000	1.45948	-0.76520	-2.15238	7.50994
1597.65625	2.25339	-1.97350	-2.95784	1.48535
1601.56250	-6.14954	-4.39054	-2.55454	4.75156
1605.46875	3.04622	-1.97248	-3.76299	10.27703
1609.37500	12.60929	4.47492	-3.35965	14.45500
1613.28125	7.09025	4.07252	-2.55345	9.55322
1617.18750	-12.87585	-0.76217	-5.37358	-3.54478
1621.09375	-28.04795	-2.37336	-2.95565	-17.17765
1625.00000	-31.07834	-4.38751	3.89456	-23.50025
1628.90625	-35.52018	-5.59582	2.28319	-27.64628
1632.81250	-46.87940	-2.77481	1.47769	-34.30691
1636.71875	-39.27526	-1.56551	1.07511	-30.31582
1640.62500	-27.81115	-4.38553	-1.34207	-22.20289
1644.53125	-26.95442	-3.17624	-5.77391	-13.38881
1648.43750	-22.80177	-1.96698	-6.98235	-8.10118
1652.34375	-15.39446	-1.56353	-2.54972	-8.43120
1656.25000	-19.32040	-2.36885	-2.14641	-11.13156
1660.15625	-20.74600	-3.17415	-2.54894	-10.72285
1664.06250	-19.23559	-1.96483	-2.95149	-11.36721
1667.96875	-22.57375	-2.77015	-4.15987	-10.72353
1671.87500	-10.47100	-2.76960	-4.56239	-7.10740
1675.78125	-4.98578	-5.99251	-4.15911	-3.60816
1679.68750	-14.50490	-8.00664	-4.56163	-3.28293
1683.59375	-9.13247	-5.99144	-2.54666	-8.57139
1687.50000	-5.02422	-3.17036	-5.76972	-9.32723
1691.40625	-7.53200	-3.97570	-11.00747	-3.34154
1695.31250	-12.38442	-6.39269	-3.75439	-0.48979
1699.21875	-14.32105	-3.57167	0.67826	-1.49021
1703.12500	-9.94223	-1.15353	-2.54481	-2.98648
1707.03125	-12.46563	-4.37641	-5.76787	0.11264
1710.93750	-9.80356	-4.77878	-4.15585	-0.36045
1714.84375	1.60004	-4.37530	-4.55842	-5.40088
1718.75000	8.41836	-5.98649	-6.16987	-0.10188
1722.65625	3.72013	-5.98592	2.29202	10.22399
1726.56250	-0.17721	-3.97072	5.51577	11.54840
1730.46875	-1.17146	-3.56721	2.69555	11.09986
1734.37500	0.30383	-3.16373	3.50170	19.53562
1738.28125	9.39583	-1.14851	2.29321	19.01857
1742.18750	1.63518	-1.95384	-0.12410	12.92995
1746.09375	3.22846	-1.14734	-0.52669	19.33567
1750.00000	2.24334	0.06205	1.48827	16.93299
1753.90625	-2.97442	-1.54917	1.89154	3.80827
1757.81250	1.10772	-1.14569	-0.12290	2.28691
1761.71875	-2.89782	-1.54813	-6.16659	3.52287
1765.62500	-8.69830	-2.35343	-4.95748	-0.30028
1769.53125	-5.20311	-3.96466	5.92198	2.63039
1773.43750	0.63212	-3.96411	5.11634	4.23126
1777.34375	-1.53172	-1.94888	-0.12147	9.34185
1781.25000	-0.20583	-1.94834	-3.74755	10.61408
1785.15625	2.31744	-3.15654	-2.53846	5.01887
1789.06250	3.48069	-3.55892	-1.32941	4.85346
1792.96875	5.88521	-3.55837	-1.32917	1.86558
1796.87500	-0.13020	-2.34905	-4.55234	1.50519
1800.78125	-8.01615	-0.33391	-4.95505	5.59743
1804.68750	0.00788	-2.75097	2.70092	2.24956
1808.59375	-4.34849	-5.16795	2.70121	-6.22036
1812.50000	-9.37773	-5.57038	1.89566	-9.33522
1816.40625	1.68937	-6.37567	3.50765	-6.71502
1820.31250	-1.34458	-9.19569	2.70210	-2.65930
1824.21875	-7.16861	-8.79215	1.49358	0.65758
1828.12500	-6.13256	-6.77699	0.68806	6.87629
1832.03125	-2.85119	-6.77648	-0.92337	8.50188
1835.93750	1.51261	-4.35837	-0.92299	8.86021
1839.84375	3.29155	-5.16370	-0.51964	3.17319
1843.75000	8.18467	-6.77496	-0.11635	5.88230
1847.65625	7.39033	-4.35683	-4.14519	13.51525
1851.56250	-3.54791	-5.56509	-3.33884	8.23098
1855.46875	15.05794	-5.16159	0.28791	13.58114
1859.37500	12.74689	-4.35525	4.31765	6.57926
1863.28125	6.98321	-5.56353	5.12393	3.01591
1867.18750	13.24895	-2.74249	-0.91956	5.23126
1871.09375	1.42390	-0.72728	-1.32201	4.75786
1875.00000	8.88554	-1.53261	-0.91867	6.24167
1878.90625	8.08832	-0.72622	-2.93286	7.16051
1882.81250	0.10588	1.28896	-1.72364	6.56461
1886.71875	-1.85816	-0.72512	0.69438	10.62827
1890.62500	-1.23533	-0.72454	-0.11104	8.55544
1894.53125	1.93629	0.48480	0.29236	2.55805
1898.43750	7.05022	0.08246	1.09864	2.50473
1902.34375	6.08892	-0.72287	0.29323	-3.21297
1906.25000	-2.47696	-2.73696	-0.51217	-5.75455
1910.15625	0.55944	-1.93054	-1.31759	-0.92909
1914.06250	-1.35499	0.08470	-0.51124	2.53188
1917.96875	-3.25585	-2.33237	-0.10786	7.52535
1921.87500	-0.85411	-3.54062	-0.91324	6.32297
1925.78125	-1.90802	-0.71957	-2.52449	-6.85041
1929.68750	0.35750	-0.71903	-3.32991	-12.41764
1933.59375	1.02807	-3.53898	-6.15007	-9.95345
1937.50000	-1.06647	-5.55306	-4.94087	-8.39558
1941.40625	-7.42412	-4.34370	-6.95512	-8.74411
1945.31250	-4.58717	-1.11965	-9.37235	-5.55581
1949.21875	1.78076	1.70145	-2.11925	2.69348
1953.12500	-0.18134	2.10495	-3.32755	-3.46976
1957.03125	5.56470	-1.11794	-5.74468	-8.58738
1960.93750	-1.53049	-2.72915	-5.74420	-6.10359
1964.84375	-8.09983	-3.53444	-5.74372	-10.73732
1968.75000	-8.87505	-4.74269	-4.13156	-6.36977
1972.65625	-16.66847	-4.74216	-1.71348	-6.22328
1976.56250	-15.59263	-5.95045	-0.10131	-6.34266
1980.46875	-9.76407	-5.94994	-0.10084	-0.25695
1984.37500	-6.40497	-2.72599	-0.50327	6.21190
1988.28125	-13.48305	-3.93426	-2.92039	3.09886
1992.18750	-14.99061	-7.56004	-3.32279	-1.69533
1996.09375	-8.52607	-6.75368	-2.91944	-2.46377
2000.00000	-5.52688	-5.14139	-1.71020	-6.51167
2003.90625	-6.35360	-5.94674	-3.32144	-6.28422
2007.81250	-3.18350	-4.73737	-7.35041	-7.98978
2011.71875	1.62745	-0.70755	-2.51481	-6.81150
2015.62500	1.38374	1.30760	0.30615	-2.58876
2019.53125	-5.73817	-1.51237	-2.91682	-4.71676
2023.43750	-4.72382	-2.31769	-1.70755	-3.50034
2027.34375	-5.38055	-3.12302	0.71054	1.05631
2031.25000	-6.70660	-4.73422	1.11390	7.03383
2035.15625	-2.78311	-1.91319	-1.30324	8.19367
2039.06250	-2.33477	-2.71850	-3.31745	5.53540
2042.96875	1.70750	-4.73257	-0.09364	8.92313
2046.87500	9.33452	-1.50856	0.71267	7.26581
2050.78125	9.16158	0.10376	-1.70449	-0.45614
2054.68750	10.00192	-2.31332	-1.30111	-0.73783
2058.59375	-1.75898	-4.32744	-2.10657	3.29668
2062.50000	-13.65297	-4.32686	-1.70318	1.57322
2066.40625	-13.03553	-4.72924	-7.74671	-5.88553
2070.31250	-13.62830	-1.10230	-10.56678	-3.49752
2074.21875	-5.38699	-0.69885	-1.70190	4.06142
2078.12500	1.23226	-2.71295	-0.08977	1.86873
2082.03125	-6.07904	-0.69772	-0.89516	-7.41600
2085.93750	-6.01127	-0.69713	0.31412	-2.53980
2089.84375	-0.13524	-4.72586	1.92632	4.75537
2093.75000	-4.22319	-2.71065	1.12085	-0.77781
2097.65625	3.01736	1.72220	1.12129	-3.57913
2101.56250	14.35784	0.91693	-2.10171	4.11911
2105.46875	9.45098	-1.09712	-8.95104	6.01797
2109.37500	6.12025	-0.29068	-5.32417	6.16642
2113.28125	9.46549	-0.29010	0.72021	8.11425
2117.18750	7.22828	-1.09537	0.72062	8.71559
2121.09375	3.74114	-2.70654	1.52685	-0.88823
2125.00000	0.30780	-3.51178	2.73605	-4.39061
2128.90625	-8.16336	-2.70535	5.55700	3.55100
2132.81250	-7.83761	-2.30178	5.55743	3.33702
2136.71875	2.18423	0.92228	1.93153	4.91040
2140.62500	-0.05124	1.32578	1.12606	6.57627
2144.53125	1.20842	3.34103	2.33527	4.51098
2148.43750	4.55509	4.14752	-0.08193	2.54556
2152.34375	-0.12550	0.52166	-0.48441	5.43863
2156.25000	3.20129	0.92512	3.54533	3.14099
2160.15625	13.86351	3.34322	3.14283	-5.71785
2164.06250	4.89781	0.92625	2.74039	2.50221
2167.96875	-8.51368	-1.08782	-1.28846	6.77216
2171.87500	-12.52812	-2.29607	-1.69098	-0.08809
2175.78125	-11.47526	-1.48968	6.36805	5.82854
2179.68750	-6.89195	-1.48911	5.96561	4.54182
2183.59375	2.91275	0.92907	5.56311	3.28235
2187.50000	9.43854	1.73552	5.96652	5.34678
2191.40625	3.30451	2.13906	1.93766	4.48248
2195.31250	1.27260	2.94552	-0.88252	2.49896
2199.21875	2.96240	1.73730	-0.07626	1.90136
2203.12500	-1.52320	2.14082	0.73004	6.04592
2207.03125	1.59434	2.14142	1.53627	4.30968
2210.93750	0.22709	0.93324	3.14838	-2.61045
2214.84375	-10.12756	0.93385	2.74588	-2.41301
2218.75000	-5.32389	0.93446	3.55213	-0.33758
2222.65625	1.66279	2.54677	3.55255	5.55596
2226.56250	0.18306	2.54740	1.94133	4.46260
2230.46875	-0.40820	2.14510	-0.47581	-3.64169
2234.37500	2.67875	3.35444	-1.28122	3.58510
2238.28125	4.92084	0.13167	0.33091	5.88840
2242.18750	2.39819	0.53517	2.34604	1.41114
2246.09375	2.78247	2.95337	2.74946	0.96687
2250.00000	3.81182	0.13348	1.54114	7.02535
2253.90625	0.20544	1.74578	-1.27889	8.00276
2257.81250	-4.98024	4.16396	-3.29306	8.89852
2261.71875	-2.13644	3.76157	-0.06924	8.52209
2265.62500	10.59735	5.37389	-0.47168	-1.34572
2269.53125	6.03342	7.38921	-0.06835	-2.04234
2273.43750	-1.02563	3.76344	1.54375	2.78127
2277.34375	1.64503	-0.26521	0.33535	8.29395
2281.25000	-5.49123	-4.69680	1.54456	11.17702
2285.15625	-4.58036	-5.09909	0.33617	10.01327
2289.06250	3.43203	-1.87510	0.73957	13.87640
2292.96875	3.01547	-1.06861	4.36634	6.85843
2296.87500	1.83461	1.75250	1.94926	2.06507
2300.78125	-2.82841	0.94726	-2.48256	4.14203
2304.68750	6.40377	1.75375	-3.69094	6.03153
2308.59375	8.09071	3.76901	-8.92862	3.60483
2312.50000	-3.78893	2.15794	-2.88421	7.33904
2316.40625	3.24839	-0.25901	5.17486	5.52646
2320.31250	7.86967	1.75629	1.95196	-7.74445
2324.21875	7.68624	3.77155	-0.06232	1.61568
2328.12500	19.60107	2.56336	-0.06188	17.90720
2332.03125	19.65887	3.36984	0.74449	16.30890
2335.93750	14.35218	2.16170	1.55078	23.11380
2339.84375	16.13095	-1.06112	3.16291	30.72315
2343.75000	15.78581	-2.67224	1.55161	27.38803
2347.65625	14.18557	-2.67158	-2.47729	23.33572
2351.56250	5.26184	-4.68556	-4.08863	19.66290
2355.46875	-3.12871	-3.07317	-2.07357	20.17778
2359.37500	-3.02218	1.76266	-1.67019	15.19041
2363.28125	-2.33885	1.76335	-6.10201	10.01530
2367.18750	1.91236	-0.25064	-3.68395	2.15741
2371.09375	-0.64511	1.76468	-1.26588	-6.37449
2375.00000	-3.65945	3.77999	-2.87720	-12.14337
2378.90625	1.99052	0.55727	-2.87683	-9.20975
2382.81250	-2.76810	-3.47131	-0.86177	-7.38795
2386.71875	4.53542	-1.85894	-0.05545	-12.99451
2390.62500	11.20235	-0.24654	1.55672	-2.97926
2394.53125	1.07740	-3.46933	4.78060	9.55821
2398.43750	4.17684	-3.87165	-0.45706	16.75774
2402.34375	8.45375	-1.05042	-1.66541	11.84599
2406.25000	4.32038	-1.45272	3.97607	13.73677
2410.15625	5.34231	-3.46669	1.96187	19.36828
2414.06250	1.81647	-3.46601	1.55933	9.12978
2417.96875	-8.94871	-3.86830	2.36563	8.07951
2421.87500	-8.15849	-5.88230	0.75433	4.86266
2425.78125	-8.80927	-5.88167	-0.45408	4.98605
2429.68750	-16.61697	-4.67225	-0.45365	5.46301
2433.59375	-21.58731	-3.46283	-1.25906	-3.75766
2437.50000	-11.99673	-3.86518	1.56187	-0.58803
2441.40625	-7.47501	-1.44694	2.77111	3.89864
2445.31250	-1.01146	1.77718	1.15980	5.07234
2449.21875	-1.49313	3.38950	-1.25736	1.63672
2453.12500	-7.08150	3.79308	-4.48040	-6.94398
2457.03125	5.11159	3.79376	-6.49465	-12.06148
2460.93750	8.08995	9.43550	-8.50883	-13.60678
2464.84375	1.52089	9.83909	-9.71722	-10.58468
2468.75000	4.37231	7.01930	-10.11974	-11.45525
2472.65625	2.22013	5.00532	-8.10465	-10.09990
2476.56250	0.07294	2.99135	-4.47782	-4.17514
2480.46875	2.27540	0.57444	-4.47738	4.32830
2484.37500	-0.81221	-3.45418	-0.85060	-1.69352
2488.28125	4.19782	-5.87112	10.02903	-10.44754
2492.18750	0.27287	-4.25871	15.67046	0.87561
2496.09375	-10.58836	-5.46687	14.86503	6.55408
2500.00000	-12.02138	-5.86916	12.85085	2.90927
2503.90625	-10.83330	-3.45091	8.82204	-4.51895
2507.81250	-20.55685	-1.43562	7.61371	1.43124
2511.71875	-31.46016	-0.62911	7.21119	2.20661
2515.62500	-24.45110	-0.22552	1.57063	-8.88193
2519.53125	-19.48493	-0.62781	-0.04067	-12.21865
2523.43750	-18.87333	0.58163	-0.84608	-11.80795
2527.34375	-9.85973	2.59689	-3.66613	-17.72738
2531.25000	-9.57397	1.38874	-4.06862	-16.18206
2535.15625	-7.26208	3.40403	-6.08282	-12.60458
2539.06250	10.51227	2.59882	-6.48528	-11.63631
2542.96875	5.69011	0.58482	-6.08195	-13.08372
2546.87500	3.24395	1.39130	-6.88734	-14.74102
2550.78125	5.48863	0.18322	-4.87225	-9.16620
2554.68750	2.70252	-2.23373	-0.03664	-6.62746
2558.59375	6.25289	-5.05356	2.78438	-0.57829
2562.50000	-1.61187	-6.66469	2.78485	-1.09294
2566.40625	-8.24700	-6.66405	2.38234	-4.52229
2570.31250	-10.85434	-6.26042	4.39742	2.70078
2574.21875	-8.25415	-4.24511	5.20372	5.02167
2578.12500	-4.05249	-3.43861	3.99540	11.69336
2582.03125	-2.90218	-3.03503	2.78700	14.49648
2585.93750	-3.23733	-1.42270	1.17565	8.89640
2589.84375	-8.24039	-1.82502	-0.43562	7.32706
2593.75000	-18.77516	-2.22729	-0.43517	1.79369
2597.65625	-13.95214	-0.61494	-0.43473	7.45371
2601.56250	-11.07317	-0.61427	-2.44897	6.28736
2605.46875	-16.38310	-3.83706	-3.25439	-3.49888
2609.37500	-14.47582	-6.25394	-2.04525	-1.73886
2613.28125	-13.14522	-3.43277	-0.03018	-4.22336
2617.18750	-10.54721	-2.62625	-0.83561	-11.27773
2621.09375	-10.40804	-4.64021	-1.23810	-13.22591
2625.00000	-8.20039	0.19571	-2.04360	-12.69907
2628.90625	-0.15145	1.40512	-2.84906	-15.63661
2632.81250	-2.24332	0.59993	-2.04282	-16.25351
2636.71875	-7.93592	5.43573	-0.02776	-14.68010
2640.62500	-3.32168	3.42173	1.58437	-13.01425
2644.53125	-2.86791	0.19901	1.98772	-13.06494
2648.43750	1.28463	5.03480	3.59980	-4.95705
2652.34375	0.63339	6.64716	3.60021	-4.48151
2656.25000	1.94554	3.82732	2.39185	-1.54107
2660.15625	6.16093	-1.81307	4.40691	8.53782
2664.06250	4.44792	-3.02115	2.39268	2.65512
2667.96875	4.73614	-0.19996	2.39307	-0.32786
2671.87500	0.72168	2.21834	3.19931	0.87050
2675.78125	4.99815	4.63662	-0.82958	0.34022
2679.68750	6.76110	5.04027	-4.85846	5.09743
2683.59375	4.07499	6.65269	-7.67854	5.44967
2687.50000	-4.71056	4.23588	-0.42535	-6.99136
2691.40625	-6.81546	2.62486	3.60438	-7.85564
2695.31250	-4.41526	3.02855	1.59014	-2.58650
2699.21875	-7.56069	4.64095	2.39644	-0.36370
2703.12500	-3.98774	3.83580	1.18811	0.15438
2707.03125	-8.52589	0.21019	0.38274	-0.77612
2710.93750	-7.47557	-1.80382	2.39785	-0.44359
2714.84375	1.91338	-0.99725	5.21878	-1.05211
2718.75000	-2.14760	1.01808	1.18996	2.63495
2722.65625	3.63024	-3.01055	0.78752	6.11076
2726.56250	19.07350	-3.00988	7.23478	13.07580
2730.46875	22.10850	-2.20333	5.22055	15.44743
2734.37500	17.13673	-4.21733	8.44447	7.76570
2738.28125	11.32014	-0.99320	6.43027	6.84538
2742.18750	7.99157	-1.79843	3.61017	2.77101
2746.09375	16.03151	-1.39484	6.02818	3.53529
2750.00000	19.88136	6.26154	1.59637	10.80247
2753.90625	15.46929	3.03879	-1.62659	8.15336
2757.81250	15.52169	0.21900	0.79147	12.27242
2761.71875	16.35090	0.62257	4.01534	19.95450
2765.62500	14.98211	-0.98846	6.03045	22.57757
2769.53125	16.05916	0.22104	4.01623	25.91031
2773.43750	11.01470	-1.79296	2.80787	24.28700
2777.34375	7.64132	-3.80691	1.19657	18.51749
2781.25000	4.93712	-3.80621	-0.41470	13.74469
2785.15625	-3.41946	-4.61136	3.21206	12.58088
2789.06250	-11.12140	-3.80483	5.22714	12.81743
2792.96875	-5.49410	-2.99826	4.42172	3.78459
2796.87500	2.99526	-3.80348	3.61632	-1.00893
2800.78125	0.74978	-1.78814	3.61676	-0.14094
2804.68750	-2.50889	2.24188	2.00551	-1.07203
2808.59375	1.19266	1.83961	2.40887	5.36560
2812.50000	0.99804	2.24322	0.39468	1.84695
2816.40625	4.81192	4.66147	2.81267	6.48120
2820.31250	9.43326	3.85630	3.61888	10.13318
2824.21875	4.41463	5.06581	-4.84228	11.43466
2828.12500	15.52364	5.06652	-3.23008	12.01169
2832.03125	19.20781	4.26139	-0.00626	6.78695
2835.93750	-2.21601	-0.57310	-5.24387	6.74194
2839.84375	-2.85483	-4.19876	-5.24344	2.26336
2843.75000	0.02345	-5.00390	-2.82544	2.15153
2847.65625	-3.59151	-5.40620	-1.61619	1.32258
2851.56250	-1.63608	-3.79381	0.39892	-5.17089
2855.46875	-5.19133	-1.77844	-0.00359	-2.64144
2859.37500	-5.89059	1.44571	0.80271	8.08535
2863.28125	-2.38682	2.65523	1.60896	6.93942
2867.18750	1.86431	2.65594	4.83286	5.52833
2871.09375	-3.11080	0.64201	7.25085	9.48720
2875.00000	-6.12508	1.04567	6.04255	5.73297
2878.90625	-2.48989	2.65806	2.41659	9.06950
2882.81250	-7.24866	1.44997	0.40240	4.44429
2886.71875	0.05491	-0.16101	-2.01474	-9.22100
2890.62500	11.55707	-0.56324	-9.26703	-0.41463
2894.53125	12.31136	-0.56251	-4.43137	5.27299
2898.43750	13.79912	1.04996	2.82182	7.63731
2902.34375	16.46440	2.25946	4.03104	11.58999
2906.25000	9.10768	0.64844	1.61383	11.46604
2910.15625	1.26515	-2.17134	-0.40040	5.00956
2914.06250	0.15672	-3.37946	-1.60878	-3.61725
2917.96875	-3.35564	-0.55830	-2.81716	-4.66758
2921.87500	-10.62399	0.65118	1.21256	2.18866
2925.78125	-8.05137	1.45771	2.82474	4.72961
2929.68750	-6.18865	1.86135	2.82518	2.38599
2933.59375	-6.32361	2.66786	1.61682	4.04427
2937.50000	-0.35926	4.28030	0.00549	4.79631
2941.40625	3.35662	4.68388	1.61765	7.26835
2945.31250	4.58201	3.87871	1.21514	-4.04870
2949.21875	8.93541	4.68529	-1.20200	-3.85800
2953.12500	16.64373	3.88014	-3.61921	8.11065
2957.03125	17.95773	3.07499	-2.00710	17.49867
2960.93750	26.97995	2.67271	-2.00666	17.96803
2964.84375	28.87239	1.86756	-4.42374	18.57251
2968.75000	20.03873	2.67410	-0.79694	23.34295
2972.65625	15.46896	-1.35450	-2.81113	20.66903
2976.56250	19.76850	-2.96550	-5.63117	20.95263
2980.46875	15.92696	-1.35311	2.83080	18.17392
2984.37500	5.98952	-1.35243	7.26345	13.36077
2988.28125	11.40242	1.06587	6.05520	14.27702
2992.18750	9.89502	3.08124	6.05571	11.49754
2996.09375	3.86895	2.27609	4.84737	10.72908
