 	TP9	AF7	AF8	TP10	
-1000.00000	6.30792	0.17227	3.42929	-8.26672
-996.09375	6.22070	-0.63356	2.22041	-5.32921
-992.18750	2.32023	2.58996	1.01152	-1.83683
-988.28125	-1.27180	4.20180	0.60852	-0.03763
-984.37500	-6.87809	5.41059	2.22019	0.62615
-980.46875	-5.67142	2.99310	3.83183	5.45861
-976.56250	-12.15413	-1.03615	-0.19749	-2.72219
-972.65625	-18.63128	0.57560	-3.42095	-10.19420
-968.75000	-16.74094	1.78448	-2.21220	-16.27189
-964.84375	-0.53687	2.59039	-1.40640	-11.64260
-960.93750	8.11654	0.97876	1.01118	-1.39384
-957.03125	-9.97270	0.57591	1.01114	-2.94393
-953.12500	-12.15868	2.18773	-5.43580	2.82653
-949.21875	-6.00978	0.97899	-5.03288	9.01935
-945.31250	-0.66070	2.99372	0.20517	5.09272
-941.40625	6.57070	5.41134	1.01100	-4.24529
-937.50000	-0.13286	3.39674	-0.19783	-9.22170
-933.59375	-5.25942	0.57631	-1.40670	-8.71144
-929.68750	-3.72721	1.38220	-2.61544	-5.95714
-925.78125	-7.65000	2.99402	-6.24188	-7.99175
-921.87500	3.79214	4.20289	-6.64486	-5.10956
-917.96875	7.69164	4.20297	-4.22727	0.60209
-914.06250	-6.79823	5.00888	-3.01849	-3.30947
-910.15625	-10.69550	9.03826	-2.21263	-12.04193
-906.25000	-16.66582	5.41194	-7.45073	-9.79277
-902.34375	-17.54518	4.20328	-3.82435	-0.76189
-898.43750	-7.85776	3.80038	2.21956	-0.47237
-894.53125	-8.71835	2.59163	1.41369	1.29981
-890.62500	-3.94552	2.18877	3.83121	6.47963
-886.71875	5.73780	1.78589	1.01071	-0.30659
-882.81250	7.83240	5.00940	0.60778	7.18760
-878.90625	8.81933	3.39768	3.02539	15.75713
-875.00000	-1.75464	1.38306	1.41366	9.94773
-871.09375	-7.65095	1.38311	-0.19813	2.06240
-867.18750	-8.53075	-1.43732	-3.82450	-4.10761
-863.28125	-1.86949	-0.22843	-5.03332	-13.49276
-859.37500	7.75676	4.20392	-1.80990	-12.76256
-855.46875	3.61531	2.99519	-0.19824	-0.73860
-851.56250	3.57550	-1.03406	-1.40705	-1.11722
-847.65625	10.23960	-2.24275	-1.40703	5.40209
-843.75000	7.74560	-1.83975	1.41349	12.54836
-839.84375	1.44188	-3.45139	1.01049	10.26724
-835.93750	4.97005	-2.64546	-2.21294	5.49951
-832.03125	8.37877	0.17521	-2.61580	-7.09042
-828.12500	-1.61104	1.78698	-1.00408	-7.63572
-824.21875	-6.83776	0.98121	-2.21287	-3.33124
-820.31250	-4.08411	-0.22751	-5.43634	-5.81499
-816.40625	-1.31959	4.20482	-7.04801	-6.39724
-812.50000	4.74522	6.62241	-7.85381	0.25838
-808.59375	2.25801	5.41366	-8.25685	3.92493
-804.68750	-0.89279	5.01083	-6.24218	-1.89726
-800.78125	3.66678	5.41378	-5.43633	-7.41999
-796.87500	12.14188	6.62265	-2.61575	-2.18345
-792.96875	6.37422	3.39927	-3.42162	8.83967
-789.06250	0.89738	4.20524	-7.85373	4.22642
-785.15625	11.47954	5.81700	-7.04791	0.73732
-781.25000	11.39545	5.41408	-5.03319	4.24335
-777.34375	2.23696	6.22001	-6.64492	9.67493
-773.43750	6.01219	3.39950	-4.22732	13.41236
-769.53125	8.00975	2.59367	-0.60096	10.99933
-765.62500	9.32965	1.78787	-1.40687	10.62021
-761.71875	3.38639	-0.62970	-3.42152	7.82017
-757.81250	-0.41457	1.38498	-3.82439	2.17802
-753.90625	6.88290	5.01144	-2.21266	-2.54664
-750.00000	5.46764	5.41443	-1.80973	-1.94492
-746.09375	4.74959	4.20580	-5.43615	-0.85246
-742.18750	5.83008	3.39998	-5.83907	2.90856
-738.28125	5.79627	2.59421	-3.01860	9.57150
-734.37500	-0.68491	1.38549	-3.42157	6.89357
-730.46875	2.54101	0.98266	-3.82451	7.29975
-726.56250	4.18888	-0.62899	-1.80990	6.21373
-722.65625	0.19025	1.38573	-3.01873	-8.87787
-718.75000	7.16479	2.19167	-1.81000	-10.85835
-714.84375	5.06347	-1.83763	-0.60123	4.25644
-710.93750	-2.78377	0.58001	-3.82469	10.93132
-707.03125	-6.45256	2.59470	-7.04820	4.02032
-703.12500	-5.47504	1.38594	-6.64533	-4.16718
-699.21875	-1.95350	2.59480	-4.22778	-1.89787
-695.31250	-0.04965	4.20661	-4.63072	4.44679
-691.40625	0.37496	2.99787	-4.22783	3.30908
-687.50000	-0.17407	0.58035	-1.40736	-0.98141
-683.59375	-9.95581	-1.83718	1.41318	-6.32625
-679.68750	-6.65276	-3.44880	3.42781	-11.09474
-675.78125	-3.13260	-3.85168	1.41312	-6.23904
-671.87500	-1.68061	-3.04571	-4.63087	-7.10598
-667.96875	-1.95331	-2.23979	-6.64559	-18.45805
-664.06250	-11.23576	-3.04556	-5.03388	-7.29316
-660.15625	-8.14391	-1.83669	-4.63098	-2.99234
-656.25000	-7.81429	-1.03070	-5.83978	-1.61459
-652.34375	0.31825	-1.03059	-2.21349	5.06929
-648.43750	2.31607	1.38707	1.81570	3.16853
-644.53125	2.37123	2.99896	1.00976	3.41147
-640.62500	3.23980	0.98442	-1.40790	5.08192
-636.71875	2.42123	2.19331	-1.00497	2.60135
-632.81250	6.77390	5.41676	3.42725	3.16631
-628.90625	7.39898	3.80512	-1.40799	3.05866
-625.00000	-0.15860	2.99935	-7.45196	-1.20492
-621.09375	-1.51471	2.19355	1.00953	-6.21289
-617.18750	1.38018	2.99952	3.82996	-4.47451
-613.28125	9.22481	3.80549	1.81529	1.28484
-609.37500	11.68682	4.61148	1.81527	7.40496
-605.46875	8.57585	5.01452	3.02405	13.91654
-601.56250	4.58662	2.19413	-1.00524	5.83409
-597.65625	6.78724	1.38835	-5.84044	7.37397
-593.75000	8.47567	-0.22325	-1.00532	9.89857
-589.84375	-2.14336	-1.02898	3.42690	-0.31063
-585.93750	-2.44763	-2.64066	5.03858	-8.43616
-582.03125	-7.06481	-4.25227	6.24737	-13.57460
-578.12500	-5.13335	-4.25217	9.06783	-11.82003
-574.21875	-0.71216	-5.86382	3.42679	-4.03606
-570.31250	1.77254	-6.66957	5.84431	1.26872
-566.40625	-7.43849	-8.68410	13.90294	1.85145
-562.50000	-14.71184	-7.07226	7.85890	3.65784
-558.59375	-4.97163	-6.66929	4.23251	-3.63460
-554.68750	-2.22351	-6.66923	2.62078	-8.28800
-550.78125	-6.38006	-3.84867	1.00897	-5.58525
-546.87500	-1.15532	-1.02805	2.21773	-6.79193
-542.96875	9.44781	-0.62507	1.41186	-4.51782
-539.06250	4.85165	-0.22205	2.21767	0.49890
-535.15625	-3.71561	1.79269	7.45575	4.79418
-531.25000	-0.00495	-1.43068	6.64984	8.13843
-527.34375	4.72144	-3.04232	3.02339	7.13952
-523.43750	0.54340	-3.44521	5.44098	-3.44725
-519.53125	-2.25990	-5.05683	4.63511	-1.43675
-515.62500	-4.78844	-4.65388	0.20286	-1.46015
-511.71875	-6.90355	-5.05672	0.60575	-0.27129
-507.81250	-8.74344	-2.23617	3.02336	6.17726
-503.90625	-13.62305	-3.04195	2.62049	-0.37964
-500.00000	-11.40148	-4.25065	4.23217	-0.98086
-496.09375	-13.90648	-2.63884	3.82919	-4.49037
-492.18750	-5.31624	-3.04165	3.42627	-6.23622
-488.28125	1.97079	-2.63869	3.42624	-8.06347
-484.37500	-4.44150	-2.23566	-0.20019	-4.17644
-480.46875	-1.22025	-1.42977	-6.24412	1.46176
-476.56250	-4.07665	-1.83265	-2.21486	3.75698
-472.65625	-4.51006	-0.22083	8.26131	8.37274
-468.75000	3.82701	1.79391	1.81444	11.56237
-464.84375	2.30209	-1.42947	3.02325	4.90933
-460.93750	0.47915	-3.44404	8.66428	1.05533
-457.03125	-3.91056	-3.04102	3.02321	-1.70363
-453.12500	-7.30549	-1.02628	1.41148	-6.40949
-449.21875	4.88730	0.98843	0.20264	-6.66385
-445.31250	6.20688	4.61486	-2.61788	-6.96427
-441.40625	0.14136	4.21204	-1.81209	-8.24384
-437.50000	-4.14469	0.98865	-1.81213	-2.34134
-433.59375	-4.83900	5.01801	-2.21511	-6.26361
-429.68750	1.93125	6.22687	1.00830	-10.76211
-425.78125	-2.39451	0.18299	0.60532	-7.15589
-421.87500	-7.06973	-1.42870	1.00821	-1.05050
-417.96875	-1.15584	1.39186	1.41111	-3.39766
-414.06250	-5.97572	2.60071	0.60518	-2.47421
-410.15625	-2.21762	3.00372	3.42569	-2.34245
-406.25000	4.85509	3.40668	3.42566	-5.20601
-402.34375	-5.75748	1.79507	2.61979	-2.02217
-398.43750	-10.75335	1.39218	3.02263	-2.63810
-394.53125	-3.74385	2.19815	3.82844	-0.85855
-390.62500	-1.33801	1.39232	4.23139	-0.40950
-386.71875	-3.38869	3.40704	2.21672	0.65419
-382.81250	0.23382	1.79543	-1.81262	-1.76707
-378.90625	5.11109	-1.02497	-2.61852	-1.74698
-375.00000	0.43978	1.79559	-0.60398	5.79458
-371.09375	4.25735	5.01909	0.60467	4.88338
-367.18750	9.72338	3.40740	-0.20128	7.33566
-363.28125	11.03471	0.98990	4.63381	11.76539
-359.37500	13.30214	-0.62180	7.05126	7.97997
-355.46875	3.02531	-0.62176	4.63362	6.00090
-351.56250	1.41812	1.79590	-1.41047	-1.07689
-347.65625	6.72304	4.21353	-3.82810	3.56078
-343.75000	6.50083	0.58718	3.42447	5.53949
-339.84375	5.75890	3.00487	2.61843	0.35249
-335.93750	8.03935	8.64593	-3.82868	-3.46572
-332.03125	9.88964	7.03433	-1.41131	-0.56188
-328.12500	12.59727	7.03442	-1.00849	9.48026
-324.21875	9.20013	7.43744	-0.60571	3.33291
-320.31250	6.65647	9.85509	0.19994	-3.27425
-316.40625	11.04701	9.85517	-4.23254	-4.47792
-312.50000	11.54047	7.43768	-1.00931	3.60546
-308.59375	10.42671	7.84064	2.21393	9.38218
-304.68750	7.04645	6.22902	3.01954	7.56669
-300.78125	8.73855	4.61736	4.22805	7.17207
-296.87500	13.25128	7.03503	1.40729	8.19710
-292.96875	0.72670	7.43803	-0.20471	7.79457
-289.06250	-2.20475	7.03517	2.61565	5.28210
-285.15625	8.50278	5.82647	3.82416	3.73855
-281.25000	13.61419	4.21487	-0.20537	4.69486
-277.34375	15.04994	5.82667	-1.81726	7.55806
-273.43750	7.66586	6.22969	-0.20572	5.15100
-269.53125	1.70134	5.02096	-0.60879	0.00089
-265.62500	6.72186	4.61813	-3.02649	-0.49276
-261.71875	4.35862	3.81237	-3.42948	-5.46792
-257.81250	-0.88777	3.81246	1.00274	3.27054
-253.90625	7.37405	1.39497	1.00271	10.98168
-250.00000	13.68628	-0.61954	-3.42955	0.38912
-246.09375	1.30453	2.60404	-2.22071	-1.89914
-242.18750	-6.94012	4.61882	-0.20605	-6.79343
-238.28125	-4.74839	0.99257	-3.83232	-11.51744
-234.37500	-1.35964	0.58977	-3.83223	-7.35381
-230.46875	3.53251	3.00750	-0.60874	-8.86332
-226.56250	-4.11854	1.39587	-1.01165	-8.93708
-222.65625	-0.13468	0.18727	-1.81752	-7.33717
-218.75000	6.28562	-0.21558	0.19717	-5.78241
-214.84375	-6.04630	-0.61838	1.40600	-6.34329
-210.93750	-9.01334	-2.63292	-1.01157	-10.43053
-207.03125	-4.70738	-3.03571	-1.81740	-3.47044
-203.12500	-1.81690	-1.42389	-1.41444	0.96257
-199.21875	5.61753	0.59088	-1.41437	-0.88184
-195.31250	7.01024	1.79979	-1.81723	2.72690
-191.40625	5.86618	3.00869	-1.01136	0.52136
-187.50000	5.98866	2.60586	0.60033	4.02797
-183.59375	-1.91236	1.39720	-0.60843	4.00658
-179.68750	-7.56134	0.59147	-1.01135	-5.68137
-175.78125	-9.33622	0.99448	1.00331	-13.59055
-171.87500	-0.98558	3.41207	1.80918	-9.04855
-167.96875	5.40947	1.80042	1.00335	1.87781
-164.06250	-0.01580	1.39752	-0.20542	-1.02050
-160.15625	2.60734	5.42686	-0.60830	-4.06348
-156.25000	5.35045	7.84451	-1.41417	-13.39431
-152.34375	1.45760	5.02406	-1.81705	-10.53395
-148.43750	-0.39649	3.00945	1.80934	0.15543
-144.53125	-4.18276	1.39772	3.82398	-0.41510
-140.62500	-4.57400	-1.01976	2.21229	-3.68455
-136.71875	-5.34385	-2.22847	1.40647	-5.15091
-132.81250	-6.95159	-0.61667	2.21234	-3.53546
-128.90625	-6.18786	0.18935	3.82407	-4.36128
-125.00000	-7.96348	0.59232	1.00358	-4.24712
-121.09375	-11.78102	1.80119	-1.41405	-4.14182
-117.18750	-4.75613	3.81590	-1.01111	0.25569
-113.28125	0.37948	5.02476	-3.02574	2.27293
-109.37500	-2.29094	1.80138	-1.81694	-3.20879
-105.46875	-4.50487	1.39849	0.60063	-2.03542
-101.56250	0.72877	2.20446	1.00357	-1.00117
-97.65625	2.67669	0.59278	1.80942	0.40571
-93.75000	-0.72731	1.39870	1.40654	-1.57241
-89.84375	-5.62621	2.60757	1.40657	-2.42860
-85.93750	-6.29445	6.23403	-0.20520	-1.43005
-82.03125	8.37604	6.23410	-1.41403	3.72564
-78.12500	12.11597	4.21953	-0.20523	6.17548
-74.21875	-5.84154	1.80198	1.80943	3.05642
-70.31250	-14.57914	-1.01845	2.61533	-0.40877
-66.40625	-11.31319	-1.42133	2.61530	-2.42752
-62.50000	-5.35878	-1.01832	-0.20533	-0.03382
-58.59375	-1.02067	0.19055	-1.81707	3.86077
-54.68750	-8.51882	0.19060	-1.81707	6.48300
-50.78125	0.26595	-1.42111	-2.22004	8.89302
-46.87500	5.02133	0.59362	-1.81712	7.06298
-42.96875	-2.19694	0.19081	-1.41425	7.46638
-39.06250	0.73521	-1.01792	-2.62302	5.95027
-35.15625	-7.95708	-1.82373	-1.01137	-8.21970
-31.25000	-12.66498	0.19106	2.61499	-5.95189
-27.34375	-4.83280	2.60864	1.40610	-0.35280
-23.43750	2.95465	1.39993	-2.22029	3.26366
-19.53125	0.45802	-1.01754	-0.20563	6.80271
-15.62500	-1.33873	-3.43509	1.00315	1.65598
-11.71875	8.27746	0.59426	-1.81735	5.42295
-7.81250	15.13578	0.99727	-1.41445	7.56420
-3.90625	4.85957	-4.64368	2.21193	-4.17576
0.00000	-5.88458	-5.04647	4.62950	-3.25301
3.90625	-3.57595	-2.22589	4.62948	8.30317
7.81250	0.63954	-0.21116	5.03232	11.58630
11.71875	3.68596	-3.03159	5.43519	9.86382
15.62500	3.11782	-5.04617	4.62928	11.74455
19.53125	-0.96853	-5.85201	3.82334	12.85130
23.43750	5.07090	-5.44903	3.82335	14.94003
27.34375	11.96625	-1.01671	3.42046	12.13169
31.25000	5.94912	0.59507	1.40578	6.54794
35.15625	2.56692	-1.01655	-0.20601	3.88559
39.06250	6.74278	2.20696	-1.01186	-1.29438
42.96875	7.67488	3.41581	-1.01190	3.02775
46.87500	-1.25956	0.59542	-1.81783	2.22117
50.78125	-9.50010	-1.82209	-2.62372	-1.17253
54.68750	-8.47530	-2.22491	-1.81791	6.50075
58.59375	-8.13733	-2.22484	-1.81793	7.90051
62.50000	-6.64827	-1.41892	-1.01208	1.97634
66.40625	-3.17971	1.80459	-1.41507	3.20651
70.31250	4.08081	3.01343	-2.22094	7.65643
74.21875	1.82627	1.80469	-1.41510	6.70124
78.12500	-0.07771	2.61061	-1.41510	-1.46687
82.03125	5.61497	0.99902	-2.62382	-4.33435
85.93750	3.38445	0.59619	-1.41506	2.99658
89.84375	1.97002	0.99921	1.40552	4.02529
93.75000	8.49431	0.59635	0.59962	8.11837
97.65625	10.37254	-0.20941	1.00253	10.49642
101.56250	10.61486	-0.20931	1.80837	10.68649
105.46875	4.73077	0.99957	-1.01216	6.01925
109.37500	-3.74240	3.41720	-1.41515	-4.81366
113.28125	5.48900	4.22318	-1.01223	-0.92932
117.18750	6.69397	1.40271	-1.81817	2.29056
121.09375	6.73618	1.40280	0.19642	1.50469
125.00000	1.25913	-0.20880	0.59927	8.64332
128.90625	-5.39935	-1.82042	-3.02715	5.31466
132.81250	-1.14200	-0.61153	-1.41551	10.58760
136.71875	-1.44237	-0.61145	-1.01262	11.79386
140.62500	-5.62181	1.00039	-1.81852	1.96447
144.53125	-5.42246	2.20932	-3.83314	-0.01458
148.43750	9.08754	1.00061	-2.22144	0.16014
152.34375	5.93076	-0.20814	2.21083	4.79757
156.25000	-5.57372	1.40360	0.59905	-0.47674
160.15625	3.75733	0.19495	-6.65376	-3.24661
164.06250	2.00800	0.59793	-3.02738	3.00799
167.96875	-8.23018	-0.61080	4.22534	1.47908
171.87500	-8.34361	-3.43124	1.00183	-4.59665
175.78125	-12.14436	-3.02823	0.59884	-5.50646
179.68750	-9.85351	-3.83405	3.01640	-5.26451
183.59375	-2.24026	1.00125	3.82219	-5.26006
187.50000	-0.94160	2.61307	1.80752	-5.63895
191.40625	1.57052	-1.81905	1.00163	-0.66886
195.31250	0.60720	-3.83363	1.00158	-0.47031
199.21875	-0.92473	-3.02764	2.21031	1.14903
203.12500	-0.44184	-4.23632	3.82194	-0.24424
207.03125	-10.14668	-1.41570	1.80725	-6.69135
210.93750	-3.81133	1.00202	-2.22210	-7.18975
214.84375	-3.98336	-2.62429	-1.81917	-8.33088
218.75000	-18.21304	-2.22125	-5.44557	-4.15162
222.65625	-7.10740	-1.41529	-4.23679	-3.70638
226.56250	-2.00090	-3.02692	5.83647	-9.74002
230.46875	-3.53341	-3.83275	6.23942	-6.02595
234.37500	-0.52779	-3.02677	3.01594	-2.08746
238.28125	1.13816	-1.01204	2.61301	-0.21293
242.18750	5.56197	0.59973	3.41882	-2.35371
246.09375	8.18259	-1.01187	1.80707	2.53686
250.00000	5.22741	-3.02642	1.40419	0.80888
253.90625	-5.94545	-3.02630	1.40423	-6.31442
257.81250	-2.90791	-3.83208	1.40424	-7.58233
261.71875	-1.92488	-4.63780	2.21007	-2.63589
265.62500	-9.01218	-2.62305	1.00131	-0.48690
269.53125	-4.11981	-0.20535	2.61310	-1.19032
273.43750	-3.30932	-3.02575	4.62774	-0.05520
277.34375	-6.17517	-5.04028	3.41896	5.57409
281.25000	-8.21625	-5.44316	4.22478	5.92023
285.15625	-11.28059	-4.23425	5.03057	-1.08723
289.06250	-9.00920	-1.81655	1.00123	0.06377
292.96875	1.74395	-0.20467	0.59826	11.05325
296.87500	8.26105	4.22773	1.00117	8.23379
300.78125	0.38454	3.42195	-0.61056	1.55451
304.68750	-7.48997	0.19871	-0.20770	-3.29795
308.59375	-14.27483	2.61640	-0.20772	-12.35287
312.50000	-10.52578	4.63120	0.19525	-10.05478
316.40625	-1.50352	4.22843	-3.83405	-9.27004
320.31250	1.71216	6.24320	-3.43116	-13.31665
324.21875	2.75803	6.64620	-3.43118	-12.36104
328.12500	-5.00815	4.22878	-5.04289	-9.02758
332.03125	-1.43328	3.82593	-2.62531	-6.56249
335.93750	3.21490	2.61724	-1.01362	-4.22250
339.84375	-1.01162	3.82616	-2.22242	-2.02722
343.75000	-8.74449	4.22928	-2.62532	-10.55189
347.65625	-14.65172	1.40887	-4.23710	-19.77930
351.56250	-10.46158	0.20026	-7.46057	-16.34252
355.46875	-13.03874	-1.00846	1.00094	-13.28638
359.37500	-4.16235	-3.42598	7.44786	-9.30280
363.28125	2.32088	0.20052	7.04495	-5.53089
367.18750	-6.94235	1.81232	7.85083	-0.28874
371.09375	-4.16382	1.40948	10.67143	7.75031
375.00000	-5.53618	5.43891	10.67147	5.44731
378.90625	-0.08612	4.63319	5.43339	-2.10270
382.81250	2.90959	1.40984	3.01581	-1.73413
386.71875	-0.41611	-1.41054	1.80701	-5.76050
390.62500	-4.69794	-0.60459	-1.41647	-12.04796
394.53125	-15.77614	-1.41035	-4.23701	-14.09790
398.43750	-4.49835	1.41024	-1.01359	-12.25759
402.34375	1.47914	2.21626	2.61279	-10.04480
406.25000	-5.95391	-3.82763	2.61279	-12.82869
410.15625	-3.19681	-3.42454	1.40397	-9.65551
414.06250	-4.26787	-1.81271	0.59806	-5.43347
417.96875	-2.89400	1.81382	0.19516	-2.29240
421.87500	3.26362	3.02274	-2.22244	3.38095
425.78125	1.02063	2.21700	-3.43123	3.88838
429.68750	-0.06122	5.84349	-3.83410	0.02051
433.59375	1.19006	5.84359	-2.62531	4.85175
437.50000	1.10054	3.82902	-1.01364	6.84267
441.40625	3.02106	5.44083	-0.20785	1.06713
445.31250	-4.87993	3.42630	1.40382	-3.96611
449.21875	-7.37702	2.21767	3.82130	-1.95877
453.12500	-4.23316	2.21781	2.61251	-1.77399
457.03125	-0.16919	5.44138	3.01537	-5.80266
460.93750	9.61305	6.65037	7.44759	8.79879
464.84375	4.54731	1.00957	6.23872	12.35789
468.75000	-0.16047	1.41264	4.22402	7.77605
472.65625	9.68643	0.60698	4.62690	10.15167
476.56250	10.22117	-0.60166	3.41806	8.93295
480.46875	2.88943	3.42779	1.80629	10.45723
484.37500	-1.32462	4.23386	1.80621	10.54852
488.28125	-4.60198	3.42811	3.41792	16.33010
492.18750	1.45064	6.65174	5.43257	14.84492
496.09375	0.84493	2.62260	0.59735	-0.92436
500.00000	-2.64637	-3.42119	-1.41731	-1.21039
503.90625	2.48281	-4.62986	1.80615	11.55459
507.81250	6.29539	-1.40630	1.80618	11.61432
511.71875	10.95360	4.23488	1.00037	12.71245
515.62500	13.60895	5.04087	1.80627	4.11706
519.53125	7.50787	5.44391	4.62685	4.82108
523.43750	-0.95822	5.04116	7.04438	10.53618
527.34375	1.50494	4.23549	3.01503	2.48980
531.25000	-3.30339	4.23566	1.00033	0.12952
535.15625	-4.26792	2.62405	8.25304	1.09359
539.06250	-0.49495	8.66815	9.05884	2.76352
542.96875	-1.17460	6.25077	1.40314	-1.77891
546.87500	-0.03572	1.41571	4.62654	-1.37656
550.78125	3.40887	4.63933	6.23820	4.90016
554.68750	6.85143	11.08640	4.22352	7.33540
558.59375	11.21887	7.05727	3.82051	-1.33826
562.50000	5.45539	1.01347	3.41756	-3.63610
566.40625	-0.34318	1.41655	4.62630	6.45866
570.31250	-1.94690	2.62556	4.22327	7.28228
574.21875	-1.38084	7.86386	1.80558	8.74457
578.12500	-2.47890	8.26700	0.19383	3.79985
582.03125	-6.05366	6.25250	-2.22387	-2.69406
585.93750	-6.26955	5.84968	-4.23862	-3.01895
589.84375	-2.84881	7.46155	-6.65627	-10.85478
593.75000	4.48124	11.89390	-7.05922	-10.79107
597.65625	3.94177	13.50580	-5.44757	-12.84514
601.56250	7.00455	12.70002	-3.83586	-9.02857
605.46875	11.99943	12.70015	-2.62710	-0.39906
609.37500	5.13786	9.47686	-2.22423	3.27361
613.28125	10.74274	9.47696	1.80507	7.96390
617.18750	8.32119	10.68580	2.20801	0.70762
621.09375	-0.09820	7.46248	0.59629	3.14535
625.00000	-3.56072	6.25375	0.59629	7.86654
628.90625	-11.42808	5.04504	2.61098	0.50856
632.81250	-4.35022	5.85101	5.02847	-1.47129
636.71875	5.01976	17.93901	4.22255	-2.68269
640.62500	-1.17431	8.26885	1.40196	-8.07992
644.53125	-2.58664	-4.22189	-3.03038	-3.61207
648.43750	1.85015	1.82219	-2.62748	-0.61685
652.34375	-2.91829	3.43400	-1.41876	4.82650
656.25000	-4.75222	7.46346	-0.61289	4.38743
660.15625	4.98184	10.68697	0.19292	3.63237
664.06250	5.24729	11.49297	-3.03057	-0.58921
667.96875	3.87376	18.34288	-0.61298	-6.95319
671.87500	7.78964	21.96936	3.01336	-0.53805
675.78125	4.79475	13.50790	2.20746	1.37267
679.68750	1.84747	7.46403	1.40157	-4.02639
683.59375	-4.23883	5.44946	3.41615	-3.21609
687.50000	1.08892	5.44956	2.61026	-1.17731
691.40625	-5.26370	4.64381	1.40139	-1.04231
695.31250	-11.86799	5.44976	0.19253	0.76794
699.21875	0.70268	10.28507	-0.21049	12.05785
703.12500	2.39428	12.70273	-0.61343	15.49995
707.03125	5.18041	12.70285	-3.03107	6.63539
710.93750	8.29241	13.91176	-2.22526	8.55459
714.84375	10.13511	14.71779	-2.22529	5.39890
718.75000	13.23140	13.50908	0.59522	3.93721
722.65625	4.19070	14.31499	0.99814	1.56207
726.56250	6.07384	13.50923	-5.04583	-6.08315
730.46875	8.16771	9.48005	-5.44883	-10.02460
734.37500	-1.31740	7.46551	-3.83711	-9.71245
738.28125	1.15453	11.49491	-4.64303	-8.24079
742.18750	8.39893	16.73310	-2.62840	-1.51698
746.09375	10.61681	15.12145	-3.03143	7.40309
750.00000	4.03534	12.70395	-1.41975	12.92791
753.90625	1.72707	12.70404	5.02715	4.19287
757.81250	2.34711	9.88365	3.81830	6.55159
761.71875	1.71857	9.88376	4.62417	7.06596
765.62500	-3.35400	7.46632	5.83291	1.55945
769.53125	-0.47620	6.66054	5.02706	5.28842
773.43750	7.58722	9.07823	7.84753	0.78267
777.34375	-4.14304	8.27247	-1.01695	-4.46702
781.25000	-5.37830	7.06376	-2.62862	-4.92657
785.15625	1.22768	9.48146	5.43002	-4.68120
789.06250	9.14016	11.49622	2.60954	-0.70951
792.96875	6.19372	6.66114	4.62418	3.02749
796.87500	-7.43580	1.42317	7.04173	-2.20940
800.78125	-0.00100	3.43793	6.23590	2.39360
804.68750	3.00365	3.84101	6.23590	5.59998
808.59375	-4.98993	0.61770	4.22120	6.21543
812.50000	2.38556	1.42365	5.83283	6.49902
816.40625	4.96111	0.61795	6.23574	-4.40109
820.31250	6.56523	3.84155	5.83273	5.65487
824.21875	10.83452	6.66218	6.23559	11.44553
828.12500	8.30640	6.66230	7.84722	1.88506
832.03125	9.86666	7.87123	7.84717	9.18528
835.93750	2.42705	3.43913	1.80315	11.92822
839.84375	-5.02280	3.43927	0.19136	10.09427
843.75000	-3.48823	5.45406	-2.22629	8.01643
847.65625	1.48355	3.43953	-3.03218	1.20663
851.56250	1.24138	3.43964	2.60886	0.21121
855.46875	0.67888	5.05151	4.22050	6.89370
859.37500	3.10836	6.26041	3.81748	6.84807
863.28125	-0.48169	5.45461	3.01158	3.36720
867.18750	-6.11872	3.44007	0.99687	-5.89614
871.09375	5.12127	5.85780	1.80267	-7.12446
875.00000	8.18104	9.08136	3.41435	2.66042
878.90625	10.00466	10.69319	3.01138	9.61597
882.81250	23.47655	6.66401	-1.01792	18.84899
886.71875	24.98600	2.63485	0.19085	24.89579
890.62500	13.04847	4.24677	3.81712	25.45822
894.53125	8.01417	4.24694	3.01122	22.60256
898.43750	12.84508	5.85880	2.60825	17.59314
902.34375	11.97278	7.06775	3.41401	17.38840
906.25000	3.73378	3.84445	-2.22709	17.82805
910.15625	-2.37365	4.24757	-0.21251	8.91338
914.06250	0.58465	6.66527	9.45780	4.27094
917.96875	-6.10008	5.85961	4.21965	-3.06408
921.87500	-10.01569	3.03927	0.19030	-4.64348
925.78125	-2.58841	3.03941	-0.21269	-0.91259
929.68750	2.77658	4.65124	1.39902	3.68098
933.59375	4.43087	4.65137	5.83119	7.70633
937.50000	13.20576	7.47206	4.21948	3.65337
941.40625	11.90280	9.08391	0.59298	7.95116
945.31250	4.80769	9.48703	0.99581	9.76764
949.21875	0.69875	10.29301	-1.42191	5.32816
953.12500	-9.05131	5.05506	-3.03372	3.09540
957.03125	-8.21086	2.23470	-1.42212	2.69308
960.93750	-3.26391	3.84651	-3.43685	1.17729
964.84375	-1.47990	5.45834	-5.04862	-4.93382
968.75000	-0.94952	6.26439	-0.21359	-1.45697
972.65625	1.64467	3.44399	2.20395	5.75394
976.56250	5.40290	4.65296	-0.61662	2.11776
980.46875	11.36795	9.48831	-0.61671	-0.79007
984.37500	14.40660	6.66789	-1.01971	4.53944
988.28125	3.87649	4.65339	-1.42274	7.90344
992.18750	3.88519	6.66820	-3.03450	4.40362
996.09375	10.93509	7.87717	-4.24336	2.73692
1000.00000	3.01153	9.48911	1.39763	0.43615
1003.90625	-4.35007	7.87752	0.18879	0.30734
1007.81250	-0.13457	5.05717	-1.02004	-2.05056
1011.71875	7.74701	4.25148	0.99458	-1.35536
1015.62500	3.95542	0.62522	-1.02010	0.12250
1019.53125	-6.98066	-3.40392	-0.21430	-1.99415
1023.43750	-5.37348	-2.19497	5.42670	2.51217
1027.34375	-5.32798	0.22279	2.20320	4.53899
1031.25000	-0.06321	-0.18002	-1.42323	8.22264
1035.15625	1.79268	-0.58281	2.20310	4.35153
1039.06250	-3.29888	-1.38852	0.59130	-3.64888
1042.96875	1.25971	-1.79130	-3.03509	-4.96764
1046.87500	1.18986	-2.19404	-3.03513	-10.60925
1050.78125	4.23153	-1.79096	-3.84099	-3.92952
1054.68750	8.07705	3.85025	-5.85570	-4.31471
1058.59375	9.22105	7.47684	-5.45286	-9.36179
1062.50000	2.24874	5.05944	-4.24414	-8.03308
1066.40625	-1.93818	3.85083	-1.42373	-6.39981
1070.31250	10.15758	7.47745	0.18792	-5.97919
1074.21875	1.45626	6.67175	-0.21513	-3.71093
1078.12500	-6.89447	4.65725	0.99362	1.82063
1082.03125	-8.45443	1.43393	-0.61812	-2.65859
1085.93750	-6.65551	-1.38642	0.18776	1.85180
1089.84375	-0.01127	-1.78918	0.59066	1.67176
1093.75000	0.06621	1.03153	-0.61815	-6.32299
1097.65625	-6.91988	1.43457	0.18769	-7.16831
1101.56250	4.20169	-1.38578	-0.61821	2.69217
1105.46875	4.76443	1.43488	-4.64755	7.29238
1109.37500	-0.88821	2.64383	-1.82709	4.92106
1113.28125	-0.92423	2.64398	2.60512	0.74673
1117.18750	-4.95741	1.43533	1.39624	-5.30082
1121.09375	-2.09460	0.22676	0.59026	0.36037
1125.00000	0.48691	1.43563	0.59016	2.66397
1128.90625	11.15431	2.24167	1.79885	0.94714
1132.81250	7.35301	2.24182	2.20169	-3.85314
1136.71875	-8.25874	-2.99611	-1.02178	-5.06430
1140.62500	-2.76772	-4.20472	-1.82769	-1.59692
1144.53125	3.07278	1.03356	-3.03654	-4.38178
1148.43750	4.28617	-0.17507	-3.03659	-9.84798
1152.34375	5.15886	-0.98077	0.58969	-0.77815
1156.25000	-2.31621	-0.98063	0.99256	3.21499
1160.15625	2.17978	-2.59225	0.99248	6.08626
1164.06250	12.51851	0.22844	4.21585	11.53513
1167.96875	12.35367	4.25784	-1.02229	9.60347
1171.87500	11.03154	3.85500	-2.23112	10.78057
1175.78125	9.24554	7.48152	7.03626	17.92943
1179.68750	7.10414	5.86990	5.02156	15.35100
1183.59375	0.21206	1.03489	0.58927	3.67041
1187.50000	-4.53328	1.84093	0.99213	0.47110
1191.40625	-0.81246	0.22944	1.79787	-0.19981
1195.31250	-6.61095	-0.97918	1.79778	-6.04523
1199.21875	-8.54578	-2.18779	-1.02283	-9.26089
1203.12500	-4.83922	-3.79937	-3.03758	-5.01289
1207.03125	-8.90273	-3.39626	-2.23175	-3.80420
1210.93750	-9.41717	-0.97854	0.58875	-0.27324
1214.84375	-11.20082	0.23041	-1.82881	-9.06999
1218.75000	-16.56575	-4.60465	-4.64932	-11.74031
1222.65625	-15.13000	-5.00736	-3.84344	-11.69768
1226.56250	-2.77040	-2.99258	-2.23173	0.40092
1230.46875	5.36772	0.63392	-1.02290	5.32424
1234.37500	2.73264	2.64868	-0.61989	-4.03365
1238.28125	1.57846	-0.57464	2.60365	2.27354
1242.18750	7.61446	-1.38038	3.40954	7.38604
1246.09375	9.83259	-0.97732	3.81250	12.27714
1250.00000	10.50402	-0.17139	1.79794	10.14653
1253.90625	0.13732	0.63456	2.20095	-0.60293
1257.81250	-8.91281	2.64931	4.61862	-14.36132
1261.71875	-13.97340	3.05239	2.20110	-9.01153
1265.62500	-15.01645	-3.39436	1.79823	-4.84747
1269.53125	-5.28856	-4.20006	5.02172	-1.92412
1273.43750	-3.26888	-0.17059	4.21591	0.42007
1277.34375	-5.32857	0.63544	1.79833	-6.03826
1281.25000	-10.18991	0.63560	-0.21631	-3.67724
1285.15625	-18.08924	0.23284	-4.24557	-3.83467
1289.06250	-13.40016	1.84463	-6.66313	-9.13032
1292.96875	-4.25863	3.45643	2.20141	-10.22841
1296.87500	-2.97962	6.67996	3.41024	-9.01833
1300.78125	0.02304	0.63614	0.58973	-3.60936
1304.68750	8.66883	-2.18423	1.39570	3.22340
1308.59375	5.91350	6.27744	-1.02183	6.25653
1312.50000	-8.06616	5.87463	-2.63349	-7.56238
1316.40625	-14.75795	3.05425	-2.23059	-22.89462
1320.31250	-15.57128	3.86021	2.60458	-31.77619
1324.21875	-16.94287	1.84568	6.63384	-30.41745
1328.12500	-19.06800	-0.57181	3.41036	-26.68106
1332.03125	-22.34285	1.44297	0.99276	-23.00719
1335.93750	-19.30617	2.24903	-0.61896	-29.53160
1339.84375	-12.65348	3.86089	1.79860	-15.24831
1343.75000	-9.50712	7.89037	2.60448	-0.40300
1347.65625	-10.98209	1.44366	-2.23078	-11.64500
1351.56250	-2.76248	-3.39130	0.18680	-13.04329
1355.46875	-2.92191	-0.97353	-0.61908	-17.64283
1359.37500	-9.75964	-0.97337	-1.82792	-15.27083
1363.28125	-14.55847	-1.77914	-4.24554	-3.84316
1367.18750	-20.59824	-5.80828	-4.24555	-1.42138
1371.09375	-13.79029	-3.39053	1.39550	-19.97578
1375.00000	-5.89532	0.23601	1.79841	-21.47288
1378.90625	-8.90674	1.04201	1.79841	-7.26458
1382.81250	-9.53734	3.05683	-0.61920	-6.09002
1386.71875	-6.01321	0.23650	-0.21633	-5.28122
1390.62500	1.79284	1.04250	-0.61926	-1.49530
1394.53125	1.19079	2.25145	-0.21639	-1.12757
1398.43750	2.79827	1.44567	-2.63393	-8.15161
1402.34375	10.38751	1.44581	-3.84275	-3.52117
1406.25000	2.95446	4.66944	3.81287	1.75364
1410.15625	0.07054	4.66958	6.23044	-1.52006
1414.06250	5.84943	0.23755	5.02161	5.52257
1417.96875	14.87903	0.64058	5.42452	10.27540
1421.87500	12.97815	0.23782	6.63325	11.11350
1425.78125	5.09420	-3.79139	4.61855	7.99463
1429.68750	8.44473	-3.79125	4.21556	4.12679
1433.59375	7.27866	-3.79111	5.82718	-0.71228
1437.50000	0.74247	-3.38799	3.81247	-7.58576
1441.40625	-0.15749	-0.16438	-0.21687	-4.89973
1445.31250	-11.68472	1.85042	2.20065	-1.06851
1449.21875	-12.16716	1.04470	3.40936	-3.89625
1453.12500	-8.21753	-0.96982	0.99168	-0.48786
1457.03125	-16.24145	-0.16386	-2.23184	1.12457
1460.93750	-16.53258	0.64211	0.18571	-5.62929
1464.84375	-9.51046	0.64223	1.79738	-6.90518
1468.75000	-7.36844	-0.56645	3.00615	-2.62241
1472.65625	-3.16251	2.25420	3.81195	0.15628
1476.56250	-0.61306	1.04553	0.99141	2.96703
1480.46875	-1.49787	-0.96897	-3.03794	-2.76124
1484.37500	-0.87673	1.85166	-0.21748	-8.71377
1488.28125	6.72496	0.24010	3.40887	-2.52915
1492.18750	12.37472	0.24022	0.99122	-0.79074
1496.09375	13.78360	3.46373	0.99116	9.63050
1500.00000	12.30690	4.67268	-0.62059	14.98548
1503.90625	9.78041	5.07578	-1.82946	3.97755
1507.81250	7.95195	5.07592	1.39393	7.26056
1511.71875	7.37205	5.47893	0.99091	2.71763
1515.62500	7.60988	1.85271	-3.44138	-1.04257
1519.53125	5.94127	1.44988	-4.65018	7.72002
1523.43750	1.10175	3.46465	3.00546	-0.66735
1527.34375	-1.67311	-0.96743	7.43770	-8.31076
1531.25000	1.17426	-2.57908	4.21426	-1.40348
1535.15625	-0.59609	0.64451	4.21426	-0.03626
1539.06250	1.16231	-0.56414	7.84060	-5.61878
1542.96875	9.34731	0.64482	7.43770	-1.69941
1546.87500	8.06867	2.25671	7.84063	5.14987
1550.78125	-4.20113	1.45094	7.03480	8.20320
1554.68750	-5.19093	-0.56358	3.40840	8.22087
1558.59375	-1.62952	-1.36933	3.00540	9.62059
1562.50000	-0.94642	0.64545	3.00537	4.90525
1566.40625	3.32801	3.86899	1.79656	-2.32608
1570.31250	5.35033	2.25740	-1.02398	1.31779
1574.21875	6.31906	0.64575	-1.82988	5.60054
1578.12500	1.99741	3.86927	-0.62112	3.87920
1582.03125	2.85482	2.66055	-3.44173	-4.62945
1585.93750	7.47392	1.04892	-6.26230	-8.98377
1589.84375	8.07403	3.06367	-0.62131	3.72979
1593.75000	6.13671	0.64617	3.40796	6.61391
1597.65625	8.41776	1.04920	5.01963	3.35090
1601.56250	4.63074	-1.36828	0.18445	-4.11481
1605.46875	2.77596	-7.00915	-2.23317	-7.17039
1609.37500	3.16732	-6.20317	7.03421	3.35196
1613.28125	-9.76254	-4.59136	7.83999	-2.03120
1617.18750	-13.79585	-3.38244	3.40774	-8.48170
1621.09375	-4.88916	-4.59113	3.00474	-4.02937
1625.00000	-1.90477	-5.39687	4.61643	3.51230
1628.90625	3.52455	-4.18797	7.03395	-1.42813
1632.81250	6.57302	-4.18786	7.43685	2.63603
1636.71875	0.63158	-3.38191	5.42215	5.85697
1640.62500	0.48146	-0.96419	7.83966	8.92143
1644.53125	-1.33386	-1.76998	8.24261	11.77770
1648.43750	-4.95571	-2.17276	3.40742	6.71444
1652.34375	-4.48605	-2.17264	-1.42781	14.57554
1656.25000	-3.90248	-3.38132	-1.42784	12.52485
1660.15625	-3.43580	-1.36658	5.42201	4.51718
1664.06250	-2.76741	-0.56061	9.04835	16.81592
1667.96875	-4.94687	-1.76929	4.61610	10.45208
1671.87500	-1.03094	0.24553	4.61601	5.98823
1675.78125	-3.62284	0.24563	4.21300	10.31656
1679.68750	-0.52597	0.24576	0.58653	-3.94677
1683.59375	5.47569	1.85757	-0.21942	4.11644
1687.50000	2.74495	-0.55993	-0.21946	6.15526
1691.40625	4.45112	-2.17151	-0.62238	-4.99173
1695.31250	-3.36199	-3.38020	1.39225	-0.36089
1699.21875	0.74714	-4.18594	4.21273	6.89957
1703.12500	6.46805	-3.37995	4.21274	9.93861
1707.03125	0.38971	-3.78278	3.00393	5.10329
1710.93750	-4.15401	-3.78263	3.80974	7.02257
1714.84375	-4.72888	-3.78246	0.98922	7.89617
1718.75000	-10.89985	-5.39396	-3.84592	2.40533
1722.65625	-3.42047	-6.19962	-3.04010	4.86529
1726.56250	-3.55219	-4.18484	-0.21964	-1.16843
1730.46875	-8.71118	-1.36421	0.58619	-2.28960
1734.37500	-6.10871	-3.37873	1.79499	-0.76883
1738.28125	-4.03995	-4.18446	-2.23431	-0.90909
1742.18750	3.20431	-1.36384	-6.26363	1.38229
1746.09375	2.60150	-0.96075	4.61548	-2.59169
1750.00000	1.66075	-1.36356	6.22715	2.93294
1753.90625	-12.33276	-2.97512	1.79491	-0.56420
1757.81250	-23.39783	-6.19841	0.18317	-5.05567
1761.71875	-10.72980	-5.79539	-1.42864	1.09941
1765.62500	-3.31164	-3.78062	-1.42866	-4.00431
1769.53125	-0.03094	-4.18339	-1.42866	-1.48429
1773.43750	-3.24968	-4.18325	-2.23451	4.88899
1777.34375	-15.38287	-4.58605	-2.63740	0.44510
1781.25000	-12.58880	-2.16831	-5.05505	-4.84985
1785.15625	-3.56523	0.24945	-4.24925	-1.38117
1789.06250	-1.29384	-2.97387	-0.21996	-4.25935
1792.96875	1.40076	-5.79427	-1.83171	-4.55173
1796.87500	5.90309	-6.19697	-4.24933	0.68751
1800.78125	-0.76466	-4.58512	-3.44347	-5.58861
1804.68750	-9.84794	-4.58497	-3.44347	-12.85854
1808.59375	-6.15650	-5.79364	-2.63756	-11.43725
1812.50000	-1.19847	-2.16709	-1.83172	-3.49794
1816.40625	-3.86095	-2.56991	-3.04053	-3.11591
1820.31250	-9.50956	-4.18148	-3.44346	-3.13312
1824.21875	-9.26935	-3.37549	-5.86101	0.64313
1828.12500	-6.55935	-3.37537	-6.66690	0.35019
1832.03125	-12.65484	-4.18111	-5.45811	2.81530
1835.93750	-14.45345	-3.77809	-4.65224	6.36413
1839.84375	-9.41244	-0.95742	-1.83177	-1.11087
1843.75000	-11.50421	0.65443	-1.02594	-7.21806
1847.65625	-6.93512	-1.36005	-4.65234	-10.40160
1851.56250	-7.17719	-5.38919	-5.86117	-4.14432
1855.46875	-5.32201	-4.18023	-7.87579	2.13511
1859.37500	-2.08654	-1.35957	-9.89050	-11.20726
1863.28125	1.97913	-2.16528	-2.23486	-12.27043
1867.18750	0.77452	-2.97101	1.79442	-8.23707
1871.09375	1.53857	-2.97085	-0.62313	-8.25658
1875.00000	3.79260	-4.98532	0.98854	-0.88924
1878.90625	1.99002	-4.98517	0.58556	3.64882
1882.81250	4.98583	-5.38799	-4.24957	-0.41479
1886.71875	4.07771	-4.58200	-4.65244	-3.23226
1890.62500	0.19879	-5.79065	-2.63776	-1.46087
1894.53125	-3.62674	-3.77585	-3.44367	1.72751
1898.43750	8.45689	0.65656	-2.23490	14.85005
1902.34375	11.61390	1.86553	-1.02611	13.03356
1906.25000	-1.86312	3.88033	-5.05542	7.83218
1910.15625	6.53496	5.08927	-4.24965	16.24347
1914.06250	9.09032	1.06009	0.98841	21.67428
1917.96875	2.40561	-0.55152	-0.62329	17.15973
1921.87500	1.31050	-0.14843	-1.02623	10.34217
1925.78125	-6.57342	-0.55122	-1.42919	5.20861
1929.68750	-11.28156	-2.56569	-1.83209	-2.28565
1933.59375	-4.38910	-4.58014	-3.44386	-9.54230
1937.50000	-3.26979	-2.96822	-4.65266	-6.74543
1941.40625	-2.15514	-1.75930	-2.63801	-3.65651
1945.31250	6.46409	-1.75915	0.18244	-7.88387
1949.21875	7.99628	-0.55021	-0.62344	-2.65307
1953.12500	2.67851	1.86754	-1.02640	7.20222
1957.03125	1.50442	3.07649	-3.04109	3.57663
1960.93750	9.67487	-2.96734	-2.63814	-2.37128
1964.84375	13.47361	-2.56430	0.18235	0.38215
1968.75000	7.15404	-1.75832	-3.04110	2.24745
1972.65625	0.88376	-5.38456	3.00286	5.83213
1976.56250	4.64198	-2.96685	7.43508	9.04584
1980.46875	4.96592	1.06254	3.80867	19.03189
1984.37500	1.55759	1.86847	2.19696	20.33211
1988.28125	-6.55505	-1.35491	2.59994	8.38483
1992.18750	-1.71119	2.27159	0.18234	7.30266
1996.09375	-2.71988	3.48046	-1.42941	-0.00501
2000.00000	-22.32850	-2.56336	1.39115	-12.78192
2003.90625	-20.82565	-4.17494	2.59995	-17.74584
2007.81250	-23.45994	-5.78656	-1.83234	-19.29790
2011.71875	-22.83100	-2.56302	-1.02648	-13.76758
2015.62500	-12.92288	2.27228	1.79400	-15.91600
2019.53125	-8.14467	3.07824	-2.63824	-10.77984
2023.43750	3.13292	2.67538	-7.47349	-12.31736
2027.34375	-0.85079	3.07846	-8.68232	-22.78128
2031.25000	-8.07673	2.67561	-8.68235	-19.09755
2035.15625	-11.45876	3.07872	-7.87644	-11.68651
2039.06250	-12.11795	1.87008	-8.68242	-12.43407
2042.96875	-8.76816	-0.14444	-7.07072	-5.69427
2046.87500	-5.61459	-0.54724	-2.63848	1.15500
2050.78125	10.72385	-3.36760	0.58490	0.17908
2054.68750	8.12243	-3.36745	0.18196	7.04661
2058.59375	-2.01563	-2.96436	-3.04152	5.62599
2062.50000	2.69706	-0.94954	-9.48846	5.34304
2066.40625	-1.48980	1.46814	-10.29437	6.97641
2070.31250	0.93573	-0.14341	-8.68274	-1.87017
2074.21875	2.30777	-1.35208	-7.87682	-3.22816
2078.12500	3.62751	2.67735	-8.68274	-2.53159
2082.03125	4.08232	4.69216	-9.08558	-0.56374
2085.93750	0.64317	1.06595	-5.05624	-0.88834
2089.84375	4.06400	-0.94856	-3.04162	-1.87423
2093.75000	6.15618	-0.94841	-3.44458	1.41295
2097.65625	10.04930	-0.54536	-2.23579	0.56778
2101.56250	12.30653	2.27533	-5.86218	-4.88304
2105.46875	11.25780	0.26085	-2.63875	0.92603
2109.37500	8.42582	-2.15661	1.39052	4.19584
2113.28125	3.95764	-1.35062	-1.43009	-4.81346
2117.18750	1.53634	-2.15632	0.18159	-3.60805
2121.09375	-4.46530	-0.94738	-1.02723	-5.60235
2125.00000	-11.15095	-0.54431	-5.05652	-8.13377
2128.90625	-4.51258	-2.96172	-3.04188	-2.19487
2132.81250	-7.10490	-4.17036	-1.83306	-1.75685
2136.71875	-11.03149	-3.36433	-0.22137	-4.98249
2140.62500	0.10056	-0.94657	3.00207	-0.30619
2144.53125	-8.16143	-2.96105	3.80787	2.95299
2148.43750	-18.63290	-4.16966	3.00196	-4.93068
2152.34375	-12.52214	-3.76660	4.61365	-3.11356
2156.25000	-7.10332	-3.76645	4.61359	6.92372
2160.15625	-0.99552	-2.96042	5.41942	11.00391
2164.06250	9.34331	-4.16909	6.62818	5.17069
2167.96875	4.34344	-3.36312	4.21050	1.22439
2171.87500	-9.87255	-2.55716	5.01628	1.99859
2175.78125	-9.64387	-2.55705	1.79276	0.28298
2179.68750	-10.17340	-3.76572	-0.62485	-6.72760
2183.59375	-9.00689	-4.57142	2.19564	-3.90257
2187.50000	-10.52878	-6.18301	3.00146	2.56864
2191.40625	-7.61367	-3.76536	0.98675	-0.11679
2195.31250	-3.33872	-1.75055	1.38968	-0.32098
2199.21875	-5.27348	-3.36209	-1.43089	-0.31308
2203.12500	-4.38762	-4.16781	-5.05726	3.93489
2207.03125	0.01045	-4.57061	-2.23679	10.38177
2210.93750	2.31668	-4.57048	-3.84845	4.64546
2214.84375	5.77114	-5.37623	-4.65434	7.53382
2218.75000	0.40614	-3.76440	0.58368	5.66932
2222.65625	-18.70772	-1.34666	1.38952	0.07080
2226.56250	-18.43620	-2.55535	-2.23697	3.70763
2230.46875	-10.29832	-2.55523	0.98640	9.83949
2234.37500	-7.29252	-1.74928	0.98632	12.56929
2238.28125	3.23810	-1.74920	-2.23719	6.38533
2242.18750	5.24456	-4.56958	0.98619	9.07989
2246.09375	0.20965	-4.16652	-0.22265	8.73264
2250.00000	12.96881	-1.34594	0.98614	13.85461
2253.90625	17.51025	-3.36051	5.41833	20.83389
2257.81250	3.22181	-4.16630	3.00070	22.38657
2261.71875	-2.24191	-2.95744	3.40365	20.48322
2265.62500	5.98220	-6.18082	9.85051	11.75325
2269.53125	2.81600	-6.18075	7.83577	7.42360
2273.43750	-6.44670	-3.36017	4.20940	7.75295
2277.34375	-13.34184	-4.56891	0.18006	4.11501
2281.25000	-7.72726	-3.36005	-1.02877	3.25252
2285.15625	2.10222	1.87812	1.38881	10.34774
2289.06250	7.99999	1.47524	-0.62588	9.48429
2292.96875	4.65071	-2.15100	-0.22300	3.95391
2296.87500	-5.75507	-1.34507	0.17992	4.35817
2300.78125	-3.96122	-1.74792	0.17989	8.55827
2304.68750	-3.77705	-3.76251	3.80620	6.52653
2308.59375	-2.10019	-3.76244	4.20909	2.70979
2312.50000	-4.79779	-4.16523	3.00022	5.00815
2316.40625	-6.25142	-2.95632	7.43237	7.80775
2320.31250	-0.21494	-2.55332	9.04397	14.23741
2324.21875	4.86042	-3.76202	7.83510	12.77546
2328.12500	2.73537	-2.95605	6.22335	7.24448
2332.03125	-0.13649	-0.53840	3.80571	6.48622
2335.93750	-2.74086	-1.34417	0.58220	-0.44118
2339.84375	6.32955	0.26768	1.38802	5.38056
2343.75000	9.07292	2.28240	3.80546	17.00241
2347.65625	-1.66942	-2.14975	3.40245	12.20734
2351.56250	-1.10552	-4.97015	4.61116	3.55637
2355.46875	-5.69726	-4.16420	4.61105	4.19503
2359.37500	-6.08822	-3.35823	3.40219	6.16411
2363.28125	0.79795	-2.14935	1.79039	4.29515
2367.18750	1.20507	0.26834	2.19322	1.47879
2371.09375	7.61002	3.49181	5.01361	5.48860
2375.00000	5.83471	0.67142	1.38717	8.02078
2378.90625	10.47898	-1.74607	-3.04515	4.90321
2382.81250	9.04256	-0.13423	-1.43350	7.68947
2386.71875	1.28466	1.07466	0.58110	6.88667
2390.62500	8.28502	-0.53698	1.78984	-0.20644
2394.53125	4.45966	-3.76034	1.38688	-0.64438
2398.43750	-1.58850	-5.77487	0.98385	2.40487
2402.34375	-0.44614	-3.76014	5.41602	6.22947
2406.25000	4.61162	0.67222	5.01296	3.04273
2410.15625	12.20385	0.67234	0.98362	-4.26021
2414.06250	9.52121	-0.93927	1.78947	-0.03809
2417.96875	-0.78987	-2.14800	-1.83692	-4.95556
2421.87500	0.53264	-0.53624	-1.03109	1.52364
2425.78125	-2.51614	1.07556	3.40114	6.86629
2429.68750	-6.01556	1.07560	3.80401	-0.22491
2433.59375	-5.56998	1.88155	4.20693	-0.63165
2437.50000	-12.10639	1.07579	3.80393	-13.14602
2441.40625	-7.36537	-0.53589	2.99802	-8.84817
2445.31250	-0.35790	2.68764	2.99792	0.22131
2449.21875	-1.24325	2.28484	1.78906	0.61713
2453.12500	1.49777	0.67319	0.58026	5.23447
2457.03125	1.12946	-1.34139	0.58025	1.60904
2460.93750	-1.57928	-2.95302	-0.22566	-4.74173
2464.84375	0.20476	-1.74420	-0.62862	-6.82342
2468.75000	-5.30890	-0.93823	-2.64331	-11.80799
2472.65625	3.73216	-0.53526	-4.25515	-3.79107
2476.56250	7.49050	2.28538	-1.83762	2.24320
2480.46875	7.81461	2.68839	0.57988	0.94731
2484.37500	6.42101	1.07678	-0.62891	1.03876
2488.28125	3.94944	4.70324	-1.43483	0.77653
2492.18750	2.74926	4.70333	0.57980	0.90314
2496.09375	-1.88577	5.50925	2.19151	1.25115
2500.00000	-3.36248	5.91228	0.17686	-2.25823
2503.90625	7.00486	4.30063	-2.24074	0.03072
2507.81250	13.63796	4.30066	-7.07592	6.94025
2511.71875	12.25226	2.28606	-3.04665	4.41211
2515.62500	9.26662	0.67439	5.01193	-3.37726
2519.53125	-5.29586	0.27160	2.99727	-4.28484
2523.43750	-2.07689	0.67459	0.17674	3.84801
2527.34375	-0.82250	1.48054	-1.03209	6.68089
2531.25000	1.21897	-1.74275	-1.83797	-3.73784
2535.15625	7.50716	-3.75729	-4.65850	-3.57940
2539.06250	5.23622	-0.93661	-2.64387	5.74641
2542.96875	4.15379	-0.93648	1.78828	10.06883
2546.87500	6.09859	-0.93634	-3.85274	2.41284
2550.78125	-6.17103	-0.53330	-0.62933	0.22833
2554.68750	-2.32548	1.07858	7.02629	0.64921
2558.59375	1.63910	1.88456	3.39990	-9.63567
2562.50000	-2.10977	-3.75635	-1.43531	-8.30683
2566.40625	0.95615	-3.35325	-3.85284	-1.03225
2570.31250	9.42568	-1.33849	-1.43531	1.00040
2574.21875	3.54495	-4.15884	-0.62943	-3.17794
2578.12500	0.02952	-1.74115	0.17641	-1.67539
2582.03125	3.30488	1.07951	-0.22654	2.30714
2585.93750	-6.98395	1.07964	-3.04703	1.57958
2589.84375	-5.98055	0.67686	-1.03237	0.19090
2593.75000	-0.66479	-1.33767	-0.62943	-1.75988
2597.65625	-7.65077	-0.53170	0.57933	1.02132
2601.56250	-9.82582	0.67723	1.38522	3.22626
2605.46875	-6.03940	-0.93434	-0.22655	4.20030
2609.37500	3.21648	1.08043	-0.22659	-0.18550
2613.28125	3.98637	-1.73998	1.78807	5.71363
2617.18750	8.01198	-6.17206	4.20573	12.56005
2621.09375	14.09822	-4.15732	0.57933	9.35682
2625.00000	-3.06380	-0.53087	-1.83823	7.22834
2628.90625	-5.69298	-1.33664	-0.22653	2.69108
2632.81250	0.57904	-0.93358	-3.85285	-3.72072
2636.71875	2.29346	0.67823	-5.06163	3.12686
2640.62500	3.35221	1.48417	-0.22652	3.77387
2644.53125	-3.29825	2.29016	-0.22652	-6.66648
2648.43750	2.75020	5.51364	-2.24112	-6.49153
2652.34375	0.80235	2.29030	-1.43525	-0.64502
2656.25000	1.78889	-2.54485	1.78819	8.18348
2660.15625	7.89665	0.27577	0.57939	-0.22712
2664.06250	-0.70234	1.48454	-0.62938	-4.44849
2667.96875	-6.91104	-1.33591	2.59406	-2.75365
2671.87500	-7.83023	-3.35049	2.59402	-2.38225
2675.78125	-6.39269	-1.33578	2.19100	3.55799
2679.68750	0.33051	2.69360	2.99676	5.00912
2683.59375	2.30293	0.67904	4.20549	5.01380
2687.50000	7.22796	-3.75313	-0.62969	4.63527
2691.40625	6.11377	-2.54424	-3.45028	5.17336
2695.31250	-0.08750	-0.93240	2.59366	7.38672
2699.21875	-0.41056	0.27648	3.39945	9.81220
2703.12500	-3.95699	0.27659	3.39943	15.26900
2707.03125	-3.99119	-2.94668	3.80235	7.21044
2710.93750	-1.28189	-1.73769	3.80239	-6.98725
2714.84375	-3.87129	0.27727	4.20542	-2.48713
2718.75000	6.07515	-0.93128	2.59383	0.08072
2722.65625	8.71964	1.48653	-1.03248	-3.10014
2726.56250	6.97657	2.69560	0.17644	6.98370
2730.46875	18.33807	0.27835	2.59414	5.46006
2734.37500	16.50879	-1.33315	3.40004	3.35482
2738.28125	7.29583	-2.54172	2.99714	4.42377
2742.18750	-2.78557	-2.94441	2.19132	2.68627
2746.09375	-4.19396	-3.34717	-5.06136	6.36841
2750.00000	0.10368	-3.74996	-5.86721	5.84937
2753.90625	0.21294	-3.74983	4.60900	4.77011
2757.81250	-3.19630	-3.34671	6.22068	5.11411
2761.71875	-5.83944	-2.94361	5.01186	4.01671
2765.62500	3.99642	-3.34639	3.80306	6.56886
2769.53125	2.44209	-4.55505	1.78844	8.68615
2773.43750	-2.38824	-6.16663	1.38554	1.36004
2777.34375	1.59595	-6.16655	1.38553	-3.48660
2781.25000	6.40475	-4.95768	1.78842	0.48616
2785.15625	2.13168	-4.95759	-0.62915	-2.49187
2789.06250	1.17969	-2.94287	-0.22621	-2.14650
2792.96875	3.47135	-0.52524	1.78850	5.61989
2796.87500	-0.48775	1.08658	0.17681	-0.42283
2800.78125	-2.32035	2.69837	-1.83786	-9.51936
2804.68750	-10.59766	0.68384	-1.03201	-1.47783
2808.59375	-8.11490	-2.13655	0.57966	-0.05648
2812.50000	-7.18618	-0.92767	-1.83794	-9.44317
2816.40625	-11.05749	-0.12174	-1.43509	-11.47875
2820.31250	-4.21522	-2.13627	0.57952	-3.84035
2824.21875	-6.39253	-2.94201	1.38536	-6.91387
2828.12500	-4.89110	-1.33018	1.78819	-14.86240
2832.03125	-3.33074	-2.13588	0.57932	-8.36794
2835.93750	-5.53218	-2.94164	1.38517	-9.25131
2839.84375	1.12067	-1.73280	3.39977	-11.89095
2843.75000	3.86409	-0.92678	0.98211	-6.71587
2847.65625	7.22433	0.68503	-0.22676	-1.03458
2851.56250	3.75901	1.49099	4.60840	4.82005
2855.46875	4.00250	1.08819	3.80247	8.68224
2859.37500	7.64083	1.49117	1.78783	-0.63060
2863.28125	12.10940	0.28252	2.19076	-6.93173
2867.18750	12.11364	1.89429	0.57897	0.32524
2871.09375	1.19269	2.70021	0.17602	-4.52936
2875.00000	3.44670	2.29739	-0.22698	1.62930
2878.90625	8.49393	3.50622	-3.85333	10.59963
2882.81250	4.63997	2.29758	-4.25630	-3.53713
2886.71875	-5.53553	1.89475	-3.85335	-5.95163
2890.62500	-2.96742	3.10363	-4.25634	-0.55384
2894.53125	8.51861	-0.92559	-2.64459	2.63471
2898.43750	10.93207	-2.94016	-0.22706	-0.76274
2902.34375	5.22477	-1.32837	-1.03289	-11.84634
2906.25000	-4.22272	-1.32828	-5.86808	-11.40649
2910.15625	-1.86842	-3.74580	-4.25648	-7.42738
2914.06250	-3.34226	-0.52226	-0.63017	-4.41404
2917.96875	-5.59461	0.28372	-0.22731	-2.88462
2921.87500	-8.30122	-0.11916	-2.64491	-4.46396
2925.78125	-6.51476	-0.11906	-4.25673	-4.76230
2929.68750	-1.55249	-2.13362	-1.43622	-2.58609
2933.59375	0.10193	-0.92470	-1.83912	-0.17225
2937.50000	-5.22557	-2.53633	-3.04793	1.41603
2941.40625	-5.31962	-1.73035	-1.43624	1.28172
2945.31250	-5.96771	-0.11850	-2.24210	-6.97473
2949.21875	-6.04712	1.49330	-1.83918	-6.98179
2953.12500	-2.90322	7.94030	-8.68902	-5.18504
2957.03125	-6.09196	7.13454	-10.70371	-13.64565
2960.93750	-12.82988	1.09066	-3.45096	-22.41387
2964.84375	-11.04573	0.68781	-2.64506	-17.24266
2968.75000	-2.45677	1.89671	-2.24219	-13.36266
2972.65625	-3.89180	-1.32668	0.17538	-12.59845
2976.56250	-4.96862	-1.32665	0.57830	-11.80220
2980.46875	9.45801	0.28518	-1.43633	-6.65125
2984.37500	12.49665	-0.11775	2.99595	-5.35091
2988.28125	-2.46572	-2.13233	5.81647	-7.22482
2992.18750	-14.14202	-4.95274	4.20480	-1.45706
2996.09375	-13.13608	-4.95271	0.98135	-3.52659
