 	TP9	AF7	AF8	TP10	
-1000.00000	-73.63019	62.83807	40.60662	-63.41550
-996.09375	-51.06525	66.46468	40.19978	-58.70510
-992.18750	-26.88854	66.46487	43.01640	-34.31211
-988.28125	-12.38213	69.28560	45.02720	-9.87254
-984.37500	1.31833	71.30041	43.00857	1.23142
-980.46875	14.61595	69.68893	42.60173	10.65935
-976.56250	21.06366	67.67451	41.79199	15.11629
-972.65625	27.51144	67.67473	39.37045	25.85286
-968.75000	40.40605	68.48075	38.56067	42.91936
-964.84375	46.85373	69.28682	37.75090	51.88438
-960.93750	52.49551	65.66062	34.92642	53.69319
-957.03125	56.12270	65.25785	30.49030	53.46397
-953.12500	52.09421	64.25341	27.26293	54.46062
-949.21875	52.49795	61.41280	23.63259	51.75516
-945.31250	54.11050	59.66608	21.21107	49.85720
-941.40625	58.94646	57.85537	22.01305	52.64270
-937.50000	65.39420	60.14508	22.41200	57.75026
-933.59375	63.78328	59.45085	22.00517	61.46498
-929.68750	58.94892	59.37931	21.59829	61.11348
-925.78125	60.96436	57.60719	20.38555	62.26107
-921.87500	60.96515	55.02473	19.17283	64.58732
-917.96875	56.13080	55.34855	15.94548	60.16456
-914.06250	58.95208	56.66822	13.52400	56.77724
-910.15625	60.96749	54.53280	14.72884	54.77528
-906.25000	54.52127	50.31005	13.91894	54.53741
-902.34375	54.52193	49.76882	15.12378	56.78316
-898.43750	57.74603	51.75550	18.34330	52.07969
-894.53125	54.92610	49.05441	17.13056	47.24309
-890.62500	53.31473	43.24721	18.73835	46.83978
-886.71875	52.50911	45.43178	20.74906	53.68284
-882.81250	50.89754	49.74383	19.93929	52.19894
-878.90625	49.68876	50.57371	22.75583	45.58236
-875.00000	46.46519	51.11352	24.76652	48.97545
-871.09375	48.07676	50.10136	23.95672	48.98809
-867.18750	47.27092	46.59999	23.54980	41.96859
-863.28125	37.60059	44.87737	25.15757	38.74967
-859.37500	33.97413	46.56446	22.73598	38.65955
-855.46875	34.37713	43.90672	22.32903	33.76789
-851.56250	33.57132	43.66692	26.35434	35.43178
-847.65625	36.79483	44.14592	28.36498	37.12673
-843.75000	35.58610	41.21466	29.16685	34.57323
-839.84375	29.13932	42.54785	30.37164	36.55341
-835.93750	28.33349	42.34120	28.75585	37.48078
-832.03125	31.55712	41.67257	26.73716	33.56813
-828.12500	28.73689	44.92083	26.73313	28.68184
-824.21875	20.67851	43.99506	27.93789	24.76470
-820.31250	24.30515	45.37332	29.54555	28.38681
-816.40625	20.27628	44.80372	29.94445	22.63987
-812.50000	13.42695	42.90861	28.73158	16.39799
-808.59375	16.24803	43.68721	25.90700	19.05172
-804.68750	13.83109	40.72868	25.90288	19.40089
-800.78125	18.26395	41.74366	27.91340	14.96858
-796.87500	16.24995	43.23401	28.31216	11.40547
-792.96875	10.20674	44.95671	28.71096	14.13823
-789.06250	11.01339	45.68405	27.09508	17.10025
-785.15625	8.99955	43.10200	23.86741	15.66418
-781.25000	13.43259	48.17944	23.46025	17.65698
-777.34375	16.65693	50.12188	23.85898	19.49105
-773.43750	13.83730	46.20409	25.46643	13.08571
-769.53125	11.82363	44.86811	25.05928	7.11171
-765.62500	9.00412	47.49016	24.65209	5.90123
-761.71875	0.94653	47.75787	25.05079	5.02570
-757.81250	1.75340	48.14011	25.85238	10.22858
-753.90625	3.76910	51.08195	24.63931	4.77505
-750.00000	3.77020	48.89542	24.63502	-1.64886
-746.09375	0.95082	47.85070	26.24240	3.41025
-742.18750	-6.70375	48.13537	26.64105	-3.98453
-738.28125	-7.91141	47.36081	26.63675	-9.53201
-734.37500	-12.34246	44.68023	27.03539	-5.96171
-730.46875	-15.16196	44.06607	27.43400	-3.94543
-726.56250	-13.14613	44.58747	26.62384	-4.29795
-722.65625	-12.33911	44.07431	24.60489	-7.75899
-718.75000	-8.71185	45.36549	24.19764	-7.55636
-714.84375	-10.32246	43.51773	24.99919	-9.86112
-710.93750	-14.35064	42.87096	24.59189	-9.04880
-707.03125	-13.14079	41.73134	24.18461	-9.16436
-703.12500	-6.28987	42.02279	23.77737	-13.14480
-699.21875	-4.67719	44.57121	25.38470	-12.04895
-695.31250	-6.28792	43.16088	26.58911	-7.73144
-691.40625	-1.85469	41.68338	22.95833	-5.27673
-687.50000	-0.64502	42.50679	24.96865	-9.97927
-683.59375	-3.86749	40.77312	27.78477	-10.06559
-679.68750	-7.89591	38.93367	25.76573	-2.45919
-675.78125	-9.50673	39.57877	21.32909	0.02149
-671.87500	-9.90877	38.89066	16.08658	-1.89988
-667.96875	-9.10194	38.45322	15.67922	-3.51909
-664.06250	-13.13040	42.34120	16.07775	-8.99426
-660.15625	-13.93536	41.74934	15.26750	-11.82562
-656.25000	-10.30810	39.61981	17.68069	-10.37712
-652.34375	-14.73949	38.11841	16.46746	-12.62104
-648.43750	-14.73862	34.80940	17.26890	-11.54217
-644.53125	-18.76702	36.25228	16.05571	-15.56838
-640.62500	-18.76620	36.09536	16.45426	-23.22215
-636.71875	-9.90095	33.61242	22.09082	-21.60218
-632.81250	-18.76448	34.53043	21.28053	-20.92273
-628.90625	-28.03104	34.79947	18.45560	-23.97543
-625.00000	-21.58328	33.38687	20.46582	-23.33823
-621.09375	-21.98538	32.04546	19.25260	-22.54395
-617.18750	-23.99912	30.82296	15.62177	-26.40248
-613.28125	-14.32799	33.76662	14.40859	-21.16793
-609.37500	-13.11842	36.40928	15.61292	-16.24168
-605.46875	-11.90881	35.76128	18.42902	-10.14022
-601.56250	-11.50500	32.42109	19.63337	-10.99715
-597.65625	-16.74227	32.05639	18.82301	-15.51149
-593.75000	-17.14439	33.00533	17.60983	-16.58318
-589.84375	-22.78451	29.56558	15.18778	-21.38273
-585.93750	-21.97792	28.46844	14.37746	-27.54713
-582.03125	-16.33608	32.79067	16.38769	-21.61872
-578.12500	-25.19979	32.87976	16.78612	-21.96930
-574.21875	-23.99024	32.64793	12.75235	-23.28907
-570.31250	-20.36320	34.81755	15.56838	-25.29814
-566.40625	-23.98879	36.08827	22.01082	-28.41438
-562.50000	-24.39112	33.55815	21.20051	-21.36536
-558.59375	-22.77859	37.72454	24.41952	-19.98822
-554.68750	-15.92809	41.15448	24.01211	-23.55938
-550.78125	-31.64168	30.80956	17.56081	-39.27210
-546.87500	-43.72894	32.83443	22.39148	-45.78066
-542.96875	-48.16059	35.12777	24.40166	-48.51182
-539.06250	-76.36512	25.23530	17.95029	-77.25973
-535.15625	-93.28754	27.09515	21.97514	-101.60956
-531.25000	-96.10745	30.83761	31.64103	-98.36243
-527.34375	-120.68562	21.52844	28.41306	-117.52081
-523.43750	-159.36650	12.92223	23.57341	-159.46558
-519.53125	-166.21579	15.15561	23.16599	-170.81593
-515.62500	-172.66234	16.65899	21.54977	-182.09477
-511.71875	-184.75000	20.39530	22.35112	-188.47063
-507.81250	-186.36165	19.49695	23.55543	-192.46342
-503.90625	-187.16747	16.50304	25.56556	-198.69368
-500.00000	-182.33240	16.34985	25.15812	-187.03056
-496.09375	-173.06526	17.50018	25.15367	-176.77715
-492.18750	-164.60411	21.64247	22.32873	-175.02245
-488.28125	-162.58987	23.51679	23.53305	-171.89162
-484.37500	-147.27888	24.51630	25.54320	-160.55243
-480.46875	-129.14748	21.96876	23.12109	-149.67412
-476.56250	-128.74486	19.94742	24.72832	-136.82991
-472.65625	-121.08960	18.86396	27.94719	-122.08593
-468.75000	-103.36097	19.08323	27.94267	-105.76755
-464.84375	-91.27335	22.86132	26.72940	-93.79154
-460.93750	-83.61804	25.56647	27.12779	-80.90318
-457.03125	-66.29232	26.82055	25.51157	-64.26652
-453.12500	-49.36955	24.54936	21.07479	-53.03214
-449.21875	-42.11690	19.89600	19.45857	-44.45660
-445.31250	-25.59697	22.01557	17.84225	-31.04400
-441.40625	-11.89749	24.72613	13.40542	-19.39515
-437.50000	-2.22731	23.21029	11.38617	-6.22995
-433.59375	7.44304	23.78881	10.57571	11.98946
-429.68750	15.09874	26.35766	9.36227	18.88981
-425.78125	26.38091	28.83018	12.17817	22.85715
-421.87500	34.84270	28.71659	10.96472	30.82381
-417.96875	44.11037	26.84541	6.52779	38.08546
-414.06250	51.76640	26.65445	5.71727	46.38249
-410.15625	51.36386	24.36558	6.51845	55.25923
-406.25000	54.18489	23.96578	4.90207	62.67678
-402.34375	60.22937	27.86857	1.27092	58.07246
-398.43750	65.46809	24.83159	2.07202	57.39823
-394.53125	69.09507	21.05670	5.69364	67.87314
-390.62500	69.49873	23.58904	4.07712	67.87299
-386.71875	69.49946	19.91388	2.86361	67.06078
-382.81250	71.91776	17.75116	4.87347	72.42719
-378.90625	67.88921	19.18358	6.07744	70.24364
-375.00000	64.26368	16.66450	6.47560	69.20535
-371.09375	66.27917	15.16271	6.47079	73.24815
-367.18750	63.86238	13.85472	5.25717	71.06465
-363.28125	66.68376	12.46818	6.86409	69.45831
-359.37500	62.25237	13.52763	9.67974	71.38367
-355.46875	55.40332	11.86469	8.46608	66.49286
-351.56250	54.59835	9.15850	9.67003	60.09890
-347.65625	50.97287	9.41501	10.06812	57.76536
-343.75000	46.13856	7.58869	8.04855	56.01853
-339.84375	48.15411	8.67013	9.65546	49.94088
-335.93750	48.55798	8.67076	8.44181	45.22806
-332.03125	46.94721	7.58983	6.01933	42.92788
-328.12500	48.96275	8.20658	6.82035	41.66863
-324.21875	48.96363	7.94923	8.42719	38.55804
-320.31250	52.99385	12.26745	8.82524	40.16610
-316.40625	47.75669	11.11118	10.02915	46.91062
-312.50000	44.93710	6.82891	12.44180	44.29560
-308.59375	39.29694	5.79731	11.22810	42.92037
-304.68750	32.85098	4.68675	10.01445	46.49336
-300.78125	32.85189	7.39749	10.81542	48.50826
-296.87500	30.83816	8.30604	10.81055	44.54251
-292.96875	34.86835	8.08331	9.59687	39.21688
-289.06250	35.27215	11.05144	11.20367	38.14970
-285.15625	30.84076	11.09921	12.00469	35.50487
-281.25000	30.43865	10.98433	9.98515	32.66242
-277.34375	27.61884	11.53681	7.56265	30.06418
-273.43750	26.00788	7.72494	7.96065	31.31453
-269.53125	25.20278	7.04520	8.76166	29.36966
-265.62500	28.02403	7.04097	7.54796	27.35314
-261.71875	28.02468	6.91186	5.12546	27.28325
-257.81250	17.54912	5.08902	4.71765	26.84485
-253.90625	20.37032	4.94656	7.13026	30.65829
-250.00000	19.96808	5.06000	9.94586	28.66622
-246.09375	9.89541	5.00397	9.13503	26.47213
-242.18750	11.50779	4.44913	7.11546	23.91204
-238.28125	10.70253	3.06536	9.12517	19.97583
-234.37500	5.06208	2.97045	8.31438	11.05463
-230.46875	5.86856	3.48327	6.69773	8.63819
-226.56250	8.28678	4.18302	8.30450	16.34383
-222.65625	7.07852	4.80620	9.91131	16.10577
-218.75000	3.04977	1.03385	9.90635	11.47280
-214.84375	12.31778	0.98953	11.91606	14.00281
-210.93750	18.36232	4.73139	10.29936	11.99399
-207.03125	11.11014	5.78738	7.07096	9.46032
-203.12500	11.91657	3.95533	7.46894	14.74663
-199.21875	16.75244	2.62142	8.26985	18.25959
-195.31250	11.11206	6.25540	7.05610	16.12978
-191.40625	5.87458	8.40028	8.66289	11.33132
-187.50000	3.05467	2.96750	7.44911	6.22541
-183.59375	4.66693	3.10665	5.83240	6.13865
-179.68750	9.09968	4.60534	5.42455	4.07427
-175.78125	7.48853	2.24709	6.22541	4.94296
-171.87500	2.25098	1.99772	6.22043	5.84173
-167.96875	1.04271	3.78194	5.40960	5.02796
-164.06250	-1.77730	5.48494	6.21046	1.56709
-160.15625	1.44657	6.58359	5.80253	-2.07040
-156.25000	2.65592	5.48400	5.39463	-2.63685
-152.34375	1.85063	4.46002	4.58377	-4.47822
-148.43750	-0.16343	4.60405	2.56414	-4.60852
-144.53125	-4.19216	1.01825	0.54441	-4.60588
-140.62500	-4.59459	1.70765	0.53939	-9.03659
-136.71875	-4.59407	4.28088	4.16077	-9.02886
-132.81250	-2.17596	2.48914	3.75277	-11.17045
-128.90625	-4.19005	-1.41645	2.53901	-15.43226
-125.00000	-12.24809	-2.63673	4.54863	-15.19836
-121.09375	-5.80072	-2.76849	4.14067	-7.55466
-117.18750	3.87017	-4.58605	2.92685	0.27138
-113.28125	-3.38209	-1.49881	4.13062	-9.80572
-109.37500	-9.82846	-0.17780	0.09630	-21.39996
-105.46875	-8.21620	-1.04684	0.89712	-17.31347
-101.56250	-7.00690	-1.60553	4.11558	-19.37952
-97.65625	-13.45332	-0.56734	2.09592	-21.47660
-93.75000	-14.66172	-0.65549	2.49386	-17.31065
-89.84375	-9.42319	-0.54557	2.89173	-15.26075
-85.93750	-8.21396	-0.25545	3.69253	-11.75506
-82.03125	-7.40778	-0.04003	6.50803	-8.24457
-78.12500	-7.00440	-1.39148	6.50298	-4.16330
-74.21875	-4.18345	-1.42878	8.91547	-5.88617
-70.31250	-2.57130	2.31449	9.31339	-9.10442
-66.40625	-7.00305	2.96138	7.69658	-11.01219
-62.50000	-5.79384	5.15291	11.31793	-8.39560
-58.59375	3.47416	5.02990	12.92457	-5.81001
-54.68750	-0.95765	3.43295	10.90487	-9.78438
-50.78125	-12.64218	2.35705	13.31742	-12.20060
-46.87500	-15.86516	0.94821	12.90940	-9.84506
-42.96875	-14.25297	-0.12789	11.69558	-12.97935
-39.06250	-12.64080	-1.85179	10.07874	-16.74589
-35.15625	-12.64036	-1.78545	9.67074	-10.47323
-31.25000	-8.61059	-2.83682	12.48613	-6.82334
-27.34375	-5.38665	-3.07168	13.28690	-1.00030
-23.43750	-10.62428	-2.58442	11.67009	-0.63744
-19.53125	-10.22091	-0.68023	11.26201	-5.94397
-15.62500	-8.20577	1.04727	11.65984	-8.76125
-11.71875	-7.80239	0.02813	12.46058	-9.89879
-7.81250	-4.17553	-1.84578	14.87304	-7.04146
-3.90625	-3.77217	-2.21539	13.65916	-5.61562
0.00000	-4.98049	-1.93053	12.44524	-7.24870
3.90625	-6.18884	-3.78353	12.84302	-7.87388
7.81250	-5.78555	-6.37550	12.43499	-10.55075
11.71875	-4.57638	-6.25394	12.83275	-7.82206
15.62500	-5.78482	-7.07848	12.82761	-11.39055
19.53125	-8.20201	-9.63085	11.61371	-12.19634
23.43750	-9.00747	-11.44321	11.60854	-1.76890
27.34375	-10.21584	-11.57310	12.40920	-2.33547
31.25000	-11.82720	-10.25298	10.38938	-9.38633
35.15625	-16.66202	-10.32321	9.17540	-8.69173
39.06250	-14.64702	-10.88594	10.78190	-9.50234
42.96875	-14.64666	-8.23176	9.97085	-12.60864
46.87500	-11.42284	-5.08961	9.15983	-7.41768
50.78125	-6.99017	-4.97927	8.34878	-8.51189
54.68750	-13.03384	-5.50174	8.74646	-9.20148
58.59375	-13.03343	-6.09722	8.74123	-5.20776
62.50000	-4.97442	-4.62503	7.12431	-7.75639
66.40625	-4.16821	-3.84937	9.53668	-10.48899
70.31250	-5.77956	-4.13379	11.94901	-6.40881
74.21875	-4.97326	-2.28422	12.34673	-7.27627
78.12500	-7.79346	-4.53088	10.72974	-8.17399
82.03125	-6.58429	-4.65191	9.51575	-7.35917
85.93750	-1.74871	-2.61535	11.52515	-7.92659
89.84375	-2.55424	-4.09140	12.72863	-7.10843
93.75000	-6.18026	-6.31142	10.70876	-8.95846
97.65625	-6.58286	-5.78234	9.89767	-8.72767
101.56250	-4.56782	-4.68497	9.08658	-6.98452
105.46875	-6.58210	-3.80588	10.69302	-5.37431
109.37500	-5.77593	-5.65928	12.70242	-7.38938
113.28125	-4.96973	-5.09258	11.89130	-5.78440
117.18750	-5.77535	-4.20937	11.88603	-0.82125
121.09375	-1.74565	-7.14100	10.26908	-1.79643
125.00000	1.47812	-8.22753	6.63741	4.01471
128.90625	-4.96841	-7.22715	10.66144	0.80438
132.81250	-11.01207	-6.68680	13.87960	-5.00590
136.71875	-9.39992	-10.69003	12.66549	0.23711
140.62500	-6.17612	-10.40707	11.04849	3.37083
144.53125	-3.35526	-7.82202	7.41679	4.12056
148.43750	-0.53437	-10.00533	7.81443	0.54672
152.34375	1.07782	-11.90053	10.62961	3.04789
156.25000	7.92799	-13.53823	9.81848	3.71814
160.15625	3.49619	-13.67607	9.81320	0.05754
164.06250	-4.15914	-11.85696	11.01671	0.58229
167.96875	1.07932	-9.16003	11.81726	-0.50959
171.87500	-0.93498	-10.66128	12.21489	2.25987
175.78125	3.09464	-8.72401	12.20954	5.19257
179.68750	7.12426	-3.24700	13.41302	-1.66145
183.59375	7.52761	-5.02104	14.21354	-0.96156
187.50000	9.54265	-5.90143	11.38765	6.09316
191.40625	7.93123	-6.99943	10.57636	1.89689
195.31250	6.31980	-11.55800	11.77976	2.24586
199.21875	4.30547	-13.36739	10.56561	1.03679
203.12500	5.91765	-12.29522	10.56029	4.32336
207.03125	7.52997	-10.70673	12.97249	9.07067
210.93750	5.51597	-8.97476	13.77291	7.60038
214.84375	2.69625	-9.14577	11.34996	8.17906
218.75000	-1.73491	-10.99545	11.34453	9.36617
222.65625	0.28091	-11.51761	16.17426	7.97714
226.56250	5.11735	-11.08572	16.16883	1.57226
230.46875	2.29823	-12.55881	12.93994	4.06030
234.37500	-1.72961	-12.36634	14.14327	10.90896
238.28125	-3.74278	-13.85858	14.13777	3.58714
242.18750	-3.33832	-15.98408	13.32642	1.94081
246.09375	5.52779	-15.09819	12.11215	1.72590
250.00000	10.36454	-11.70945	13.31547	4.56998
253.90625	7.54558	-9.13235	12.90705	7.61493
257.81250	1.90603	-13.49430	12.49862	4.24994
261.71875	1.50451	-16.42678	12.09024	6.35840
265.62500	3.52058	-17.10395	10.87597	3.07901
269.53125	0.70135	-17.71041	12.07929	-3.36603
273.43750	-0.10322	-17.17318	11.67088	-6.13599
277.34375	4.73314	-16.34848	11.66540	-3.14996
281.25000	3.12261	-16.06754	14.88339	1.48502
285.15625	1.51193	-19.92375	12.46034	0.79198
289.06250	2.31882	-23.71288	11.24615	-0.41048
292.96875	1.91677	-23.19244	13.65825	4.71195
296.87500	-0.49997	-22.01700	11.63817	4.76051
300.78125	-0.90206	-20.54633	13.64741	-0.18784
304.68750	-1.70722	-20.73707	14.85080	-2.31757
308.59375	-4.93012	-23.67469	12.42781	-3.08671
312.50000	-2.51203	-24.37081	11.61656	0.26889
316.40625	1.11484	-25.66405	10.40235	-2.23556
320.31250	0.30935	-29.05579	11.20288	-1.88255
324.21875	-0.89917	-28.81132	11.19749	3.82098
328.12500	0.71274	-27.26735	7.56566	2.70475
332.03125	1.51876	-29.17067	8.76904	3.50233
335.93750	-3.71919	-27.28891	9.56947	2.05568
339.84375	-6.53967	-30.31247	5.93771	-2.79118
343.75000	-1.30155	-31.65514	4.72349	2.68565
347.65625	1.11607	-28.44792	6.73272	4.87304
351.56250	-1.70446	-27.92286	6.72731	1.51867
355.46875	-5.33101	-28.09991	7.52774	1.52064
359.37500	-1.30192	-27.53819	7.52231	0.71561
363.28125	2.32419	-24.83542	5.90516	-0.08315
367.18750	4.33852	-23.18784	5.49674	0.19205
371.09375	8.36751	-22.64322	6.70009	2.37632
375.00000	6.35264	-26.88817	4.27703	-4.24032
378.90625	7.96411	-27.17839	3.86866	-8.28237
382.81250	3.93454	-28.90074	5.87786	-2.87475
386.71875	-1.70666	-29.21694	5.87240	-0.46179
390.62500	0.71069	-27.03279	5.46398	2.04579
394.53125	3.12810	-28.89198	4.24971	-2.73298
398.43750	-2.11017	-25.60543	3.03544	-1.57639
402.34375	-7.34846	-24.91236	3.83586	5.59312
406.25000	-8.15450	-29.20972	4.63623	-1.12083
410.15625	-6.54296	-29.81091	5.03363	-3.10094
414.06250	-6.14016	-26.45606	4.62523	-1.20776
417.96875	-2.51400	-26.84751	3.81387	-4.95074
421.87500	-0.49954	-27.77764	3.00244	-4.89941
425.78125	0.30620	-25.58427	3.80279	-2.99668
429.68750	-1.30571	-24.93527	6.21482	1.44004
433.59375	-2.91755	-28.04281	5.80638	1.54625
437.50000	1.51450	-30.50100	5.80083	5.37089
441.40625	4.33493	-29.83962	5.39234	3.52357
445.31250	4.73771	-28.41388	5.38681	0.75733
449.21875	0.30534	-26.91278	6.18713	4.78719
453.12500	-1.70949	-30.02685	6.18157	2.70989
457.03125	-0.50095	-30.52116	5.77312	-0.02217
460.93750	-0.09819	-30.69397	2.94699	-0.16297
464.84375	4.33383	-32.86333	4.15022	6.91480
468.75000	1.11020	-31.71531	6.15931	7.74342
472.65625	-4.53106	-30.39434	4.54204	1.07502
476.56250	-0.09898	-30.53364	4.13350	-1.38321
480.46875	-4.53146	-30.33922	4.93375	-0.64642
484.37500	2.31820	-26.44113	4.52528	0.16208
488.28125	6.75023	-27.65902	3.71383	2.65037
492.18750	1.10903	-33.57894	1.69357	5.50706
496.09375	3.52644	-32.55302	0.47912	2.90299
500.00000	-0.90603	-31.19160	0.87638	-0.74530
503.90625	-1.71204	-33.32265	4.90004	1.85244
507.81250	2.72004	-30.86215	4.89442	1.59271
511.71875	1.51111	-28.70260	4.08293	-1.32018
515.62500	3.52562	-32.14664	5.28607	2.76648
519.53125	-1.71265	-37.68180	3.26581	1.96014
523.43750	-5.33920	-38.19527	3.66314	-3.32712
527.34375	-2.11591	-37.29597	4.06040	-3.89428
531.25000	-5.74239	-38.33095	4.05475	-7.31917
535.15625	-2.11605	-37.37360	5.66088	-7.02793
539.06250	1.91319	-34.90015	6.46109	0.62247
542.96875	-1.71320	-33.40244	9.27594	2.35099
546.87500	-0.10152	-31.64949	10.47910	0.28876
550.78125	1.10727	-31.43963	9.26469	-4.02932
554.68750	2.71892	-32.51986	7.64736	-8.74868
558.59375	8.35991	-31.70982	8.04461	-5.96413
562.50000	1.10716	-31.43355	8.84486	-5.28978
566.40625	-3.72802	-34.47276	5.61575	-7.21700
570.31250	-2.11631	-34.62362	7.22180	-4.34606
574.21875	1.10724	-32.49460	10.84257	1.63582
578.12500	0.70433	-33.34820	8.01638	-4.09738
582.03125	-2.92203	-33.09327	6.39904	-9.32694
585.93750	-0.50453	-33.67753	6.79629	-3.04485
589.84375	-4.53387	-32.16986	6.79064	-2.22716
593.75000	-4.93682	-30.44895	7.18793	-5.68920
597.65625	0.70418	-30.95015	8.79399	-2.63826
601.56250	2.71884	-29.51596	8.38536	-3.71594
605.46875	0.70414	-28.05527	6.76792	-10.56768
609.37500	1.10702	-27.70608	7.97102	-8.55384
613.28125	0.30105	-31.21930	5.54776	-5.33753
617.18750	-1.71363	-30.15622	8.36255	-6.01586
621.09375	-2.51950	-24.32635	9.16269	-7.39430
625.00000	-2.92230	-23.64916	5.53066	-3.19526
628.90625	4.33061	-24.85991	9.15130	-0.36191
632.81250	5.13672	-25.13640	10.35438	-3.75476
636.71875	1.91361	-23.71319	9.54279	1.08528
640.62500	1.91407	-22.76091	10.74586	3.41329
644.53125	6.74978	-21.66720	12.35184	4.96913
648.43750	8.76514	-20.81125	13.55488	9.45412
652.34375	7.96026	-17.03640	12.74323	7.52346
656.25000	9.57304	-17.66448	11.93155	4.97085
660.15625	9.17117	-20.38579	12.73167	6.54902
664.06250	5.54595	-20.09331	11.11415	0.22464
667.96875	7.15872	-21.20168	9.89956	1.55108
671.87500	5.14512	-19.00874	13.11719	7.94763
675.78125	-0.89777	-18.05502	13.11139	8.86636
679.68750	-0.89677	-17.60316	12.70271	6.44520
683.59375	4.34227	-14.49502	12.69689	7.54864
687.50000	2.73140	-14.75060	7.85586	3.72477
691.40625	-2.10293	-17.35567	5.83538	-1.67983
695.31250	-4.11678	-16.42370	6.63537	-0.92756
699.21875	-5.32490	-14.41215	5.82367	-1.73337
703.12500	-1.69783	-12.12364	6.62365	-2.07302
707.03125	-0.48849	-9.11336	6.61781	2.27124
710.93750	-2.50260	-10.86981	5.80611	2.81541
714.84375	-1.29335	-12.77140	7.00904	2.18483
718.75000	2.33337	-11.61750	6.60021	-0.25532
722.65625	2.33360	-10.56031	5.38563	-8.49526
726.56250	-3.30727	-9.52829	7.39447	-6.03683
730.46875	-8.94813	-11.64019	9.40335	2.49365
734.37500	-6.93337	-10.72523	11.81510	6.92315
738.28125	-3.70996	-10.42741	12.61523	6.04653
742.18750	-4.91882	-10.20661	10.59482	1.57793
746.09375	-2.09848	-8.33948	7.76851	0.95828
750.00000	2.33362	-9.19208	6.95692	4.60628
753.90625	1.12459	-9.07767	9.77168	2.81412
757.81250	-2.50217	-9.22965	11.78062	-2.97038
761.71875	-7.74065	-8.64344	12.58083	-11.33989
765.62500	-7.74106	-7.96397	12.57513	-8.57717
769.53125	-1.69752	-9.57063	10.95769	-0.11559
773.43750	4.34593	-9.44178	10.54912	-2.88740
777.34375	-0.08680	-10.84470	8.52878	-2.72369
781.25000	-6.13129	-10.30183	6.10551	3.92431
785.15625	-2.10252	-10.81888	6.50275	5.64724
789.06250	-0.49138	-10.76204	8.51177	4.84600
792.96875	0.31391	-8.59549	7.70020	5.13163
796.87500	5.14851	-7.61676	8.09748	4.37277
800.78125	4.74501	-3.89813	9.30058	6.27281
804.68750	-0.09074	-2.80015	7.68314	4.54476
808.59375	1.92333	-5.91684	6.46867	3.37151
812.50000	2.32571	-7.34571	6.46297	9.14353
816.40625	-0.49547	-7.60452	5.24852	9.86135
820.31250	0.30979	-3.93657	4.03400	7.39277
824.21875	2.32381	-2.84461	5.23711	6.24551
828.12500	4.74076	-2.69129	6.03725	1.09910
832.03125	3.93431	-3.67936	4.41981	-2.13337
835.93750	4.73959	-3.55586	4.01122	0.04569
839.84375	4.73906	-3.56635	6.02014	0.83923
843.75000	-2.11130	-8.13047	5.20854	-4.16072
847.65625	-0.90310	-9.14428	5.60567	-0.36226
851.56250	-1.30661	-10.89464	6.00284	-0.49380
855.46875	-3.72475	-12.79753	8.01172	-3.71577
859.37500	-3.72531	-12.45670	7.60299	-1.29781
863.28125	-8.15809	-14.22402	5.17968	-4.51451
867.18750	-5.33815	-17.21692	5.97975	-7.46292
871.09375	-1.30938	-16.09870	5.57102	-4.47304
875.00000	-4.13039	-16.39247	5.96818	1.80375
878.90625	-4.13093	-18.92202	6.76824	1.38781
882.81250	-6.14615	-19.51204	4.34482	-3.68101
886.71875	-4.13201	-16.83578	4.33901	-0.46249
890.62500	1.91143	-18.08438	2.72150	-3.99913
894.53125	-0.90953	-18.77440	1.50691	-6.76343
898.43750	-5.34221	-14.90329	4.32160	-4.39819
902.34375	-1.71626	-15.53159	3.91288	-5.69042
906.25000	-0.91091	-17.26751	5.11584	-0.31666
910.15625	-6.55237	-17.65826	6.31875	-1.49117
914.06250	-6.14988	-19.13851	5.10417	-0.80702
917.96875	-0.10634	-18.93499	4.69537	1.09086
921.87500	-2.12139	-19.20441	5.09251	-2.88738
925.78125	0.29580	-20.92920	4.28079	-3.80538
929.68750	-0.91337	-17.64196	4.67791	-0.17474
933.59375	-4.54016	-15.87457	6.28378	1.13999
937.50000	-1.31711	-18.52669	5.87506	-2.28826
941.40625	-1.31751	-17.63542	3.45165	-5.34459
945.31250	0.69673	-17.74662	4.65462	-0.45537
949.21875	6.74031	-18.84200	6.66343	5.18592
953.12500	-0.10982	-19.46017	5.85174	6.33177
957.03125	-4.54250	-17.70767	4.63712	2.39077
960.93750	-0.91655	-16.46452	4.63128	1.44396
964.84375	1.09773	-15.77718	7.04302	3.68647
968.75000	2.70905	-14.81202	7.03715	2.90314
972.65625	0.69400	-13.77976	7.03127	5.09911
976.56250	1.09658	-12.04671	6.21949	1.02885
980.46875	1.49917	-14.48201	4.60191	-2.26379
984.37500	0.29016	-14.21383	6.61071	4.18558
988.28125	0.28986	-13.20769	7.81362	5.46486
992.18750	-0.11339	-15.35464	6.59895	0.26280
996.09375	3.51272	-18.06441	6.59309	1.28502
1000.00000	2.30358	-15.31319	5.78135	4.48631
1003.90625	0.69154	-12.24922	6.58134	0.23404
1007.81250	-3.33807	-13.22324	7.78426	-1.63763
1011.71875	-6.15889	-14.91884	4.95789	1.49323
1015.62500	-7.36799	-17.62986	6.56372	-0.06126
1019.53125	-8.57712	-17.74853	8.57247	-6.50887
1023.43750	-0.92175	-17.53765	3.73143	0.29155
1027.34375	8.34531	-17.27580	5.33725	13.82677
1031.25000	-1.72829	-14.89105	11.37531	-0.47751
1035.15625	-17.84596	-13.56488	7.74308	-17.91548
1039.06250	-33.56060	-16.14684	5.31956	-33.23231
1042.96875	-44.84290	-15.57225	7.73127	-43.18912
1046.87500	-37.99345	-13.27695	6.91950	-41.62526
1050.78125	-38.79979	-13.66065	6.91356	-41.91445
1054.68750	-46.85872	-15.94406	5.69882	-39.38134
1058.59375	-42.02393	-14.13428	6.09577	-37.40306
1062.50000	-30.74222	-11.18677	6.89572	-32.29677
1066.40625	-26.71325	-11.29915	5.27805	-26.56859
1070.31250	-24.29607	-10.42254	3.25746	-22.48922
1074.21875	-21.07294	-11.06892	2.44568	-22.55161
1078.12500	-15.02937	-12.51653	3.24558	-25.06173
1082.03125	-7.77694	-12.03535	5.25429	-17.80074
1085.93750	-4.15089	-11.74415	4.44250	-15.54835
1089.84375	-5.36006	-11.22137	2.01896	-18.35738
1093.75000	-7.37514	-8.20836	4.83356	-10.13487
1097.65625	-4.15209	-8.87684	7.24515	-6.68136
1101.56250	-2.54081	-10.86442	7.64215	-4.53601
1105.46875	-8.98809	-9.77595	6.02443	-6.15008
1109.37500	-11.40611	-10.41659	6.01846	-4.53959
1113.28125	-6.16843	-8.97574	7.62426	3.10861
1117.18750	-4.55715	-6.03609	8.42414	0.81815
1121.09375	-3.75174	-6.46403	8.01528	-4.18717
1125.00000	-1.73756	-5.79601	5.99462	-4.42076
1128.90625	-4.55860	-4.38197	3.16816	-3.19962
1132.81250	-11.81183	-7.73137	5.17686	-7.80188
1136.71875	-11.81231	-7.62149	7.18554	-6.18596
1140.62500	-3.75412	-3.26562	7.58254	-1.44119
1144.53125	0.67767	-3.42939	6.77071	-4.31866
1148.43750	0.67724	-6.41400	5.95884	-3.46106
1152.34375	-4.96417	-5.68521	7.56461	-2.57255
1156.25000	-5.36749	-3.96365	6.34981	-4.72365
1160.15625	5.10831	-5.29779	4.73211	-1.53530
1164.06250	2.69022	-4.68918	5.93484	2.21190
1167.96875	-7.78642	-3.61852	6.33181	5.14848
1171.87500	-5.36919	-4.85310	7.53465	2.67916
1175.78125	-3.75787	-4.33121	7.12574	-4.05921
1179.68750	-6.57891	-3.69581	5.50807	-6.07900
1183.59375	-0.93837	0.09620	4.29332	-2.15635
1187.50000	0.67288	-1.23319	0.66105	0.46541
1191.40625	-2.95388	-2.81860	2.66974	-4.13457
1195.31250	1.07500	-0.26405	5.88722	-1.36881
1199.21875	0.67161	0.73463	3.86663	-2.17573
1203.12500	-0.13469	-0.75678	6.27829	-8.56045
1207.03125	1.07365	-2.07748	7.07818	-1.39668
1210.93750	-4.16480	0.82049	6.26638	-2.86810
1214.84375	-6.98563	2.19278	7.06627	-11.96102
1218.75000	-5.37439	0.33782	8.26912	-11.98421
1222.65625	-8.59829	0.00614	8.26312	-11.36028
1226.56250	-13.43385	0.29658	8.25713	-15.34927
1230.46875	-14.24020	0.01992	13.48925	-13.26616
1234.37500	-14.64359	2.23204	16.70672	-12.06046
1238.28125	-20.28512	2.76923	11.46265	-18.17551
1242.18750	-29.55297	-0.43441	8.63616	-30.30006
1246.09375	-32.77679	-2.57137	13.06237	-40.99327
1250.00000	-44.86514	-7.23558	12.25053	-53.86557
1253.90625	-54.53598	-11.02705	16.27383	-59.68724
1257.81250	-69.44480	-10.10391	24.72940	-73.53054
1261.71875	-94.82987	-9.73325	18.67947	-102.44958
1265.62500	-113.76804	-15.91822	16.65882	-123.05682
1269.53125	-130.69160	-18.12563	19.87629	-134.33881
1273.43750	-143.58588	-21.46851	21.88496	-145.57202
1277.34375	-149.63029	-22.56820	25.10240	-153.46689
1281.25000	-154.86891	-19.42824	23.48464	-156.08620
1285.15625	-152.85480	-17.17867	19.04645	-162.42181
1289.06250	-148.02002	-12.50368	19.04045	-162.01411
1292.96875	-148.02048	-9.35043	17.82565	-156.08730
1296.87500	-141.17116	-8.83714	17.41668	-145.16100
1300.78125	-130.69542	-8.56615	17.81360	-138.82855
1304.68750	-127.06955	-9.97751	17.00174	-138.54187
1308.59375	-114.57927	-9.30692	15.38396	-127.62714
1312.50000	-99.26840	-6.50516	13.36330	-108.96124
1316.40625	-86.77811	-3.96677	14.16313	-93.33487
1320.31250	-73.88480	-5.35191	10.53076	-82.90952
1324.21875	-62.60320	-7.60992	8.51010	-69.95403
1328.12500	-48.50106	-5.71422	10.11576	-53.74498
1332.03125	-33.19016	-6.48670	10.51269	-39.65138
1335.93750	-27.54961	-6.34664	6.47736	-29.41372
1339.84375	-16.26795	-5.75596	4.05372	-17.33795
1343.75000	1.86338	-4.43347	5.65939	-4.20596
1347.65625	5.89216	-3.33625	4.84752	5.23369
1351.56250	15.96492	-7.68415	5.24442	17.99610
1355.46875	28.05238	-7.51652	4.43255	25.25049
1359.37500	27.24602	-5.74920	1.20306	23.23633
1363.28125	38.93044	-6.89391	2.80873	29.68997
1367.18750	45.37681	-3.78391	4.41446	41.64994
1371.09375	38.52646	-4.45730	-0.02383	41.41642
1375.00000	44.16689	-6.67239	-0.83570	44.87269
1378.90625	44.97226	-5.33234	-0.03588	54.93287
1382.81250	45.77755	-7.73752	0.36104	55.90805
1386.71875	54.64146	-4.63866	1.96667	61.54405
1390.62500	54.23802	-1.64157	1.15478	65.26018
1394.53125	56.25210	-3.41263	2.35752	62.09286
1398.43750	59.87794	-4.50602	1.54555	62.04038
1402.34375	61.08624	-1.32225	1.53949	63.16565
1406.25000	61.89151	-2.27259	1.93637	60.88362
1410.15625	57.86168	-5.68409	-0.08436	61.32075
1414.06250	53.83183	-5.79716	0.71545	62.00483
1417.96875	53.83129	-4.47971	-0.49942	62.69374
1421.87500	58.26305	-0.94390	-1.71430	63.14768
1425.78125	59.87421	-0.71352	-2.12327	57.39434
1429.68750	55.03851	-0.86993	-2.53230	54.98090
1433.59375	57.85843	0.27550	-0.92663	59.11604
1437.50000	58.26079	-0.01634	-0.12688	62.94025
1441.40625	52.61916	1.05385	1.88171	67.53932
1445.31250	52.61862	2.05471	4.69615	63.96691
1449.21875	51.81221	-2.10733	3.88421	56.31141
1453.12500	50.60285	-4.53665	3.87813	55.44249
1457.03125	50.60229	-5.21973	5.48376	50.69536
1460.93750	46.57243	-5.40200	4.26891	42.49557
1464.84375	43.75139	-1.21939	4.66573	42.32029
1468.75000	46.57135	2.69235	6.67431	49.99836
1472.65625	46.97373	3.13558	7.87704	50.98524
1476.56250	44.55555	1.66706	9.48272	50.54119
1480.46875	44.95800	0.23800	8.26783	50.47180
1484.37500	49.38964	0.74773	6.64998	48.86221
1488.28125	44.95686	-2.58722	8.25568	48.12656
1492.18750	43.74751	-1.69037	9.05544	50.17696
1496.09375	43.34399	-1.51862	9.45231	50.79594
1500.00000	38.91117	-2.97879	9.44622	44.72963
1503.90625	40.52243	-0.90733	8.63422	46.92399
1507.81250	37.29846	-2.63366	6.61350	41.82861
1511.71875	29.23925	-3.70372	7.41332	27.63313
1515.62500	24.00052	-4.30196	8.21311	26.88408
1519.53125	22.38810	-7.39704	8.20706	27.68882
1523.43750	25.61084	-9.80965	8.60390	27.63901
1527.34375	21.17789	-9.53371	9.00079	23.04195
1531.25000	22.38600	-7.74004	10.20352	21.63103
1535.15625	26.01167	-7.49043	11.40625	29.98014
1539.06250	23.59335	-11.80892	10.19140	29.97420
1542.96875	23.18968	-12.25880	9.37952	25.65804
1546.87500	21.57728	-10.39216	11.38809	24.40098
1550.78125	21.57667	-11.78437	8.56147	22.90271
1554.68750	18.75556	-13.90562	7.74954	18.18283
1558.59375	15.53150	-14.20034	8.95227	10.89348
1562.50000	15.53089	-13.89485	8.54324	14.79074
1566.40625	15.93316	-12.46034	10.55180	18.90703
1570.31250	17.54427	-11.00158	10.14280	14.92749
1574.21875	15.93188	-12.26678	8.12207	14.05894
1578.12500	11.49909	-12.15487	7.31012	13.56321
1582.03125	11.90137	-11.49409	6.90108	13.16818
1585.93750	11.90070	-13.72223	5.28321	14.61437
1589.84375	13.10887	-13.85259	5.27711	16.64023
1593.75000	15.52588	-12.64848	6.88278	15.59503
1597.65625	13.91347	-14.13533	7.27963	13.40715
1601.56250	11.09231	-13.11464	5.25884	11.11986
1605.46875	13.91214	-13.37063	4.84985	9.50550
1609.37500	13.10562	-14.69573	5.64960	7.08640
1613.28125	6.25520	-14.64852	5.64347	8.69031
1617.18750	7.46332	-13.69614	6.84615	14.86112
1621.09375	11.49197	-13.11554	8.04883	14.69070
1625.00000	12.70013	-13.82147	7.63976	10.83043
1628.90625	15.51995	-14.73894	6.42484	7.61897
1632.81250	11.48995	-14.23841	6.41873	7.85151
1636.71875	5.04233	-13.25642	8.42728	7.45238
1640.62500	2.62405	-12.30287	8.01829	1.72057
1644.53125	5.44391	-12.25327	5.19161	4.08087
1648.43750	6.24911	-13.57796	4.78261	6.14687
1652.34375	6.65135	-14.23905	2.76187	5.02053
1656.25000	7.45656	-13.62315	2.75577	7.30142
1660.15625	1.81479	-9.46822	3.15254	8.47488
1664.06250	3.02291	-11.08224	3.14643	8.59553
1667.96875	7.05153	-12.42048	5.55795	5.08492
1671.87500	6.64788	-6.18919	5.14888	1.00352
1675.78125	3.02085	-5.53061	4.73986	0.71173
1679.68750	3.42319	-6.62705	3.92792	-1.30824
1683.59375	7.85468	-5.87537	2.31006	-3.02701
1687.50000	5.03342	-8.44468	5.52742	-4.83785
1691.40625	1.00337	-7.81775	8.34178	-4.60301
1695.31250	8.25539	-5.90306	9.94739	11.45907
1699.21875	8.25472	-4.18317	7.12075	12.26358
1703.12500	-2.62508	0.54761	0.66768	-3.38877
1707.03125	-3.43161	1.97741	0.25858	-4.28389
1710.93750	-9.87913	0.21632	1.46122	-9.38197
1714.84375	-11.08862	-0.23615	3.87265	-13.64004
1718.75000	3.41623	1.08575	6.28405	-1.97859
1722.65625	0.99798	-1.48321	5.47207	-0.14611
1726.56250	-4.24077	-0.89658	3.85422	-5.74725
1730.46875	1.39955	1.39309	4.65391	2.78247
1734.37500	-2.22749	0.58964	6.25944	-0.44442
1738.28125	-1.42233	1.11984	6.25328	-4.94812
1742.18750	5.02385	0.12031	7.85888	3.47642
1746.09375	0.18794	-0.94788	8.25562	3.25908
1750.00000	-0.21573	-0.25723	7.84660	7.71238
1753.90625	5.42460	0.19990	8.24335	9.94908
1757.81250	4.61798	-0.05300	7.83433	4.96995
1761.71875	4.61725	-1.89458	5.81353	4.65858
1765.62500	3.00483	-2.20443	4.59859	3.39166
1769.53125	-3.84569	-2.31615	2.98070	2.18258
1773.43750	0.98875	-0.60023	2.57165	0.21629
1777.34375	3.00264	-0.41944	3.77430	-4.05256
1781.25000	-2.23628	-3.09588	3.36519	-6.26938
1785.15625	5.82154	0.57294	4.56783	5.12362
1789.06250	6.22377	0.05264	4.15874	4.32219
1792.96875	4.61125	-7.04918	0.92914	-5.06279
1796.87500	8.23688	-6.02505	1.72888	-0.58369
1800.78125	11.86249	-5.49892	2.52856	5.34554
1804.68750	16.69697	-5.50851	4.53707	9.25837
1808.59375	9.04047	-8.05830	0.90455	6.07021
1812.50000	2.18989	-13.10368	-0.71331	0.15695
1816.40625	0.57733	-12.43886	4.92151	-1.14010
1820.31250	-3.85572	-9.10446	4.91536	-2.80301
1824.21875	-2.24481	-11.98636	6.11803	1.28757
1828.12500	1.78369	-14.96246	6.51488	4.19955
1832.03125	0.17112	-13.92823	5.29996	0.96679
1835.93750	1.37901	-12.00688	6.90556	0.72798
1839.84375	1.37816	-11.49588	7.70530	1.52130
1843.75000	1.78028	-12.41296	7.29621	2.56512
1847.65625	3.79410	-11.39100	6.08128	-2.50114
1851.56250	2.98747	-11.53702	6.47812	0.59055
1855.46875	7.82191	-10.77368	7.68080	8.24748
1859.37500	4.19480	-9.04753	9.68931	7.84463
1863.28125	-1.84988	-11.62277	8.47437	3.01583
1867.18750	-1.04477	-11.84764	3.23011	-1.94762
1871.09375	-4.26894	-11.57046	3.62691	-1.77855
1875.00000	-1.44923	-14.78442	4.82948	-1.14308
1878.90625	-0.64415	-15.86344	5.62922	-3.17110
1882.81250	-1.45068	-15.65968	4.81717	0.22133
1886.71875	-2.25723	-16.33131	3.19934	2.23076
1890.62500	-5.07848	-16.44558	6.01371	3.52896
1894.53125	-1.04998	-15.57867	7.61936	6.40535
1898.43750	-2.25961	-18.24552	7.61323	3.93505
1902.34375	-3.46923	-22.10629	5.59244	5.46296
1906.25000	0.55924	-22.42326	3.97456	4.79242
1910.15625	-0.24743	-20.92363	7.19187	-0.41172
1914.06250	-3.47173	-20.00702	7.99158	-1.74260
1917.96875	-8.71069	-21.43338	7.17958	0.55774
1921.87500	-9.92034	-22.90462	9.18810	1.81720
1925.78125	-2.66841	-19.64609	7.57029	-1.51886
1929.68750	-2.26630	-16.13877	7.16119	-2.72382
1933.59375	-3.47591	-21.22003	7.96089	5.44030
1937.50000	-3.47676	-22.20498	8.35769	4.42915
1941.40625	-3.07462	-19.66663	4.72513	-2.25405
1945.31250	0.14803	-19.68360	3.91313	-0.58870
1949.21875	-0.25571	-18.60992	8.74215	-1.39472
1953.12500	1.35516	-18.41208	12.36233	0.95945
1957.03125	2.96605	-18.14407	13.16202	2.25600
1960.93750	0.95057	-18.43707	10.33537	-1.91480
1964.84375	3.77025	-16.89384	6.70286	-1.68742
1968.75000	-0.66286	-15.44182	7.09961	-5.69468
1972.65625	-3.88711	-15.61208	7.49644	-8.73729
1976.56250	-5.09674	-18.51919	7.08733	-1.92889
1980.46875	-3.88879	-19.21676	10.30461	6.05999
1984.37500	6.98946	-14.90261	11.50724	17.34398
1988.28125	2.95931	-8.24466	10.29228	12.98173
1992.18750	-6.71184	-4.35824	8.67441	-1.48827
1996.09375	-3.08624	-4.79681	6.25065	-6.10763
2000.00000	-1.47534	-5.88975	6.24449	-11.36838
2003.90625	-1.07322	-8.06828	7.44712	-6.35384
2007.81250	-0.26820	-6.28452	7.03797	-4.19678
2011.71875	-3.49250	-1.97607	7.03179	-5.49871
2015.62500	2.55062	-4.37721	5.81683	-1.41279
2019.53125	4.96734	-4.24481	6.61656	0.60064
2023.43750	-2.68926	-2.03183	3.78985	1.35657
2027.34375	4.96549	-4.32180	1.36614	1.99739
2031.25000	10.20268	-3.22664	3.37463	4.21263
2035.15625	6.17252	-3.15873	1.75671	-0.73503
2039.06250	8.58921	-3.40424	0.54176	-3.15862
2042.96875	8.99134	-3.24027	3.75907	5.41882
2046.87500	7.37884	-1.14664	6.97636	9.39970
2050.78125	7.37796	1.15827	8.98487	7.90123
2054.68750	10.60040	0.46955	7.36705	8.41903
2058.59375	9.79350	2.67437	5.74916	3.54692
2062.50000	6.56904	2.81154	6.95182	5.83206
2066.40625	9.79145	0.01876	6.94570	7.53025
2070.31250	8.17869	0.70375	6.93955	3.95335
2074.21875	2.93948	3.68685	9.35099	7.91955
2078.12500	0.92372	5.12512	8.13603	8.22922
2082.03125	2.13140	7.25829	6.92106	7.02786
2085.93750	7.77134	7.23392	6.51200	7.26481
2089.84375	8.97913	7.09575	6.50581	7.67848
2093.75000	4.94881	8.50732	5.69370	6.63287
2097.65625	7.76831	9.58741	5.68748	8.47377
2101.56250	2.12632	10.90516	4.47247	8.60367
2105.46875	1.72236	10.02355	6.07803	3.76542
2109.37500	4.13900	10.26266	8.08646	1.74883
2113.28125	-5.53231	9.29052	7.67730	-1.88580
2117.18750	-4.72750	7.59888	8.47700	2.67288
2121.09375	2.12128	8.91626	9.27666	7.33725
2125.00000	6.95534	8.38849	8.06171	6.70005
2128.90625	2.11912	5.37085	4.83209	5.09987
2132.81250	0.50633	5.63378	6.43766	1.30274
2136.71875	2.51994	8.42563	8.84905	4.12672
2140.62500	0.10134	10.96067	9.64873	9.27362
2144.53125	1.30905	10.79066	9.23964	4.38082
2148.43750	1.71097	8.13613	4.39826	-3.22387
2152.34375	0.90414	7.61114	4.39208	-0.32127
2156.25000	0.09731	8.03755	8.01231	4.77970
2160.15625	-1.11242	5.35222	3.57388	4.74406
2164.06250	-0.30752	7.15692	4.37352	0.83502
2167.96875	-2.32315	5.26314	3.96442	-4.69050
2171.87500	-3.12995	-0.08809	1.13773	-5.14588
2175.78125	-0.71339	0.38951	1.13155	-4.22919
2179.68750	-3.93772	0.14790	1.52829	0.60022
2183.59375	-7.16210	-0.90124	2.73093	-0.71593
2187.50000	-6.76026	0.37941	1.11304	-4.54174
2191.40625	-9.98473	-0.13697	-0.10195	-7.12775
2195.31250	-7.56817	-0.81938	1.10067	-5.57147
2199.21875	-4.34569	0.58449	3.91498	0.47070
2203.12500	-1.12321	2.33011	3.50587	-3.49706
2207.03125	2.09927	2.35056	4.30553	-8.01894
2210.93750	-4.34863	0.61590	7.11990	-8.68513
2214.84375	-7.97602	-1.23042	4.29315	-4.48207
2218.75000	-4.35057	-0.59225	0.25766	-4.10306
2222.65625	-4.35161	1.53897	2.26611	-6.70329
2226.56250	-5.56144	2.71611	3.46871	-5.85792
2230.46875	-6.77122	4.58938	3.05962	-4.98420
2234.37500	-3.95171	4.39424	3.05345	-3.77917
2238.28125	-3.14689	2.25733	4.25602	-3.44798
2242.18750	-5.16257	3.97723	6.26455	0.54394
2246.09375	0.88034	8.72957	5.85543	-0.07665
2250.00000	-0.32955	6.14381	3.83460	-6.09981
2253.90625	-3.15110	7.19032	3.02259	-8.69856
2257.81250	-0.73457	11.14654	4.62814	-8.03693
2261.71875	-2.34731	7.22625	5.42781	-3.11044
2265.62500	0.87511	7.09474	4.61581	0.45747
2269.53125	1.67994	8.10113	4.60967	-0.34894
2273.43750	0.47014	3.53171	4.20052	4.13138
2277.34375	1.67787	5.52468	5.40315	9.93554
2281.25000	-4.77014	9.67312	5.79995	3.68910
2285.15625	-4.77117	8.69120	2.97329	-4.25890
2289.06250	0.46600	6.83647	1.35538	-8.28400
2292.96875	-3.96721	5.50716	0.54342	-7.99884
2296.87500	-3.56537	4.73173	0.13436	-1.90830
2300.78125	-3.16343	5.67568	0.53118	-3.63513
2304.68750	-5.58209	4.25174	-1.08666	-7.78132
2308.59375	-5.58310	2.75419	0.92182	-4.12000
2312.50000	-4.77828	4.25304	6.15376	2.45734
2316.40625	-3.97348	6.75209	4.13291	-0.04870
2320.31250	-5.18334	5.70870	1.30626	-3.72652
2324.21875	-1.15508	4.25244	3.31476	-0.03909
2328.12500	-1.15615	5.12300	4.11447	-0.35082
2332.03125	-2.36601	2.59104	4.10835	-0.76333
2335.93750	-3.17287	3.52670	3.29637	3.02687
2339.84375	-5.99449	4.12967	4.49903	1.40229
2343.75000	-6.39849	1.03707	5.70168	-4.00121
2347.65625	-7.60831	1.85607	3.27794	-1.41204
2351.56250	-8.81821	3.74565	4.07764	-3.15589
2355.46875	-9.22228	3.51671	4.47446	-1.14036
2359.37500	-5.19404	2.54901	4.87126	4.09750
2363.28125	-6.00102	1.45501	3.65632	-1.53745
2367.18750	-6.40502	3.83362	3.65019	-3.68075
2371.09375	-1.97384	6.50943	5.65869	1.72600
2375.00000	-1.57203	2.69276	4.44373	0.74939
2378.90625	3.26206	1.77114	4.03464	-5.30830
2382.81250	3.66379	7.11687	4.43147	-3.12506
2386.71875	2.85682	3.80357	4.82827	-1.11594
2390.62500	5.27333	-1.20412	2.80749	-4.65332
2394.53125	9.30149	-0.55674	2.39842	-2.98615
2398.43750	4.86807	2.19758	5.21283	3.00472
2402.34375	-0.37116	3.91911	3.99793	0.10000
2406.25000	-1.98397	2.57237	3.99186	-2.58557
2410.15625	-3.99978	3.17051	5.19458	1.88031
2414.06250	-2.38920	3.03611	3.17384	3.36960
2417.96875	-4.80789	1.00689	2.36187	0.83446
2421.87500	-4.80898	0.72512	1.54992	0.48187
2425.78125	-0.78082	0.54324	1.54382	2.78657
2429.68750	-1.99071	0.29416	1.94061	-0.83628
2433.59375	-2.39482	-2.64535	1.93450	0.07480
2437.50000	-4.41057	-6.23428	1.92840	6.71906
2441.40625	-1.99408	-5.28705	0.71357	0.84137
2445.31250	-0.38351	-5.50711	2.72214	0.08886
2449.21875	0.01834	-7.81714	1.50726	6.93833
2453.12500	2.03197	-12.76487	0.69532	6.47182
2457.03125	2.43380	-13.88543	1.49507	9.37985
2460.93750	4.85033	-11.70118	0.68312	6.82056
2464.84375	3.64042	-16.38481	1.07992	3.82412
2468.75000	6.05687	-16.32720	3.08848	8.27807
2472.65625	7.26448	-13.21917	4.69412	9.26434
2476.56250	2.42805	-15.09770	1.86747	8.81963
2480.46875	7.66497	-16.10123	-0.55617	7.94369
2484.37500	6.05212	-15.57032	1.04941	7.13944
2488.28125	-3.21643	-17.57915	0.23746	3.98555
2492.18750	-1.60595	-17.30362	0.63431	3.61764
2496.09375	4.03381	-13.90052	1.03110	4.23581
2500.00000	6.85304	-14.86225	-2.60136	0.58626
2503.90625	6.04590	-16.76378	-1.80163	-0.44359
2507.81250	9.67091	-16.40700	-1.00187	0.10120
2511.71875	8.86374	-14.94341	-1.81384	2.42507
2515.62500	6.44475	-15.12899	0.59764	5.70453
2519.53125	5.23460	-15.64118	0.59151	4.89687
2523.43750	2.81556	-13.51920	-0.62342	8.06983
2527.34375	-1.21515	-15.22766	0.98215	9.91904
2531.25000	-2.82826	-16.21057	-1.03861	6.89571
2535.15625	10.06419	-14.35068	-5.07402	11.61784
2539.06250	9.65989	-14.81279	-3.06548	13.22305
2542.96875	-9.68201	-15.91082	0.95772	-1.56991
2546.87500	-14.92127	-17.66693	1.35456	-7.25979
2550.78125	-7.66967	-16.67129	1.75137	-1.90881
2554.68750	-10.89427	-17.20606	1.74531	-5.82353
2558.59375	-13.71602	-18.01926	1.33633	-1.02567
2562.50000	-8.88217	-14.26950	3.74783	3.27377
2566.40625	-4.04813	-12.84538	4.54770	3.36004
2570.31250	-2.84052	-11.89191	2.12405	9.45324
2574.21875	-0.42407	-12.81527	-1.91129	9.79295
2578.12500	2.79822	-10.75608	-1.91732	2.84971
2582.03125	1.99125	-8.19376	-0.31165	5.27465
2585.93750	4.00474	-9.62742	0.08527	9.94381
2589.84375	5.21236	-7.10910	-1.12954	3.91052
2593.75000	0.37601	-3.99807	0.87912	1.65604
2597.65625	1.18072	-3.50006	0.87314	12.36139
2601.56250	8.02938	-3.32592	-0.74453	11.28249
2605.46875	7.22241	-1.96930	1.66708	0.80319
2609.37500	3.99788	-3.53044	1.66116	2.01001
2613.28125	5.60850	-4.04980	0.44651	5.62812
2617.18750	8.42790	0.12194	2.05230	-0.69234
2621.09375	4.80053	0.73566	2.85230	1.15148
2625.00000	1.17313	-1.55637	3.24940	6.15524
2628.90625	2.38091	-0.34880	1.63180	2.54043
2632.81250	5.20038	0.73036	1.62597	8.41364
2636.71875	6.40811	0.51277	4.03777	3.58196
2640.62500	5.19834	-1.24854	2.82315	3.49081
2644.53125	6.40606	-0.73364	2.41446	10.28302
2648.43750	7.61389	0.82496	4.02038	9.12524
2652.34375	5.19535	1.07638	4.01460	3.96917
2656.25000	6.00024	3.31324	1.99415	3.83207
2660.15625	5.19340	-0.01256	-2.04093	1.37881
2664.06250	-0.04568	0.49780	-0.43500	0.29035
2667.96875	1.96804	4.82668	1.97683	3.22633
2671.87500	2.77295	2.63065	3.17987	1.15930
2675.78125	1.56319	-1.14674	5.18877	1.67309
2679.68750	8.41206	-2.40746	3.97419	6.90557
2683.59375	8.41114	-0.68361	2.35669	7.60418
2687.50000	5.58972	0.37465	1.94794	5.79311
2691.40625	5.99180	2.57382	2.74801	1.99837
2695.31250	0.34985	2.44458	1.53340	-3.69798
2699.21875	4.37822	1.23572	2.73644	-2.08780
2703.12500	10.01836	2.97345	5.14830	1.19728
2707.03125	4.77931	0.36293	3.53080	2.31656
2710.93750	-0.05678	0.10156	4.73387	0.84459
2714.84375	1.15101	-0.41758	7.95157	1.82432
2718.75000	4.37351	-1.97758	7.94583	0.99465
2722.65625	4.37257	-1.42625	6.73129	-1.60548
2726.56250	0.34227	-2.86439	2.69628	3.26923
2730.46875	-0.86752	-1.15868	2.69055	0.91963
2734.37500	-0.46558	-0.46516	4.29655	-1.50154
2738.28125	0.33924	1.24838	1.06739	2.85907
2742.18750	-0.06463	0.21848	-0.14714	1.61301
2746.09375	-3.28906	-3.26366	0.25006	0.58955
2750.00000	-8.52819	-3.62310	0.64720	-3.82189
2753.90625	-10.54384	-7.36723	-0.97026	-6.01774
2757.81250	-9.73898	-5.60685	-1.37896	-7.37076
2761.71875	-3.29313	-0.15251	-0.17592	-9.29404
2765.62500	-0.07075	-1.64118	1.43003	-6.93491
2769.53125	-1.68355	-1.24673	0.61843	-5.32371
2773.43750	-0.47583	-0.57308	-0.59611	-3.26095
2777.34375	0.32895	-1.99413	0.20404	1.73732
2781.25000	-1.68679	-1.33166	0.60118	-1.28565
2785.15625	-2.49377	-2.42982	2.61006	-3.18963
2789.06250	-2.49486	-5.31064	4.21603	-2.78261
2792.96875	-3.30179	-3.04841	2.19561	-8.94441
2796.87500	-0.07940	-2.82180	0.17518	-1.64516
2800.78125	-0.88633	-2.91749	0.57231	5.89534
2804.68750	-0.48442	-5.63067	1.37239	2.15213
2808.59375	1.52918	-8.56140	1.76958	0.97831
2812.50000	-4.11288	-5.12130	2.56967	0.70578
2816.40625	-8.14328	-8.49241	2.16100	-0.59155
2820.31250	-7.74143	-9.74621	0.94644	-3.06058
2824.21875	-6.53371	-9.63292	0.53773	-1.38789
2828.12500	-6.13189	-11.80442	2.94956	-2.10257
2832.03125	-4.92418	-13.23741	1.33202	-4.93266
2835.93750	-3.31347	-14.17033	0.52039	-3.15713
2839.84375	-12.58191	-15.77522	2.52926	-2.36422
2843.75000	-8.55374	-15.24388	0.50885	-2.52954
2847.65625	-6.94313	-13.42776	-1.91447	-5.58154
2851.56250	-11.77935	-14.90453	-0.30858	-0.47555
2855.46875	-7.75108	-13.81105	-0.71734	0.73410
2859.37500	-4.12571	-9.72313	-0.32017	4.36034
2863.28125	-0.90336	-11.98881	0.47992	5.17232
2867.18750	-1.71022	-14.23758	-0.33167	-1.40302
2871.09375	-6.14355	-14.55344	0.06550	-0.42837
2875.00000	-3.32416	-16.27795	-1.55205	-1.80794
2878.90625	-3.72835	-16.57254	-4.78131	-5.04521
2882.81250	-2.52073	-17.59789	-3.57829	-2.05614
2886.71875	-1.31312	-20.27778	-5.19576	-0.04714
2890.62500	-6.55243	-21.04740	-6.41034	0.04183
2894.53125	-0.10677	-20.36099	-1.98385	1.70907
2898.43750	5.13012	-22.22107	-2.79552	0.04414
2902.34375	-0.91502	-25.22283	-4.41299	-4.87527
2906.25000	-4.94547	-27.92261	-3.20995	-6.35205
2910.15625	1.50028	-25.92387	-2.40987	-5.51271
2914.06250	-0.91852	-28.07361	-2.01265	-4.42639
2917.96875	-6.96369	-29.89237	-3.63017	-2.12644
2921.87500	-2.93559	-29.62672	-4.44178	-0.46438
2925.78125	-2.53381	-31.93481	-2.43292	2.24311
2929.68750	-6.16138	-34.01705	-3.64750	0.63488
2933.59375	-7.77429	-32.96758	-6.07086	-5.30402
2937.50000	-7.77549	-35.15436	-4.86781	-9.53905
2941.40625	-3.34439	-36.85512	-4.06766	-10.17869
2945.31250	-7.37486	-36.34484	-3.26748	-4.88747
2949.21875	-6.16735	-36.05910	-2.46737	2.36479
2953.12500	-2.94510	-33.83287	-3.27893	1.89816
2957.03125	-2.54343	-32.76855	-1.67299	-5.26720
2960.93750	-0.12712	-33.61260	0.73885	0.23193
2964.84375	3.49799	-36.72140	-0.47567	10.53212
2968.75000	7.52609	-36.48166	-2.09309	8.13622
2972.65625	1.48097	-30.66792	-5.32230	-6.99474
2976.56250	1.88272	-29.98717	-6.53684	-5.42480
2980.46875	2.68727	-30.37633	-4.93089	1.35492
2984.37500	-6.98433	-34.27468	-5.33953	-3.07581
2988.28125	-6.98555	-35.28465	-4.53938	0.21714
2992.18750	-3.76333	-32.73872	-2.53043	3.47567
2996.09375	0.26473	-33.65925	-2.53613	2.88517
