 	TP9	AF7	AF8	TP10	
-1000.00000	67.75494	-89.37620	56.29482	76.12772
-996.09375	70.97077	-88.55434	52.28041	70.47902
-992.18750	67.33668	-86.92664	50.68373	66.03902
-988.28125	62.49390	-86.50779	51.90750	65.62832
-984.37500	78.60347	-86.89474	51.11663	66.42645
-980.46875	87.46030	-86.47592	49.92279	78.90952
-976.56250	81.81158	-85.25120	48.72897	81.72223
-972.65625	87.44505	-85.63818	48.74393	85.34087
-968.75000	81.79626	-85.62229	47.55008	86.94479
-964.84375	78.56516	-86.81524	45.95334	80.49016
-960.93750	87.01894	-85.18773	44.75950	84.51170
-957.03125	82.17607	-84.76897	46.38616	82.89224
-953.12500	76.93018	-87.17081	48.41574	76.84048
-949.21875	82.96629	-86.75211	45.20727	77.63866
-945.31250	90.21128	-86.33346	43.20757	81.66011
-941.40625	88.18882	-88.33235	44.02843	84.87582
-937.50000	80.52539	-92.34593	42.02863	82.45047
-933.59375	72.45902	-94.74784	39.22308	78.01037
-929.68750	66.81028	-98.35853	39.64096	71.15279
-925.78125	61.96729	-102.37217	38.04412	77.18895
-921.87500	58.33318	-105.98292	36.04440	68.71954
-917.96875	58.32544	-108.78777	38.47693	68.71173
-914.06250	63.15279	-111.18975	39.29771	79.18007
-910.15625	63.54793	-112.38285	38.10383	67.89022
-906.25000	61.92831	-111.56147	36.50705	69.09118
-902.34375	71.99381	-112.75471	32.89557	80.36531
-898.43750	69.97137	-114.75376	32.50759	67.86665
-894.53125	57.47271	-113.12657	30.10490	61.00900
-890.62500	65.12056	-113.91693	29.31396	58.18052
-886.71875	71.96265	-117.12489	30.94058	59.38152
-882.81250	57.85236	-113.88604	30.14967	65.01486
-878.90625	49.38302	-111.45296	29.76167	66.21581
-875.00000	58.64257	-110.63164	27.35896	58.95509
-871.09375	57.42603	-109.00451	30.59729	54.11198
-867.18750	46.94213	-106.97443	29.80632	50.88070
-863.28125	50.96371	-104.94429	24.98597	61.75199
-859.37500	49.74718	-102.91418	23.79200	61.34119
-855.46875	44.50133	-102.09300	21.38931	42.39558
-851.56250	49.73166	-102.07762	23.01586	37.95554
-847.65625	46.50046	-102.06227	23.43365	40.76818
-843.75000	42.86631	-99.62937	18.61329	39.55149
-839.84375	38.02330	-98.40532	17.41938	34.70845
-835.93750	38.01551	-100.80760	20.25471	45.98262
-832.03125	32.76963	-97.97186	19.06076	39.12494
-828.12500	31.95598	-96.74784	19.07559	22.99978
-824.21875	35.17162	-96.32973	19.89625	21.78305
-820.31250	29.11986	-94.29988	16.28472	22.58098
-816.40625	30.32084	-90.65829	13.47898	38.69032
-812.50000	28.70130	-88.62850	14.70260	37.87658
-808.59375	26.67887	-88.21042	12.70277	27.39248
-804.68750	26.26812	-85.77776	9.89710	22.54935
-800.78125	26.66324	-86.97144	6.68850	13.27401
-796.87500	21.41730	-88.97102	2.27107	16.08664
-792.96875	18.58898	-84.52371	-0.93755	19.30219
-789.06250	6.89614	-84.50867	-1.72857	5.99750
-785.15625	-4.39376	-88.52294	0.70384	10.01892
-781.25000	1.23943	-85.68742	0.31572	9.20506
-777.34375	10.09606	-84.86653	1.13637	-0.87615
-773.43750	9.28234	-84.04570	-0.86350	12.00965
-769.53125	3.63343	-79.59855	1.16593	9.98707
-765.62500	7.25195	-80.38946	6.01590	6.35265
-761.71875	24.57006	-79.56870	2.80722	20.85009
-757.81250	12.87713	-79.15087	5.64246	10.36585
-753.90625	11.66037	-76.31549	7.26893	18.81935
-750.00000	35.42539	-72.67422	6.47778	15.18493
-746.09375	25.74710	-73.06234	5.28378	14.37106
-742.18750	14.86001	-74.25632	3.28384	32.09196
-738.28125	14.04624	-73.03272	2.89561	30.47223
-734.37500	12.82950	-69.79446	1.70153	35.29934
-730.46875	25.71536	-65.75037	-1.91011	35.29130
-726.56250	34.57189	-63.31801	-1.89541	38.50673
-722.65625	27.31123	-58.46814	-3.49245	32.45476
-718.75000	21.25936	-54.82700	-3.88065	21.16468
-714.84375	17.62512	-56.02109	-1.44843	26.39477
-710.93750	16.40841	-60.03568	2.99849	38.87761
-707.03125	26.07074	-57.60339	2.20729	36.45196
-703.12500	21.22763	-50.73893	-1.40445	21.53544
-699.21875	8.32592	-54.75357	1.83366	11.05118
-695.31250	13.95895	-55.14190	0.63951	14.66951
-691.40625	17.98030	-52.30678	-1.76340	27.95815
-687.50000	17.56945	-46.65114	-1.34586	29.96472
-683.59375	13.93507	-45.83070	-2.13709	21.49505
-679.68750	7.48018	-49.84543	-1.31663	13.83132
-675.78125	5.05464	-48.62207	1.92145	28.73164
-671.87500	12.29940	-47.80170	3.54780	39.19976
-667.96875	19.54414	-46.17544	2.75651	29.52135
-664.06250	15.10389	-47.36975	4.78576	21.85765
-660.15625	9.45483	-48.16113	1.57691	23.86421
-656.25000	9.04395	-44.52034	-2.43778	20.22974
-652.34375	6.21540	-40.87951	-0.81143	15.78949
-648.43750	10.23670	-40.05927	-1.19980	16.18431
-644.53125	10.22868	-42.05952	-1.99107	12.95279
-640.62500	-5.09071	-44.46276	-0.76769	8.10958
-636.71875	-1.06943	-43.64258	0.85856	24.62167
-632.81250	8.99584	-42.01649	1.67894	32.26930
-628.90625	13.01713	-39.18167	0.48474	14.53227
-625.00000	12.20331	-37.15273	-1.51538	8.88318
-621.09375	10.98654	-37.13843	-0.69499	18.94844
-617.18750	14.20197	-35.51239	1.33419	17.32862
-613.28125	6.94125	-36.30405	-1.06890	16.51474
-609.37500	3.70981	-37.90152	-3.06903	16.50668
-605.46875	10.14871	-41.51371	-2.24867	14.88686
-601.56250	14.97591	-44.32002	-2.63706	17.69936
-597.65625	12.95325	-42.69411	-2.21965	17.28834
-593.75000	16.97452	-41.87409	-5.83150	18.08611
-589.84375	19.78702	-39.44241	-9.04047	23.71905
-585.93750	10.10871	-40.63701	-4.99671	24.11389
-582.03125	-1.58424	-42.63755	-8.20568	9.60032
-578.12500	3.24297	-39.80296	-11.41467	4.75704
-574.21875	-0.39138	-40.99768	-8.57965	13.61346
-570.31250	5.24160	-42.99827	-9.37111	24.88742
-566.40625	21.35086	-40.96959	-12.17717	17.62660
-562.50000	23.76043	-43.37318	-9.34224	11.97745
-558.59375	19.32025	-46.58263	-6.50728	18.41628
-554.68750	10.44776	-48.18036	-7.29878	12.76715
-550.78125	9.23099	-48.56937	-8.09022	5.10340
-546.87500	8.01433	-48.15247	-6.46409	9.12462
-542.96875	5.58874	-48.13853	-4.43503	11.13118
-539.06250	12.43056	-48.93049	-4.01775	2.25863
-535.15625	18.46655	-47.30490	-6.42095	3.45931
-531.25000	12.81759	-47.69394	-9.22712	10.30105
-527.34375	4.75103	-49.29185	-10.42153	0.21964
-523.43750	-2.91266	-54.11317	-7.98964	5.04674
-519.53125	-4.53236	-57.72579	-5.55770	12.29137
-515.62500	4.72707	-49.25046	-7.15515	3.82168
-511.71875	11.56888	-48.83375	-9.96135	0.18717
-507.81250	8.74041	-48.41710	-11.55876	-7.47653
-503.90625	3.89725	-47.59748	-11.54448	-7.08177
-500.00000	-1.75172	-49.19555	-14.75364	-9.50742
-496.09375	5.49307	-45.55548	-20.38045	-22.81221
-492.18750	8.70853	-46.34772	-20.36620	-24.02914
-488.28125	5.88001	-51.97509	-21.56074	-9.12886
-484.37500	2.64863	-53.97614	-25.57582	4.56270
-480.46875	0.22306	-49.53030	-26.36741	8.18101
-476.56250	-3.81422	-47.50208	-27.96491	9.78459
-472.65625	-13.89547	-51.51786	-31.17422	3.73252
-468.75000	7.85486	-53.51898	-32.77174	12.18601
-464.84375	20.74063	-53.10250	-29.53416	15.80426
-460.93750	13.47997	-53.08900	-32.34050	11.36398
-457.03125	17.90428	-51.46384	-35.95275	6.11782
-453.12500	8.22595	-51.45038	-33.11802	-1.94892
-449.21875	-7.09334	-53.45161	-32.70098	-1.95698
-445.31250	-0.65437	-52.63228	-32.68686	-10.02366
-441.40625	5.78450	-52.21598	-34.28444	-1.97317
-437.50000	3.76188	-53.41139	-33.06153	-7.62222
-433.59375	0.12761	-53.80092	-29.01814	-7.22742
-429.68750	-11.16241	-49.75830	-32.22756	8.47881
-425.78125	-13.18498	-55.38602	-33.01928	15.32058
-421.87500	17.83268	-61.01371	-32.19942	2.82169
-417.96875	24.67454	-56.56818	-35.81176	-1.61866
-414.06250	1.29665	-56.55494	-37.40941	9.65529
-410.15625	-2.33772	-56.94466	-36.18657	7.22963
-406.25000	19.81551	-58.14025	-32.54613	0.37177
-402.34375	22.62806	-57.32121	-32.53212	-4.47147
-398.43750	3.68239	-57.71091	-33.32401	4.38494
-394.53125	12.94186	-55.68311	-32.10119	4.77981
-390.62500	17.36614	-54.86413	-30.87839	12.42739
-386.71875	-1.57952	-56.46270	-32.07318	18.06042
-382.81250	6.87419	-54.83791	-31.25327	15.63486
-378.90625	9.28389	-56.03365	-29.62756	15.62683
-375.00000	-1.60325	-56.02061	-30.82236	6.75429
-371.09375	3.62683	-55.20173	-30.40544	4.32862
-367.18750	9.66283	-56.80043	-30.39144	-1.32041
-363.28125	12.47535	-55.98161	-29.97445	11.56524
-359.37500	9.64686	-56.77449	-27.54288	15.98942
-355.46875	10.04178	-57.97035	-27.93194	3.49048
-351.56250	13.66022	-58.76328	-27.51499	9.92931
-347.65625	5.59364	-63.18262	-24.68056	10.32415
-343.75000	7.19748	-63.16972	-23.05495	23.20990
-339.84375	19.68041	-56.70994	-26.66739	17.56081
-335.93750	17.25482	-53.07076	-29.07106	4.25606
-332.03125	16.44106	-51.04327	-30.26596	10.69492
-328.12500	21.67128	-56.67144	-29.04324	14.71622
-324.21875	18.43995	-59.07623	-27.82053	24.37855
-320.31250	14.40276	-57.85462	-29.01545	14.70017
-316.40625	16.00660	-59.85649	-29.00155	3.81306
-312.50000	18.41633	-59.03790	-26.16718	14.28117
-308.59375	17.60258	-59.83102	-26.55621	10.24386
-304.68750	24.84746	-58.60951	-31.37752	7.41538
-300.78125	30.07770	-59.40268	-32.16944	18.28654
-296.87500	25.63762	-61.80762	-29.33507	11.02580
-292.96875	11.12428	-63.40665	-27.70951	1.34749
-289.06250	-0.97148	-66.61748	-26.88974	7.38345
-285.15625	1.84115	-65.79903	-27.27879	12.61360
-281.25000	3.04208	-66.99524	-27.26495	17.84373
-277.34375	-2.20389	-67.38560	-26.84821	19.85041
-273.43750	2.62340	-65.76131	-29.25196	-0.30414
-269.53125	7.85362	-62.92830	-31.65574	-5.55025
-265.62500	4.62228	-62.91581	-32.04482	13.37954
-261.71875	3.00270	-66.12679	-32.03101	7.32759
-257.81250	3.39771	-68.93482	-32.42010	2.88734
-253.90625	-3.45996	-70.93703	-31.60050	3.28229
-250.00000	-6.69126	-71.32757	-31.98960	6.49777
-246.09375	-2.26692	-70.91221	-30.76699	8.10149
-242.18750	2.96329	-71.70565	-31.96199	5.67595
-238.28125	0.53781	-72.49919	-34.36580	2.04154
-234.37500	-4.30520	-72.48685	-33.94911	-2.80160
-230.46875	-2.29843	-68.84811	-34.74112	-3.21259
-226.56250	-3.51508	-68.43285	-34.72734	-0.80297
-222.65625	-5.94056	-69.22646	-37.13117	11.27695
-218.75000	-6.75426	-69.61710	-39.93788	2.40455
-214.84375	-5.95629	-68.79902	-41.53580	-7.27376
-210.93750	-7.17296	-69.99561	-42.73081	-2.84948
-207.03125	-3.95737	-72.80392	-42.31413	-3.26045
-203.12500	0.46699	-70.77708	-42.30037	-10.11826
-199.21875	-2.76431	-70.36203	-43.89830	-13.75266
-195.31250	-6.39857	-72.76745	-42.27283	0.34192
-191.40625	-2.37716	-73.15826	-40.24447	6.78076
-187.50000	1.24136	-70.32565	-41.43943	3.14638
-183.59375	6.47161	-71.11940	-42.63447	-0.48805
-179.68750	2.43444	-71.51019	-43.42658	-2.91360
-175.78125	-3.61740	-71.09522	-43.41284	-4.13044
-171.87500	-4.02822	-73.09782	-40.98151	8.35234
-167.96875	-5.64773	-74.69747	-41.37064	5.92669
-164.06250	-2.83500	-73.07375	-44.98328	-2.94579
-160.15625	-4.05162	-73.46468	-44.96953	-3.35681
-156.25000	-0.03014	-75.87032	-44.14999	-2.15605
-152.34375	0.36491	-76.26134	-45.34503	1.86522
-148.43750	-4.88103	-74.63766	-46.53995	-0.15741
-144.53125	-0.05370	-71.40229	-46.92914	-4.19469
-140.62500	3.16175	-69.77872	-44.09489	3.85586
-136.71875	1.54208	-70.57270	-42.87229	6.66830
-132.81250	-2.89807	-69.75500	-46.88777	-18.32140
-128.90625	1.12331	-69.74317	-46.87400	-24.77636
-125.00000	3.93590	-69.32843	-46.05435	-3.02614
-121.09375	1.10744	-66.49615	-44.83176	7.84494
-117.18750	1.90546	-68.09608	-44.01216	2.59885
-113.28125	7.13566	-67.68145	-45.20717	0.17325
-109.37500	6.72475	-65.25211	-47.61089	-3.46128
-105.46875	2.68753	-64.43454	-47.59710	-10.72213
-101.56250	2.27666	-64.82581	-46.37451	0.55182
-97.65625	0.65703	-64.81413	-46.76370	9.81114
-93.75000	2.26078	-62.38487	-46.34695	8.19134
-89.84375	8.29679	-59.14978	-46.73612	-0.68125
-85.93750	8.69182	-58.73522	-47.93115	-1.89804
-82.03125	3.44578	-58.72363	-48.72314	-1.50327
-78.12500	0.21439	-59.11500	-47.09763	-12.79348
-74.21875	7.86213	-60.71515	-46.68089	-9.98113
-70.31250	8.65997	-60.70363	-45.05539	6.93385
-66.40625	-2.22717	-60.28922	-44.63856	11.76088
-62.50000	0.58544	-58.66597	-46.23644	6.11179
-58.59375	1.38335	-60.66916	-42.99920	3.68613
-54.68750	2.58424	-63.07532	-43.79130	10.93081
-50.78125	2.97917	-63.06385	-44.98628	12.13148
-46.87500	-1.05814	-65.47002	-43.36067	7.28816
-42.96875	3.76909	-68.27915	-44.15273	10.10054
-39.06250	4.96992	-68.26779	-43.73606	3.24268
-35.15625	-1.88780	-66.24180	-43.31926	2.02579
-31.25000	0.52188	-66.23048	-45.32013	9.27041
-27.34375	5.34915	-62.59279	-45.30633	7.65059
-23.43750	5.74425	-60.56686	-45.29251	8.44841
-19.53125	5.33339	-61.76440	-44.87582	3.20221
-15.62500	6.13130	-59.33561	-44.05605	-3.25281
-11.71875	2.09405	-58.51849	-43.23633	9.63275
-7.81250	7.32418	-58.50730	-45.23714	8.81874
-3.90625	8.12206	-57.28737	-45.62621	9.21349
0.00000	3.27899	-57.67909	-44.40355	17.26393
3.90625	-0.75824	-59.27969	-46.80729	7.18255
7.81250	6.48654	-59.26855	-46.39050	-1.28715
11.71875	4.86687	-58.04864	-45.16782	5.95747
15.62500	-5.61725	-57.63459	-43.54227	14.00791
19.53125	-0.38717	-58.42937	-45.94589	7.14988
23.43750	3.63410	-58.01543	-49.15548	1.90355
27.34375	3.62610	-56.39267	-47.93280	-0.52228
31.25000	-3.23175	-56.38167	-47.91893	-4.15685
35.15625	-5.25447	-57.57949	-49.91970	3.49060
39.06250	2.39316	-58.77735	-49.50293	6.30288
42.96875	10.04075	-60.37812	-49.08612	-2.97276
46.87500	3.58586	-56.74086	-50.28105	5.88348
50.78125	-2.46618	-55.11823	-50.67010	18.76895
54.68750	0.74920	-57.52495	-51.05913	11.91086
58.59375	-0.87056	-58.31994	-50.64236	-0.99122
62.50000	-6.92260	-59.92086	-50.22555	-2.20815
66.40625	-7.33363	-62.73054	-51.42048	-1.00768
70.31250	-4.92415	-61.91390	-51.40661	-7.86577
74.21875	-3.32057	-57.87384	-51.39273	1.39335
78.12500	-1.31403	-57.86309	-53.79649	12.66714
82.03125	-5.75432	-58.65820	-53.78259	9.43540
85.93750	-1.33021	-57.84162	-52.55986	6.20367
89.84375	14.37597	-56.21918	-53.75478	11.43350
93.75000	14.36783	-55.40266	-49.71147	13.03698
97.65625	8.71869	-57.00376	-48.08585	15.04334
101.56250	13.14275	-55.78431	-52.50420	9.39396
105.46875	17.16390	-52.55021	-53.29612	5.75929
109.37500	14.33526	-53.74839	-51.67052	6.95974
113.28125	11.10366	-54.14069	-48.83607	14.20413
117.18750	22.37753	-50.10081	-48.82217	20.64263
121.09375	23.17531	-50.89611	-48.80827	11.36689
125.00000	18.33192	-51.69149	-49.60021	17.40255
128.90625	20.74129	-48.86043	-50.79512	21.02055
132.81250	13.48033	-49.25290	-49.16951	17.38582
136.71875	11.86034	-48.43657	-48.34981	18.98910
140.62500	10.64336	-49.23198	-49.14172	10.11622
144.53125	9.82919	-48.01278	-49.93371	6.48137
148.43750	12.23853	-47.19653	-49.91983	11.71101
152.34375	13.43906	-50.00667	-49.10009	-1.19123
156.25000	10.61028	-49.19050	-46.26573	0.41207
160.15625	9.39321	-48.37432	-44.64012	9.67101
164.06250	6.16148	-47.15524	-48.25268	1.60396
167.96875	4.13856	-45.53321	-47.43287	11.66871
171.87500	4.53313	-45.52294	-44.19563	16.49538
175.78125	2.91314	-45.91564	-49.41977	6.01067
179.68750	3.30778	-46.71127	-51.82352	1.56998
183.59375	10.55220	-45.49226	-49.79502	10.82891
187.50000	13.36439	-43.06454	-48.57236	19.28200
191.40625	6.90920	-42.24857	-48.55849	5.97677
195.31250	12.13899	-41.83549	-50.15636	1.53609
199.21875	12.53361	-42.22838	-48.93368	8.78032
203.12500	8.09304	-41.81533	-46.09931	5.54838
207.03125	6.47304	-42.61111	-46.08543	-0.10122
210.93750	6.46473	-43.00400	-47.68326	-2.52725
214.84375	10.08274	-41.78515	-48.47525	4.31399
218.75000	8.05982	-42.58097	-48.86432	8.73771
222.65625	4.42513	-42.57093	-48.04465	4.69985
226.56250	9.25198	-43.76968	-46.82199	5.09416
230.46875	4.81133	-45.77429	-48.41979	5.48853
234.37500	-1.64395	-44.55548	-50.42056	-2.98164
238.28125	2.37698	-43.73965	-49.60085	4.26250
242.18750	3.57742	-43.32675	-48.78109	7.47734
246.09375	2.76321	-41.70514	-47.55840	9.48342
250.00000	3.56067	-40.48645	-43.91822	9.07184
253.90625	2.74650	-40.07363	-45.11303	-0.60703
257.81250	5.96157	-40.86963	-45.90504	1.80194
261.71875	11.59417	-41.26263	-45.89116	0.58458
265.62500	7.15360	-38.43225	-46.28017	2.59062
269.53125	3.51884	-38.01943	-45.05749	18.29622
273.43750	-0.11585	-40.42718	-45.84950	19.49645
277.34375	-0.93007	-39.20853	-45.02971	6.59414
281.25000	2.68794	-38.39286	-43.40412	10.61483
285.15625	2.67957	-40.39768	-41.37564	8.18861
289.06250	3.87999	-39.98494	-42.16758	4.95654
292.96875	5.48331	-35.54296	-42.95958	11.39483
296.87500	7.08664	-33.92141	-42.54284	6.55106
300.78125	8.28704	-36.73222	-38.49968	6.94533
304.68750	10.29334	-36.31950	-37.27699	10.16018
308.59375	12.29962	-34.29514	-39.68061	4.51058
312.50000	13.50004	-33.07660	-40.06971	5.30785
316.40625	15.50631	-31.05225	-39.24991	5.70212
320.31250	9.45390	-30.23675	-37.62429	5.69347
324.21875	8.23675	-31.43593	-39.22215	6.89359
328.12500	11.45172	-31.82916	-40.41707	12.92885
332.03125	2.98177	-31.41668	-38.38858	17.35243
335.93750	-0.65310	-33.01873	-39.18051	11.29981
339.84375	-4.28784	-32.60619	-38.36084	6.05304
343.75000	-0.26701	-31.79078	-35.92937	6.44733
347.65625	2.14211	-32.18417	-40.34769	8.85620
351.56250	-1.89562	-30.56288	-42.75139	2.80360
355.46875	0.91648	-28.53871	-40.31997	0.37736
359.37500	7.75784	-30.14101	-39.90321	4.39800
363.28125	4.52594	-32.14619	-41.50101	5.19521
367.18750	-1.12351	-30.12210	-41.08429	-2.87205
371.09375	-1.53490	-30.11268	-38.24994	-4.08958
375.00000	-3.15513	-32.52080	-39.04191	11.21305
378.90625	-1.14888	-32.91436	-40.63981	7.57801
382.81250	-1.15733	-35.32258	-41.43189	3.13704
386.71875	1.25181	-36.92492	-43.02982	1.51661
390.62500	2.45214	-33.28922	-44.62771	-6.14775
394.53125	6.07009	-29.65352	-45.41980	-4.94767
398.43750	11.70262	-30.45006	-46.61475	-0.52418
402.34375	6.85898	-32.85838	-48.61557	-0.12992
406.25000	-4.83452	-32.84912	-47.39305	-6.58551
410.15625	-1.21662	-30.82522	-45.76744	-1.75909
414.06250	7.23640	-28.39840	-47.36544	0.24690
417.96875	1.98981	-30.00095	-48.15747	-2.17940
421.87500	-0.03333	-31.60347	-46.93490	4.66169
425.78125	3.58459	-30.78846	-44.90651	6.66762
429.68750	3.57610	-29.97349	-45.69859	5.04721
433.59375	14.04380	-27.14380	-47.29662	3.02383
437.50000	8.79719	-28.34351	-46.07409	4.22387
441.40625	3.14760	-27.93155	-44.44855	5.42385
445.31250	7.57137	-26.71368	-45.64360	8.23566
449.21875	-1.30156	-26.70462	-44.42106	5.00348
453.12500	6.34557	-25.08385	-46.01913	2.57712
457.03125	9.15754	-25.07485	-48.01999	4.18010
460.93750	7.53735	-25.06587	-47.20044	6.58893
464.84375	14.37862	-24.25104	-46.38076	13.02708
468.75000	11.14666	-25.45090	-43.94945	7.78020
472.65625	5.09420	-29.06837	-41.11518	5.75676
476.56250	6.29449	-27.85066	-42.31026	3.73333
480.46875	0.64499	-25.82716	-43.50534	2.51571
484.37500	5.06866	-24.60947	-43.08873	5.32735
488.28125	8.68656	-24.60060	-42.67202	2.49803
492.18750	12.70734	-25.80057	-41.04657	8.13027
496.09375	17.13104	-24.98582	-41.43578	8.92734
500.00000	8.66093	-25.37996	-43.43673	8.11269
503.90625	9.45821	-25.77419	-43.82595	7.29805
507.81250	7.83794	-25.76544	-42.60346	2.85698
511.71875	6.21760	-26.56252	-43.79856	-2.38989
515.62500	9.83542	-27.35967	-44.99366	6.06288
519.53125	8.21506	-24.53054	-42.56239	8.87461
523.43750	2.96833	-23.71600	-42.54874	4.83650
527.34375	3.76559	-25.31904	-44.14677	1.60420
531.25000	5.36874	-24.10161	-44.13313	-6.06033
535.15625	8.58363	-23.28717	-42.50779	-3.24862
539.06250	13.41019	-24.08439	-41.28535	3.59224
542.96875	7.76058	-23.67292	-41.27174	-2.05766
546.87500	5.73737	-23.26140	-40.45232	-0.45474
550.78125	7.34047	-23.25285	-39.22989	5.58035
554.68750	3.30259	-21.22966	-39.21628	-0.47239
558.59375	11.75556	-20.81823	-38.39680	1.93635
562.50000	8.12062	-20.40687	-36.77149	4.34503
566.40625	4.88859	-19.99540	-37.56386	6.75375
570.31250	6.49171	-18.77815	-39.96782	5.13314
574.21875	10.51239	-17.96392	-38.34257	2.30381
578.12500	8.08621	-21.58190	-36.31443	4.30961
582.03125	-1.18974	-21.57350	-35.09210	-0.13147
585.93750	8.06915	-19.95332	-35.48148	1.87433
589.84375	3.22551	-20.75082	-35.06507	7.90941
593.75000	1.20232	-21.95127	-35.05157	5.48292
597.65625	7.64071	-22.34587	-35.03805	1.84773
601.56250	2.39409	-22.74047	-35.83032	5.86822
605.46875	4.40023	-21.52349	-36.21981	2.63598
609.37500	6.40635	-17.88882	-35.40041	3.03007
613.28125	6.80071	-17.47757	-36.59570	2.21540
617.18750	7.59806	-16.26066	-38.59685	0.99780
621.09375	5.17187	-17.86415	-38.18046	4.21241
625.00000	8.38671	-17.45297	-37.76410	-1.84039
628.90625	8.78101	-17.04190	-38.55643	-2.65506
632.81250	10.78710	-18.24254	-39.34886	8.61821
636.71875	14.80789	-16.62270	-36.51486	6.19181
640.62500	8.75529	-19.43503	-33.27791	3.36252
644.53125	5.52332	-21.03865	-33.66745	7.38301
648.43750	5.91762	-22.64228	-32.84810	10.59759
652.34375	16.78819	-22.63423	-29.20826	14.61802
656.25000	22.01773	-20.61156	-28.38901	20.25027
660.15625	21.20332	-21.40945	-28.37559	25.07661
664.06250	21.59775	-22.61015	-28.76509	17.41206
667.96875	24.40967	-23.81097	-29.15458	23.85010
671.87500	19.56594	-25.41481	-28.73826	24.64709
675.78125	19.96036	-23.79508	-29.53078	19.80314
679.68750	23.57817	-23.38428	-28.30861	27.04710
683.59375	13.89934	-24.58516	-28.69814	20.59144
687.50000	16.30848	-23.77144	-30.29649	19.77686
691.40625	17.50882	-24.56948	-30.28316	18.55933
695.31250	16.29161	-22.54704	-30.67281	14.52136
699.21875	15.47732	-20.92757	-33.07698	17.33317
703.12500	19.90115	-21.32282	-34.67549	16.51863
707.03125	26.74251	-18.89748	-34.66224	14.09237
710.93750	21.89892	-16.87507	-35.05188	14.88951
714.84375	22.29339	-18.07617	-34.63573	21.73059
718.75000	27.52308	-20.48606	-30.19017	34.21272
722.65625	21.47069	-20.47840	-31.38573	28.96589
726.56250	17.83584	-17.65031	-34.59599	17.27220
730.46875	22.66262	-18.44850	-31.35924	22.90454
734.37500	27.08646	-20.85850	-29.33140	25.71633
738.28125	30.70438	-21.65681	-29.31815	21.67830
742.18750	27.47252	-22.85806	-29.70781	30.53408
746.09375	29.07585	-23.25346	-29.29168	34.15168
750.00000	37.12601	-22.44004	-30.08425	32.12828
753.90625	36.31176	-18.40324	-30.87692	31.31367
757.81250	35.49743	-17.58997	-28.04320	31.30495
761.71875	33.47430	-21.61178	-28.83577	31.29626
765.62500	25.00434	-19.18673	-30.83724	24.03483
769.53125	25.39886	-14.34413	-27.60063	23.62315
773.43750	27.40507	-15.54552	-27.58744	29.65833
777.34375	21.75564	-16.74692	-29.18599	26.02324
781.25000	24.97057	-15.12781	-28.76985	30.04379
785.15625	28.99143	-15.52338	-28.75670	34.87016
789.06250	27.77417	-14.30723	-30.75823	31.23505
792.96875	32.19796	-13.89700	-30.74510	23.97351
796.87500	32.18948	-15.90440	-28.71729	26.78521
800.78125	34.59855	-16.30005	-29.91300	28.38814
804.68750	26.93441	-15.88991	-27.48240	29.99104
808.59375	18.86732	-14.67391	-25.45457	35.22042
812.50000	34.17026	-12.24911	-27.05315	33.59994
816.40625	30.93830	-11.83889	-28.24886	23.92074
820.31250	20.05069	-13.84639	-29.04168	27.13540
824.21875	22.86274	-14.24214	-27.41689	33.17057
828.12500	23.25725	-12.62330	-27.00081	25.90912
832.03125	31.71039	-11.00449	-27.39076	26.30336
835.93750	25.65804	-11.80322	-25.36302	21.45949
839.84375	13.56166	-13.40796	-25.34999	16.21266
843.75000	15.56786	-13.80380	-26.14285	24.26254
847.65625	11.93311	-16.21436	-26.53274	20.62750
851.56250	6.68664	-15.40142	-26.11684	8.93381
855.46875	11.91633	-14.58860	-25.70086	15.37200
859.37500	17.14601	-14.98448	-27.29967	20.19844
863.28125	11.49653	-15.78343	-26.48080	21.80150
867.18750	7.86177	-16.98517	-25.25904	20.98698
871.09375	10.67385	-16.97824	-26.85779	21.78411
875.00000	14.29182	-14.95669	-26.03905	22.58121
878.90625	11.46283	-14.54694	-25.62313	15.72267
882.81250	10.24562	-16.15176	-26.41612	19.34028
886.71875	11.04309	-18.56250	-26.00030	21.34617
890.62500	17.07861	-15.33216	-24.37560	20.93453
894.53125	19.89064	-10.49023	-25.16861	17.70235
898.43750	15.85290	-10.08045	-23.14103	19.70823
902.34375	17.05330	-13.29719	-22.72526	19.29651
906.25000	21.47709	-12.48454	-25.53291	14.45263
910.15625	18.24516	-8.04562	-25.52007	16.86141
914.06250	19.84836	-12.87402	-24.29842	17.25561
917.96875	27.09264	-16.49373	-22.27099	17.64982
921.87500	23.86071	-13.66658	-23.86991	14.41765
925.78125	21.83760	-11.64526	-24.66295	13.20012
929.68750	22.63500	-12.44455	-24.65013	11.98260
933.59375	18.59721	-12.43796	-23.42851	16.40612
937.50000	14.15658	-12.43139	-23.41569	18.00907
941.40625	9.71587	-13.23073	-24.61167	11.95642
945.31250	4.87229	-12.41829	-23.39005	11.54472
949.21875	6.07259	-10.80004	-23.37724	14.35654
953.12500	10.89935	-10.39063	-23.36443	16.76537
957.03125	2.42934	-10.78705	-22.94864	15.54790
960.93750	6.85311	-12.39229	-24.54765	11.91279
964.84375	9.26221	-13.19176	-25.74367	12.70993
968.75000	2.00099	-12.78235	-24.92500	12.70119
972.65625	6.82773	-12.77596	-24.91226	7.85729
976.56250	9.63976	-13.97837	-22.48192	11.87780
980.46875	9.22832	-14.37501	-23.67803	13.88366
984.37500	16.06968	-13.15988	-26.08289	8.23388
988.28125	14.44948	-11.94476	-24.86138	7.82216
992.18750	6.78538	-12.34135	-23.63992	15.46912
996.09375	9.19447	-9.51455	-26.44771	13.84861
1000.00000	8.38016	-10.71708	-24.82335	4.57247
1003.90625	4.34243	-11.11373	-24.00479	6.17554
1007.81250	8.76624	-6.27239	-26.81275	8.18147
1011.71875	16.81641	-5.86316	-24.38249	8.97863
1015.62500	14.39036	-7.06576	-24.77277	8.96986
1019.53125	8.33797	-5.44789	-26.77486	8.15525
1023.43750	10.34420	-5.44173	-25.15045	10.16119
1027.34375	11.94751	-7.04729	-22.72026	12.97294
1031.25000	12.34195	-6.23538	-24.31949	13.36715
1035.15625	12.73643	-6.22929	-26.72452	8.92616
1039.06250	17.96610	-8.23782	-25.10017	12.54377
1042.96875	15.54010	-7.82886	-22.67004	12.93803
1046.87500	15.93464	-7.01693	-22.65753	12.12343
1050.78125	17.94090	-6.60803	-19.01873	14.93518
1054.68750	11.08264	-6.60205	-19.00624	14.52351
1058.59375	7.44786	-6.99900	-21.00836	12.90307
1062.50000	9.05109	-6.18728	-19.78709	10.47673
1066.40625	10.25152	-7.39006	-20.58055	13.28848
1070.31250	9.43728	-7.38414	-21.37401	12.47375
1074.21875	12.24933	-5.36366	-20.95855	8.03276
1078.12500	12.24093	-3.74612	-21.34905	10.03872
1082.03125	6.59167	-5.75486	-20.53066	12.85053
1085.93750	10.20972	-6.55492	-20.92112	5.58900
1089.84375	11.81308	-5.74321	-22.11746	1.95387
1093.75000	9.79004	-4.52862	-20.89618	6.37745
1097.65625	13.81107	-4.11994	-19.67491	14.02446
1101.56250	12.59395	-5.32297	-20.46841	13.61280
1105.46875	10.97386	-5.31725	-22.47060	10.78359
1109.37500	14.99486	-5.71440	-22.45815	12.38659
1113.28125	17.00131	-5.30575	-20.02821	8.75164
1117.18750	11.35202	-6.91176	-19.61283	10.35467
1121.09375	10.53765	-8.11489	-20.80927	12.36039
1125.00000	14.15530	-6.90042	-21.19990	8.32192
1128.90625	14.95237	-6.49192	-19.17283	4.68637
1132.81250	11.72015	-8.50104	-19.56326	4.27420
1136.71875	5.26431	-11.31607	-21.16264	6.68241
1140.62500	6.86687	-11.71365	-20.74722	3.04649
1144.53125	9.27512	-13.31997	-16.70546	6.26026
1148.43750	8.05683	-14.92633	-15.88714	18.33824
1152.34375	9.65890	-12.10055	-17.08345	16.31352
1156.25000	12.06674	-11.69234	-15.86236	10.66248
1160.15625	10.04230	-10.47823	-16.65581	8.23481
1164.06250	3.58565	-10.47298	-18.25511	3.38959
1167.96875	2.36708	-12.07943	-17.83987	7.00587
1171.87500	11.22179	-13.68586	-18.23042	18.68078
1175.78125	13.62969	-12.06891	-19.42689	12.62676
1179.68750	6.77018	-11.25777	-18.60876	6.16988
1183.59375	3.13421	-12.86433	-18.59647	6.96585
1187.50000	5.54221	-12.45609	-16.97242	8.56772
1191.40625	5.93577	-13.65965	-18.16902	5.33443
1195.31250	6.32941	-14.86322	-21.38034	-4.74840
1199.21875	9.14071	-13.24630	-18.54768	6.12106
1203.12500	9.93751	-10.82349	-18.53554	16.58777
1207.03125	9.92852	-10.01250	-19.32920	10.53443
1210.93750	12.33723	-8.79850	-20.52587	8.10750
1214.84375	10.31377	-7.58453	-20.51377	9.70999
1218.75000	5.46975	-8.78820	-19.29288	12.52131
1222.65625	-0.58289	-11.20060	-21.69843	12.51216
1226.56250	-0.59141	-14.01610	-21.28352	8.47377
1230.46875	3.83238	-12.39926	-20.46561	7.25609
1234.37500	2.61516	-11.18544	-21.66241	3.62090
1238.28125	-2.63132	-11.18042	-21.65040	-0.82010
1242.18750	-0.22196	-12.38424	-20.02675	4.40924
1246.09375	0.97860	-13.18516	-20.01484	-0.43465
1250.00000	3.38793	-11.56848	-21.21171	5.19768
1253.90625	3.78268	-11.56351	-23.21441	11.23299
1257.81250	2.16283	-11.96146	-23.60552	1.95703
1261.71875	3.36357	-11.95655	-22.78779	4.36602
1265.62500	3.75842	-11.54875	-23.17881	6.77500
1269.53125	9.39140	-9.93220	-24.77873	11.19884
1273.43750	8.57765	-8.71857	-23.96099	8.77289
1277.34375	4.54042	-10.32549	-22.33747	3.52653
1281.25000	7.75595	-11.12656	-23.53449	7.54758
1285.15625	4.52468	-10.71895	-23.52272	3.91288
1289.06250	2.90511	-9.50545	-20.69047	11.15739
1292.96875	8.94118	-5.06858	-19.46993	16.38718
1296.87500	13.36559	-5.06393	-17.84641	7.91733
1300.78125	10.13425	-6.26810	-15.82007	8.31209
1304.68750	14.15570	-2.23421	-14.19666	17.16828
1308.59375	21.80357	-1.82667	-12.97621	26.02450
1312.50000	-9.22991	-13.50714	-12.96456	4.25795
1316.40625	-44.29267	-16.72614	-18.19100	-33.22280
1320.31250	-60.01476	-12.69240	-18.98515	-49.75103
1324.21875	-83.39249	-17.92607	-12.12380	-81.59081
1328.12500	-120.06703	-27.99488	-13.32103	-120.28034
1332.03125	-160.77087	-37.25791	-20.56223	-163.40216
1335.93750	-181.32817	-38.05943	-22.56531	-188.79495
1339.84375	-199.87077	-29.99651	-24.16544	-205.72617
1343.75000	-218.01045	-34.02152	-22.13933	-223.06029
1347.65625	-228.09149	-46.10519	-23.73958	-229.91827
1351.56250	-228.50223	-39.25113	-32.59264	-240.80551
1355.46875	-227.30122	-31.18833	-34.59578	-241.61955
1359.37500	-228.11478	-34.81060	-32.16674	-233.16615
1363.28125	-224.09319	-33.59767	-29.33483	-240.82993
1367.18750	-226.51845	-31.98181	-29.72644	-245.27037
1371.09375	-216.85588	-29.96307	-29.31208	-227.54950
1375.00000	-196.31407	-29.95898	-27.28617	-207.00822
1378.90625	-182.21910	-28.74613	-26.87189	-196.94319
1382.81250	-169.73589	-24.71282	-27.26359	-183.65457
1386.71875	-157.65569	-22.29129	-27.25230	-160.69569
1390.62500	-141.54617	-21.07859	-26.43513	-148.21301
1394.53125	-125.83959	-17.85132	-24.81218	-124.85106
1398.43750	-107.71555	-15.02696	-26.00974	-109.54783
1402.34375	-91.60610	-10.59084	-32.04239	-103.91487
1406.25000	-74.28789	-7.76659	-35.65758	-80.95588
1410.15625	-53.74620	-6.15115	-36.04929	-62.02630
1414.06250	-42.06902	-4.53573	-40.06750	-45.91715
1417.96875	-32.80941	-4.12902	-40.86213	-32.62857
1421.87500	-13.87945	-2.51368	-42.05980	-27.39872
1425.78125	-5.02270	-3.31590	-44.06336	-12.49850
1429.68750	-3.82165	-1.70044	-44.05222	-0.82166
1433.59375	9.46722	-1.69683	-44.84689	3.19936
1437.50000	19.12968	-2.09630	-41.20940	10.84686
1441.40625	23.95708	-2.09282	-36.76618	24.53846
1445.31250	29.18748	-2.49228	-36.75517	35.81251
1449.21875	36.02944	-2.89174	-35.13245	37.41610
1453.12500	45.28911	-0.87380	-36.33025	46.67541
1457.03125	54.14576	1.14423	-39.13971	55.53169
1460.93750	60.18195	0.74454	-37.51701	60.76170
1464.84375	60.17424	1.15080	-35.89420	65.58881
1468.75000	62.98698	2.36284	-36.28624	73.23644
1472.65625	71.44067	1.56010	-36.67820	75.24294
1476.56250	72.23880	1.96621	-37.47318	75.23483
1480.46875	73.84268	3.17818	-37.46231	79.25599
1484.37500	75.44654	0.36084	-35.43677	74.00974
1488.28125	73.42416	0.36398	-37.44060	73.19583
1492.18750	74.62524	3.99344	-38.23556	80.44040
1496.09375	73.81161	5.20531	-36.61307	80.43230
1500.00000	68.16289	4.40250	-36.60234	85.66234
1503.90625	63.31998	1.58497	-37.80040	80.81913
1507.81250	63.31220	-1.23253	-36.17804	74.36414
1511.71875	63.70747	-1.22956	-33.74969	76.77354
1515.62500	64.90863	-1.22662	-33.73899	71.52732
1519.53125	69.33315	-1.22371	-33.32544	72.72803
1523.43750	76.98117	1.59967	-34.52359	73.92876
1527.34375	67.30307	1.19968	-35.31877	61.02699
1531.25000	58.83396	-1.61796	-33.69644	61.42178
1535.15625	66.07908	-4.03270	-32.07422	68.26358
1539.06250	68.08612	-4.02987	-32.86952	75.10531
1542.96875	63.64628	-6.44467	-31.65023	70.26214
1546.87500	52.75947	-9.26239	-28.81925	66.22479
1550.78125	41.87274	-7.64797	-28.80877	67.82842
1554.68750	41.05921	-7.24238	-27.99248	64.19400
1558.59375	50.72190	-7.23970	-28.38493	69.02120
1562.50000	53.93766	-6.83407	-27.16569	64.58092
1566.40625	50.70657	-4.81685	-26.34937	52.48509
1570.31250	53.51944	-4.00835	-27.14489	55.70055
1574.21875	50.69129	-6.82631	-26.32863	58.91591
1578.12500	45.04268	-11.25611	-26.31829	43.59659
1582.03125	40.19992	-12.05941	-28.32266	32.70956
1585.93750	40.99811	-10.04229	-25.49187	50.83337
1589.84375	46.63150	-10.44273	-23.46690	58.88390
1593.75000	45.81798	-11.24621	-25.47138	46.78797
1597.65625	44.19854	-7.61740	-25.05829	40.33303
1601.56250	47.81723	-6.00332	-22.22751	47.17485
1605.46875	49.01831	-6.80676	-21.81450	48.77853
1609.37500	41.75788	-5.19273	-23.41601	43.93532
1613.28125	37.72099	-3.98163	-23.00295	47.55357
1617.18750	33.68404	-4.78527	-25.00753	44.72505
1621.09375	28.84124	-5.99181	-27.01201	40.28484
1625.00000	32.86292	-7.60128	-26.59899	40.27687
1628.90625	32.45244	-8.80789	-27.39468	39.46307
1632.81250	30.43018	-10.41742	-27.38461	35.02291
1636.71875	29.61674	-10.01237	-27.37457	27.35933
1640.62500	33.63858	-6.38383	-27.36454	27.75433
1644.53125	32.82518	-3.96412	-26.54872	32.98452
1648.43750	33.22060	-4.36503	-25.73284	33.78253
1652.34375	31.19840	-3.55708	-25.72287	30.14825
1656.25000	24.34101	-3.55506	-24.10121	28.12570
1660.15625	28.76585	-3.15014	-23.68836	32.55006
1664.06250	27.54962	-1.13345	-24.48422	32.13931
1667.96875	21.09529	-0.32568	-24.47430	28.90809
1671.87500	21.89377	-1.53244	-25.67320	28.09442
1675.78125	25.51267	-3.14234	-26.06621	30.10126
1679.68750	24.69939	-3.54336	-21.22122	35.73451
1683.59375	22.67728	-5.95911	-20.40546	28.07100
1687.50000	21.86390	-6.36020	-22.00731	18.39284
1691.40625	21.45339	-4.74673	-21.59460	22.01142
1695.31250	29.10154	-7.16257	-21.58478	26.83883
1699.21875	28.69107	-9.17541	-21.17208	21.19009
1703.12500	17.80451	-7.56202	-21.56527	13.92954
1707.03125	23.03510	-7.96323	-22.76430	18.35392
1710.93750	25.04235	-7.96156	-21.54581	18.74910
1714.84375	24.63206	-7.15412	-19.52149	20.35298
1718.75000	18.17792	-10.37589	-22.33231	17.92764
1722.65625	5.67990	-12.38897	-21.51674	9.45840
1726.56250	8.89619	-11.98438	-20.29820	12.67420
1730.46875	9.69479	-12.38587	-20.69147	4.60788
1734.37500	8.07592	-11.98137	-22.29371	0.16805
1738.28125	7.26299	-12.38284	-23.08993	16.68075
1742.18750	6.85294	-13.18712	-21.46874	19.49374
1746.09375	8.05474	-11.57391	-21.86210	11.02483
1750.00000	16.10633	-8.75193	-22.25564	5.77945
1753.90625	13.68177	-12.77969	-21.84326	6.57813
1757.81250	13.27208	-15.19579	-20.22219	11.00323
1761.71875	11.65373	-16.40311	-18.19827	14.21963
1765.62500	2.37985	-17.61042	-18.59189	11.79505
1769.53125	7.20848	-14.38549	-20.59718	9.77349
1773.43750	8.81364	-13.17528	-20.18499	9.76668
1777.34375	14.04539	-13.97978	-19.36995	10.96865
1781.25000	18.87436	-13.97846	-17.74886	16.60291
1785.15625	15.64476	-11.15669	-19.75427	14.98436
1789.06250	14.02687	-10.34953	-22.56553	13.36591
1792.96875	14.42355	-11.95998	-21.34754	14.56794
1796.87500	16.43186	-11.95876	-18.92073	10.12882
1800.78125	7.56083	-12.36059	-20.12033	4.07788
1804.68750	1.51027	-12.35947	-21.72279	0.04152
1808.59375	3.51826	-12.35835	-22.92237	7.28719
1812.50000	1.09375	-13.56605	-22.51024	5.26532
1816.40625	-1.33084	-12.75913	-20.08336	5.25804
1820.31250	3.49723	-11.95224	-19.67117	12.10050
1824.21875	1.87847	-13.96590	-20.87072	5.64614
1828.12500	-1.35190	-14.77085	-22.07029	-0.40543
1832.03125	8.31138	-11.14345	-22.46394	6.03375
1835.93750	13.54227	-9.93367	-20.84297	12.47295
1839.84375	-2.58227	-10.73855	-18.81901	4.00364
1843.75000	-6.61896	-12.34947	-17.19807	-3.25691
1847.65625	6.26734	-12.34858	-15.98002	2.77914
1851.56250	4.64813	-11.54182	-18.38837	1.15951
1855.46875	5.84935	-11.54100	-20.39377	-0.46026
1859.37500	11.48279	-12.74899	-19.57879	8.79919
1863.28125	13.48994	-14.76290	-17.95791	7.98547
1867.18750	13.88533	-14.35909	-17.14282	8.38050
1871.09375	6.62500	-11.94069	-17.13360	9.58132
1875.00000	11.45263	-10.32825	-16.72151	11.18519
1878.90625	16.68319	-11.53631	-16.30939	17.22121
1882.81250	11.84051	-13.55026	-16.70329	18.42209
1886.71875	10.62424	-11.13193	-14.67946	15.99666
1890.62500	2.15526	-11.53412	-12.65564	16.39181
1894.53125	0.53620	-14.35394	-14.66114	10.34007
1898.43750	10.19913	-13.14446	-15.05491	7.10883
1902.34375	8.17700	-14.75560	-15.04582	13.14493
1906.25000	0.11108	-14.75493	-17.05151	10.31660
1910.15625	-1.10501	-14.75425	-18.65413	5.07066
1914.06250	2.91701	-14.35061	-20.65976	5.06286
1917.96875	2.10375	-16.36471	-19.84477	5.86098
1921.87500	15.79602	-19.58755	-19.83572	4.64441
1925.78125	16.59451	-17.97526	-19.02091	8.66595
1929.68750	-0.73885	-15.55714	-17.80310	6.64359
1933.59375	-2.76091	-17.57130	-17.79410	5.02418
1937.50000	9.72260	-15.15319	-17.38210	7.83695
1941.40625	8.90940	-13.94389	-18.58193	13.47027
1945.31250	2.45520	-16.36107	-18.57298	16.68594
1949.21875	7.68597	-14.74892	-20.17572	15.06652
1953.12500	9.69320	-13.94256	-20.97273	7.00011
1957.03125	10.89463	-13.13628	-21.36666	4.17178
1960.93750	9.67861	-13.53885	-20.95489	11.41670
1964.84375	6.04507	-15.15017	-18.93141	11.00602
1968.75000	4.42623	-14.34391	-20.13123	10.59534
1972.65625	8.44831	-13.53778	-20.12232	10.58766
1976.56250	9.24693	-14.34327	-18.50172	7.35653
1980.46875	13.26904	-13.94003	-19.29873	9.36346
1984.37500	10.03846	-12.32808	-21.30444	4.92363
1988.28125	5.19613	-12.32785	-19.28094	8.13958
1992.18750	9.21824	-11.52176	-18.06328	14.57894
1996.09375	13.24039	-11.11869	-17.65155	6.91582
2000.00000	15.24796	-10.71555	-15.62802	8.11719
2003.90625	10.80863	-10.31254	-14.81325	17.37709
2007.81250	11.60742	-12.73005	-16.41628	15.35494
2011.71875	10.39161	-11.92408	-18.01923	16.15332
2015.62500	11.59340	-9.10351	-15.99577	12.92236
2019.53125	12.39235	-7.49175	-17.19581	10.09445
2023.43750	9.16200	-6.28291	-19.20177	13.31052
2027.34375	12.37848	-8.29761	-17.58135	9.67673
2031.25000	11.56566	-9.90932	-16.76679	6.04295
2035.15625	15.18500	-8.29769	-18.77275	7.24430
2039.06250	16.38681	-7.89479	-16.34643	16.10142
2042.96875	15.17107	-7.89487	-14.72592	16.89985
2046.87500	15.97000	-6.28324	-16.32907	9.23669
2050.78125	10.32197	-6.68621	-17.12627	13.25850
2054.68750	7.89758	-6.68628	-16.31188	8.01297
2058.59375	5.47340	-5.47764	-16.70623	3.17052
2062.50000	6.67543	-6.28351	-16.29471	11.22190
2066.40625	12.30961	-7.08951	-15.48031	12.02044
2070.31250	13.51162	-5.47793	-14.66584	9.99846
2074.21875	11.49020	-4.26926	-13.44860	10.79700
2078.12500	13.49819	-3.86637	-13.44012	14.41609
2082.03125	15.50616	-3.86650	-13.02867	9.97666
2085.93750	17.11125	-3.46376	-13.42316	11.58109
2089.84375	16.70161	-4.26982	-12.60882	16.00608
2093.75000	18.30656	-3.86701	-11.39163	8.74608
2097.65625	17.89691	-3.86724	-10.17441	8.73884
2101.56250	10.23442	-5.88222	-7.74838	16.38722
2105.46875	8.61597	-7.49424	-7.73994	15.17123
2109.37500	4.98287	-7.89748	-10.14909	7.10537
2113.28125	3.76723	-6.28614	-8.93186	3.06878
2117.18750	8.59547	-5.88364	-8.92344	12.32885
2121.09375	9.39434	-5.48117	-12.54138	20.38021
2125.00000	5.35805	-6.69031	-13.74176	15.94060
2128.90625	6.55999	-5.48207	-12.92748	10.69508
2132.81250	13.00021	-4.27373	-13.32203	4.24083
2136.71875	11.78485	-4.27418	-10.89603	3.02468
2140.62500	9.36053	-3.46878	-8.06716	7.85244
2144.53125	11.77135	-1.85763	-9.26756	8.24792
2148.43750	16.59966	-2.66397	-9.66206	9.04638
2152.34375	23.84558	-3.06754	-8.44488	9.84485
2156.25000	21.42113	-0.65055	-9.24237	8.62864
2160.15625	15.77329	1.76639	-9.23399	13.05353
2164.06250	10.52828	0.55698	-6.80805	14.25492
2167.96875	7.70076	-0.65250	-6.79967	13.44172
2171.87500	12.12611	0.15271	-5.98543	15.85202
2175.78125	8.89571	0.95778	-4.76829	11.00955
2179.68750	6.87410	0.95703	-3.95409	11.40510
2183.59375	9.68764	0.15045	-4.75159	13.00954
2187.50000	10.48649	2.16422	-5.54909	8.97293
2191.40625	13.70298	3.77516	-4.73483	10.57740
2195.31250	13.29307	3.37128	-6.33817	3.31729
2199.21875	10.06259	2.56460	-6.32984	3.71294
2203.12500	6.42919	0.14610	-2.69516	4.91435
2207.03125	11.66026	1.35400	-3.49269	1.68355
2210.93750	23.74111	3.36771	-7.51363	8.52608
2214.84375	7.21395	3.76982	-7.10231	11.74224
2218.75000	-7.70139	4.97759	-3.87060	6.89965
2222.65625	1.15629	3.36495	-1.04174	1.65419
2226.56250	-0.05932	2.15517	-2.24222	3.25855
2230.46875	-0.46913	2.55718	-5.45734	6.47462
2234.37500	1.53859	-1.07024	-7.86661	3.64680
2238.28125	2.74029	-2.28018	-9.87299	2.83350
2242.18750	2.73307	-2.28130	-8.25304	0.40841
2246.09375	-1.70640	-3.08827	-6.63309	1.60957
2250.00000	2.31585	-1.88060	-6.22184	7.24299
2253.90625	7.14371	-0.67301	-7.82532	4.81753
2257.81250	1.49520	0.13163	-7.41407	4.40665
2261.71875	10.35214	-0.27262	-6.60002	7.62206
2265.62500	14.77667	-0.27389	-6.99471	7.61395
2269.53125	-1.34830	-0.67813	-7.79237	5.59111
2273.43750	6.70243	0.52931	-8.58996	5.98572
2277.34375	12.33565	2.54261	-7.77595	5.17154
2281.25000	6.68684	1.33239	-6.96187	9.59548
2285.15625	9.49960	0.52509	-5.34201	13.61653
2289.06250	13.92405	-0.28224	-5.73679	14.81711
2292.96875	10.29000	0.52222	-10.16082	7.95911
2296.87500	13.10286	0.52077	-9.74983	3.11583
2300.78125	8.66312	-0.68952	-7.32408	7.13710
2304.68750	3.01461	-1.89982	-7.71895	1.48806
2308.59375	0.58957	-3.51301	-6.09908	-4.16086
2312.50000	0.98515	-4.32042	-5.28517	-2.55704
2316.40625	1.38073	-2.71013	-6.08292	-0.95320
2320.31250	-1.44704	-1.50285	-8.49244	-0.96102
2324.21875	0.15738	-1.90740	-8.48440	4.67227
2328.12500	1.35895	-2.71475	-8.87937	4.26170
2332.03125	4.57535	-4.32809	-11.69192	9.08928
2335.93750	2.15094	-3.12084	-12.48979	7.06713
2339.84375	0.93526	-1.91360	-10.87014	1.01579
2343.75000	2.94301	-5.54156	-10.05629	5.03784
2347.65625	1.32442	-3.93132	-11.66021	1.40430
2351.56250	-4.72627	-7.15639	-13.26402	-1.42334
2355.46875	-13.59741	-11.18728	-14.86790	2.19593
2359.37500	-3.12799	-9.57720	-14.45713	6.62107
2363.28125	6.93858	-6.75821	-12.03169	-3.86209
2367.18750	8.94667	-5.95402	-13.63557	-11.52475
2371.09375	7.32843	-5.95563	-15.64244	-8.30822
2375.00000	-3.15415	-6.76308	-14.82876	-8.31522
2378.90625	-1.14598	-8.37654	-12.00040	-2.68125
2382.81250	6.90619	-8.78111	-11.99264	0.93832
2386.71875	14.55542	-7.97693	-11.17899	0.52864
2390.62500	14.14608	-8.38165	-9.96243	5.76006
2394.53125	4.46931	-6.77156	-10.76062	3.73869
2398.43750	4.46291	-6.37043	-9.54410	2.12014
2402.34375	4.85948	-7.17814	-8.73058	8.96318
2406.25000	1.62970	-6.37404	-7.51412	8.95649
2410.15625	3.23507	-4.76417	-8.71527	5.72631
2414.06250	8.06388	-3.96013	-8.70759	10.55476
2417.96875	9.66927	-3.96196	-7.49112	9.33922
2421.87500	4.82785	-1.54619	-9.90098	8.52662
2425.78125	4.01552	-0.33937	-9.49047	11.34040
2429.68750	11.26176	-0.34128	-6.25944	6.49836
2433.59375	11.25528	-0.74612	-6.65477	6.89456
2437.50000	7.21963	-1.15097	-7.85602	6.48484
2441.40625	4.79592	-1.15296	-6.63960	4.46340
2445.31250	8.01309	-1.15498	-6.22910	5.26253
2449.21875	14.05079	-0.75408	-7.02741	9.28505
2453.12500	13.23865	0.04982	-6.21411	14.91927
2457.03125	12.42640	-0.35522	-7.01245	14.91251
2460.93750	8.79363	-0.76020	-7.81077	10.07060
2464.84375	2.74324	-1.56810	-6.59445	5.22874
2468.75000	7.57195	-1.57020	-4.57228	8.84841
2472.65625	8.37131	-1.16943	-5.77360	14.88563
2476.56250	7.55904	-0.76865	-8.58668	10.44670
2480.46875	9.56732	-0.77076	-8.17628	10.43981
2484.37500	7.94934	-1.17584	-7.36301	10.03002
2488.28125	6.73426	-0.77520	-5.74375	5.59104
2492.18750	3.90746	2.04301	-4.12463	4.37551
2496.09375	3.09527	0.42901	-6.53473	6.38344
2500.00000	5.90947	-1.99092	-8.13895	10.40605
2503.90625	1.87378	-0.78449	-7.72852	8.78756
2507.81250	5.89658	-1.59270	-7.31812	12.00433
2511.71875	7.50183	-2.80391	-8.51942	5.95372
2515.62500	5.07784	-6.83564	-8.51191	4.73825
2519.53125	12.72714	-8.04689	-6.08680	23.26636
2523.43750	8.69142	-2.40838	-8.49694	13.58925
2527.34375	-1.79116	0.40969	-10.90697	-0.52007
2531.25000	1.82881	-1.20449	-12.10832	1.89070
2535.15625	3.03106	-1.60988	-14.11556	3.09273
2539.06250	7.45693	-2.01537	-12.49646	11.95040
2542.96875	12.28567	-2.01792	-10.07149	4.69095
2546.87500	5.83241	-2.42340	-10.46705	-0.15094
2550.78125	3.81130	-3.23182	-10.05675	3.87156
2554.68750	11.86350	-0.81680	-9.64641	2.65592
2558.59375	15.48350	0.38941	-10.04206	3.85789
2562.50000	12.25362	-0.41913	-9.63176	7.88040
2566.40625	3.38268	-0.42179	-15.66852	7.47067
2570.31250	5.39086	1.59021	-18.48171	9.88149
2574.21875	19.48692	2.39346	-13.63925	13.09818
2578.12500	18.67456	3.19658	-10.40866	10.27091
2582.03125	10.60948	3.99977	-8.78973	12.68171
2585.93750	12.21474	4.80290	-9.58836	8.24270
2589.84375	19.05809	4.80018	-10.78997	8.23593
2593.75000	11.79880	4.79745	-10.78280	6.21445
2597.65625	7.36011	8.42111	-11.17865	4.59588
2601.56250	11.78594	6.00075	-9.55970	11.43882
2605.46875	8.55603	1.96866	-7.94091	14.65541
2609.37500	10.56422	4.38348	-9.14264	9.00757
2613.28125	10.96073	9.21586	-8.32970	5.37425
2617.18750	14.17766	12.03353	-5.90499	12.21722
2621.09375	25.05039	9.21020	-5.09208	13.82209
2625.00000	22.22345	7.59570	-5.48797	8.57720
2628.90625	13.35249	10.41335	-5.07809	9.37625
2632.81250	10.92854	9.20168	-5.47400	8.56353
2636.71875	9.31040	8.79583	-8.28758	3.72146
2640.62500	9.70695	8.79297	-7.87760	3.71460
2644.53125	15.34146	8.38717	-6.66179	1.29025
2648.43750	14.12621	7.98131	-7.46064	-0.32825
2652.34375	13.71692	7.97838	-6.64771	4.50008
2656.25000	14.51639	7.57258	-6.23777	9.32843
2660.15625	6.85434	6.36082	-5.42496	7.70992
2664.06250	9.26554	4.34310	-3.00047	7.70316
2667.96875	10.06501	3.13125	-5.81398	2.05540
2671.87500	7.23814	3.93408	-7.01585	0.83987
2675.78125	10.45515	4.33395	-6.20304	4.86254
2679.68750	1.98718	4.33091	-6.59903	5.25880
2683.59375	-2.04862	3.92493	-6.18922	4.04329
2687.50000	6.40650	4.72767	-7.79412	-4.82785
2691.40625	11.63839	3.91874	-10.60766	-3.62573
2695.31250	11.63225	2.70684	-9.79489	6.03797
2699.21875	9.61162	1.89787	-8.57924	6.83754
2703.12500	11.62038	2.29776	-5.75183	6.83140
2707.03125	7.58523	4.71215	-6.55073	10.85453
2710.93750	-0.07622	3.50031	-7.34985	6.01315
2714.84375	-0.08172	3.89999	-8.95486	2.78372
2718.75000	3.53934	2.28518	-10.55985	4.79245
2722.65625	4.74272	-0.94147	-8.13536	-0.04859
2726.56250	1.91685	1.87583	-6.91959	-2.87490
2730.46875	1.50870	4.29023	-8.52470	-2.07474
2734.37500	6.33861	1.46649	-9.32388	-1.67741
2738.28125	6.73630	1.86619	-10.12317	1.94344
2742.18750	5.92528	4.28055	-11.72836	-4.10600
2746.09375	8.33772	1.45679	-10.11027	1.52953
2750.00000	10.75002	1.05062	-8.08909	12.40310
2753.90625	10.74478	1.04725	-7.67960	10.38291
2757.81250	8.72501	-3.38843	-8.07609	9.16848
2761.71875	1.06415	-4.19760	-8.06959	13.19212
2765.62500	3.07352	-0.97763	-8.06305	8.75425
2769.53125	8.70920	-0.57818	-9.66837	1.89861
2773.43750	7.89801	-0.98448	-9.66234	-0.12181
2777.34375	15.54833	-2.59967	-9.65616	7.93102
2781.25000	15.94582	-4.61790	-11.26167	4.70171
2785.15625	12.71681	-3.41267	-12.06167	3.48698
2789.06250	14.72575	-3.41623	-10.04104	9.92795
2792.96875	16.33167	-4.62862	-9.63213	3.47502
2796.87500	17.93762	-6.64681	-10.02930	8.30396
2800.78125	12.69371	-9.06804	-8.41182	11.11816
2804.68750	-0.60903	-5.44533	-9.61498	-2.58778
2808.59375	-4.64446	-3.43438	-12.42997	-1.38545
2812.50000	3.00521	-3.43807	-12.82741	9.08429
2816.40625	5.41660	-0.62139	-12.41913	3.83951
2820.31250	9.43965	-1.43105	-12.41367	4.63869
2824.21875	17.08909	-2.24085	-11.60242	9.87010
2828.12500	11.03881	-5.87115	-11.59744	7.84868
2832.03125	11.03241	-11.91898	-11.99546	5.02150
2835.93750	16.26401	-11.11716	-8.36418	11.46160
2839.84375	13.43709	-9.91255	-7.15069	15.88708
2843.75000	13.43073	-11.12540	-8.35502	16.28327
2847.65625	15.43901	-11.53265	-9.15645	16.27654
2851.56250	18.65612	-10.73101	-9.15211	11.43456
2855.46875	17.44094	-10.33242	-8.34207	16.26284
2859.37500	17.83745	-11.14257	-6.32322	17.06185
2863.28125	20.24847	-12.75876	-5.51329	17.05500
2867.18750	14.60091	-13.56902	-5.50935	20.67453
2871.09375	15.40019	-11.55895	-3.89379	21.07058
2875.00000	21.43765	-13.57808	-5.09892	18.64605
2878.90625	18.20779	-17.20900	-6.30402	11.38638
2882.81250	16.99253	-16.81065	-5.89742	8.55887
2886.71875	17.38900	-17.21812	-5.89380	14.99876
2890.62500	13.75613	-16.01387	-6.69605	18.21532
2894.53125	10.52623	-16.42134	-5.08066	17.80550
2898.43750	13.34027	-17.23182	-5.07715	18.60449
2902.34375	18.16915	-13.60999	-7.08839	14.16547
2906.25000	8.49265	-12.40577	-5.07017	12.94989
2910.15625	6.06885	-14.82798	-7.08134	14.15185
2914.06250	14.92721	-15.63840	-9.89847	12.53345
2917.96875	14.92114	-15.24000	-8.68615	15.34734
2921.87500	10.88568	-17.66206	-7.47383	12.11720
2925.78125	5.23855	-18.06958	-5.05265	8.08131
2929.68750	4.42645	-15.65646	-4.24312	6.46302
2933.59375	8.85252	-15.25800	-5.44809	8.47109
2937.50000	11.26399	-19.29169	-5.84717	14.10563
2941.40625	5.61686	-20.50487	-6.24611	12.48744
2945.31250	0.77566	-19.70333	-6.24202	9.25745
2949.21875	1.17263	-20.11060	-6.23804	9.25099
2953.12500	9.22520	-16.48851	-9.05441	9.64755
2957.03125	7.20452	-15.68704	-7.84153	8.83522
2960.93750	3.16923	-14.48255	-5.82263	11.64941
2964.84375	10.01314	-13.27806	-6.62433	3.58439
2968.75000	4.76929	-15.29701	-5.00836	5.18985
2972.65625	-4.90681	-15.70418	-5.81004	9.21294
2976.56250	-2.49499	-15.30554	-7.82043	1.55109
2980.46875	-1.69487	-15.71267	-8.21893	6.38018
2984.37500	-2.10353	-12.89638	-7.40866	7.58284
2988.28125	-1.70648	-9.67708	-9.01599	0.32403
2992.18750	1.51109	-8.06960	-9.81758	5.95893
2996.09375	6.34038	-6.86502	-10.61897	5.54980
