 	TP9	AF7	AF8	TP10	
-1000.00000	10.01260	-22.44388	19.40726	17.01586
-996.09375	5.58107	-22.85183	21.01284	10.47423
-992.18750	11.22269	-20.43934	21.81251	5.45109
-988.28125	12.43215	-22.05610	24.62682	7.44380
-984.37500	14.85039	-19.64358	27.84408	12.31362
-980.46875	18.07446	-20.05166	27.83791	15.70664
-976.56250	20.89559	-25.29486	28.63765	19.14255
-972.65625	28.14898	-24.89694	29.43734	29.60237
-968.75000	32.58186	-22.88745	27.81941	33.01523
-964.84375	43.46159	-24.50427	28.61914	33.02053
-960.93750	45.07396	-22.49480	30.62763	43.03222
-957.03125	40.64235	-23.30572	31.02436	47.14758
-953.12500	41.04586	-26.13135	30.61529	43.65067
-949.21875	41.04648	-20.09259	28.59447	40.84143
-945.31250	42.65885	-18.88893	30.20001	42.06112
-941.40625	40.64486	-19.29699	30.99972	39.36097
-937.50000	37.42202	-20.51094	32.60530	38.48665
-933.59375	29.76693	-22.12775	34.21085	33.49503
-929.68750	24.12656	-19.31243	32.99589	28.09858
-925.78125	28.55943	-19.31760	31.78093	31.37322
-921.87500	23.72484	-22.54623	30.96892	30.88455
-917.96875	21.30783	-25.37192	29.75394	29.83111
-914.06250	26.94944	-24.97413	27.73310	29.35715
-910.15625	28.96468	-22.15883	27.72691	21.77974
-906.25000	25.74184	-24.17872	29.33250	21.09906
-902.34375	10.02814	-26.60150	29.72921	21.22936
-898.43750	10.43167	-24.59199	29.72302	18.76717
-894.53125	18.49086	-26.61189	28.91099	17.13665
-890.62500	8.41824	-27.02001	26.08433	14.22659
-886.71875	7.61299	-25.41353	26.48110	15.66683
-882.81250	13.25457	-24.61283	27.68368	20.46880
-878.90625	13.25515	-23.00635	25.66286	10.53746
-875.00000	14.06158	-20.59402	25.25377	9.32744
-871.09375	12.85334	-21.00213	26.05346	13.89833
-867.18750	9.63040	-21.41038	23.22680	4.99841
-863.28125	8.82510	-17.78922	20.40006	-0.00654
-859.37500	-0.84462	-15.77977	18.78216	-0.89860
-855.46875	-3.66447	-20.62023	19.98477	-0.11107
-851.56250	-6.88727	-21.83427	22.79909	-2.57626
-847.65625	-14.54234	-17.40729	23.59875	0.37207
-843.75000	-11.72124	-18.21837	22.78674	-2.72480
-839.84375	-13.33229	-23.05880	21.16886	-11.91041
-835.93750	-14.13748	-23.06408	21.16269	-8.75697
-832.03125	-8.49593	-21.45764	21.96238	-5.38091
-828.12500	-5.27189	-21.46291	22.76207	-4.66372
-824.21875	-1.24199	-22.27400	20.74126	-4.61167
-820.31250	-4.06189	-25.50279	17.51165	-10.40769
-816.40625	-16.14919	-20.67292	17.10253	-10.15976
-812.50000	-14.13388	-19.46942	19.11103	-4.18662
-808.59375	-10.50700	-23.10111	19.10489	-5.27813
-804.68750	-7.28297	-18.27127	17.48703	-6.87858
-800.78125	-3.65597	-13.44144	18.68967	-4.04348
-796.87500	-8.08766	-13.44677	17.87766	-9.55308
-792.96875	-9.69881	-12.64620	14.24507	-18.73647
-789.06250	-9.29527	-11.03981	11.82131	-17.59250
-785.15625	-1.23607	-11.44807	11.81514	-3.88767
-781.25000	-8.08526	-18.30318	13.82368	-4.09797
-777.34375	-10.50225	-19.51731	15.02624	-5.72370
-773.43750	-9.29286	-17.50803	15.82598	-3.09527
-769.53125	-18.96263	-16.30459	14.61102	-15.41994
-765.62500	-11.30634	-14.29526	15.81367	-10.55079
-761.71875	-7.27644	-12.68886	16.61336	-3.72001
-757.81250	-6.87290	-11.48545	15.80135	-0.68193
-753.90625	-12.51335	-15.92295	15.79519	-6.41879
-750.00000	-6.06587	-13.10784	14.17727	-4.40471
-746.09375	1.18742	-8.68098	9.73885	-0.27853
-742.18750	-6.46771	-10.29811	9.32978	-9.35569
-738.28125	-8.88463	-13.52698	12.94995	-10.13740
-734.37500	-10.89878	-13.12940	13.34675	-6.14044
-730.46875	-9.68946	-9.50845	12.53474	-11.14290
-726.56250	-9.68886	-11.12552	12.52858	-8.12975
-722.65625	-11.70293	-11.13089	10.10483	-2.87307
-718.75000	-8.47886	-9.12161	10.50161	-6.28373
-714.84375	-1.62840	-7.51527	10.49545	-3.46642
-710.93750	0.78982	-5.90897	9.68337	3.44717
-707.03125	-4.44761	-5.10852	11.28896	2.55748
-703.12500	-4.04401	-5.91979	11.68567	-4.82261
-699.21875	-5.25216	-7.13399	11.27660	0.00340
-695.31250	-1.22222	-6.73642	12.07626	4.02398
-691.40625	6.03117	-5.93599	12.47304	-0.92939
-687.50000	2.00244	-5.94141	11.66096	-2.47044
-683.59375	-0.41460	-3.93219	11.65478	-1.10301
-679.68750	3.21242	-3.53469	8.42521	-4.97173
-675.78125	1.19833	-1.92845	6.00143	-7.03539
-671.87500	-0.41284	0.88659	7.60694	-2.91813
-667.96875	4.82585	-0.73056	8.00373	0.95802
-664.06250	6.84109	0.47278	7.99756	6.26928
-660.15625	5.22997	1.27318	7.58843	7.40194
-656.25000	3.21592	2.87940	5.56761	-2.79434
-652.34375	7.24581	4.48567	5.15855	-3.72829
-648.43750	6.44051	-0.75792	5.55529	-0.05507
-644.53125	2.81469	0.44539	6.35504	3.59240
-640.62500	5.23289	2.45455	5.14010	0.05774
-636.71875	11.68039	-2.78906	6.34275	-7.02132
-632.81250	12.08387	-2.39168	7.14246	-2.95665
-628.90625	2.81707	2.03504	5.12164	-1.88758
-625.00000	-0.80869	0.41782	5.51836	-3.89882
-621.09375	-0.80812	-0.39354	5.10929	-6.45294
-617.18750	-0.00173	2.42141	5.50601	0.43443
-613.28125	-0.40412	4.83340	6.70862	-0.60248
-609.37500	-0.40354	-0.00726	5.89660	-2.52872
-605.46875	-2.01467	-1.62450	7.90506	-0.09060
-601.56250	-1.20824	-1.22713	7.89888	-4.47305
-597.65625	0.40410	-6.06783	3.86340	-2.58399
-593.75000	-6.04219	-6.07338	4.26011	-6.73759
-589.84375	-7.25040	-3.66133	7.47737	-9.63763
-585.93750	-3.62339	-4.47278	9.08292	-9.96837
-582.03125	-3.21989	-6.09004	7.86793	-11.32751
-578.12500	2.01878	-6.09560	10.27933	-7.20741
-574.21875	3.63107	-4.89237	9.46724	-2.82502
-570.31250	-0.80059	-6.50971	6.23764	0.55562
-566.40625	-4.82931	-7.72405	6.63436	-1.70478
-562.50000	-1.20242	-7.72963	6.62817	-4.45227
-558.59375	1.61869	-10.55576	6.62197	-2.14977
-554.68750	-8.05116	-13.38185	5.80995	-2.96475
-550.78125	-8.05061	-12.17865	7.01257	-2.97716
-546.87500	0.00854	-11.78135	4.18581	-10.35914
-542.96875	-1.19972	-11.78697	3.37378	-13.66436
-539.06250	-2.81086	-8.97205	3.77053	-11.58269
-535.15625	1.21902	-6.96299	1.34674	-12.79450
-531.25000	-3.21267	-8.58041	4.16102	-4.52332
-527.34375	-7.64437	-11.40654	4.15481	-10.55104
-523.43750	2.42949	-6.97990	2.53689	-9.55093
-519.53125	-4.41978	-9.00021	2.53068	-1.65623
-515.62500	-8.85136	-15.04985	4.13617	-4.10554
-511.71875	0.81947	-10.62325	6.14462	-2.87557
-507.81250	2.02880	-5.79375	4.92956	-1.88218
-503.90625	4.44698	-7.81408	4.92332	-0.57527
-500.00000	7.26811	-9.43148	4.51417	-3.79578
-496.09375	6.86579	-8.63133	5.71673	1.75072
-492.18750	12.91051	-3.39882	5.71051	10.83033
-488.28125	18.55235	-6.22493	4.09253	5.97354
-484.37500	20.16510	-7.43934	3.28039	9.23206
-480.46875	11.30173	-2.60978	2.87120	11.41697
-476.56250	6.06493	-3.42129	3.67078	10.42149
-472.65625	14.93087	-5.03860	2.85867	12.01786
-468.75000	14.52948	-5.44716	3.65824	10.59670
-464.84375	23.39562	-3.03521	3.65196	15.84130
-460.93750	29.44129	-0.22036	1.22812	17.39271
-457.03125	30.65185	-0.62890	2.02773	25.53865
-453.12500	29.44478	-1.44046	2.02148	13.58151
-449.21875	20.58203	-1.44610	3.22404	5.13256
-445.31250	22.59838	-3.06347	4.82952	18.03853
-441.40625	19.77954	-2.66627	4.42031	19.36891
-437.50000	11.31966	-4.28368	3.60819	18.49581
-433.59375	12.93302	-3.48354	2.79609	14.31126
-429.68750	16.96389	1.74887	3.19273	11.33345
-425.78125	15.35368	-1.88319	5.20112	6.14760
-421.87500	6.08774	1.33454	6.80662	3.64516
-417.96875	6.08915	5.76101	3.57689	0.17507
-414.06250	8.91107	-4.72094	2.36183	0.10492
-410.15625	-1.16092	-9.56184	5.98198	2.60165
-406.25000	-7.60658	-5.53830	2.75226	-0.89880
-402.34375	-7.20254	-5.94698	1.13425	-1.17080
-398.43750	-12.84258	-5.95278	5.96321	2.00863
-394.53125	-16.87091	-6.36156	4.74818	-3.65079
-390.62500	-20.49633	-5.96441	2.72733	-9.78391
-386.71875	-5.18425	-1.13509	1.91523	-10.35803
-382.81250	12.14245	-3.15556	3.11784	-7.97339
-378.90625	-7.19757	-6.38487	3.11166	-6.21956
-375.00000	-10.01750	-8.00243	0.28500	-10.24997
-371.09375	3.68260	-12.84351	4.71109	-8.49947
-367.18750	-1.55508	-12.44644	3.09321	-4.90852
-363.28125	-8.80739	-11.64651	0.66954	-4.27244
-359.37500	-13.23936	-9.23481	2.67810	-0.32943
-355.46875	-13.64200	-6.42021	1.86610	-1.55681
-351.56250	-12.43296	-7.23196	3.87465	-4.82810
-347.65625	-16.86509	-8.44669	2.25685	-6.31232
-343.75000	-20.49124	-13.69072	1.44491	-1.75388
-339.84375	-15.25303	-15.30844	1.84171	-0.06080
-335.93750	-9.61199	-13.70261	3.44736	-2.95166
-332.03125	-12.02949	-10.88804	3.03832	-5.62000
-328.12500	-6.38846	-6.46172	3.83807	-5.30611
-324.21875	2.07309	-7.67645	6.24960	-2.03113
-320.31250	-5.17964	-4.86187	9.46697	-1.38069
-316.40625	-12.83534	-3.25605	8.25207	-0.32732
-312.50000	-11.22363	-8.50010	7.44012	0.00425
-308.59375	-15.65593	-10.11783	8.64282	0.52391
-304.68750	-18.47643	-10.12376	7.42793	-3.89754
-300.78125	-10.41782	-7.30913	5.81013	-9.92732
-296.87500	-11.62661	-6.91220	2.98351	-14.63161
-292.96875	-18.47642	-10.14161	2.17155	-21.39790
-289.06250	-18.07342	-11.75923	1.76251	-18.23972
-285.15625	-16.05881	-10.55638	4.57698	-18.63790
-281.25000	-20.89399	-10.15942	7.79435	-22.87803
-277.34375	-26.13205	-12.58289	5.77360	-24.50427
-273.43750	-29.35541	-12.58882	5.36457	-26.71143
-269.53125	-34.99639	-11.38594	4.14966	-29.36622
-265.62500	-31.37007	-11.79488	4.94939	-26.91510
-261.71875	-26.93766	-11.39782	5.74919	-27.33747
-257.81250	-22.50534	-8.98627	4.53428	-26.31441
-253.90625	-22.90816	-10.20101	4.12523	-25.20177
-250.00000	-26.93735	-10.20695	2.50742	-23.99392
-246.09375	-28.54890	-7.79530	-2.33389	-32.35890
-242.18750	-29.75754	-6.99540	-0.72826	-37.40710
-238.28125	-22.10174	-8.21013	1.68318	-22.07191
-234.37500	-22.90733	-7.41023	0.06537	-23.71644
-230.46875	-27.74232	-6.61038	1.67093	-31.13677
-226.56250	-21.69809	-9.43688	1.26191	-25.70633
-222.65625	-8.80403	-11.86047	-1.16183	-22.46464
-218.75000	-10.01261	-8.24005	0.04083	-25.06969
-214.84375	-24.92080	-5.42553	4.46696	-25.87899
-210.93750	-18.87655	-5.83445	3.25205	-16.54806
-207.03125	-6.38541	-4.63165	0.82834	-14.21462
-203.12500	-0.34114	-7.05525	0.01637	-17.96855
-199.21875	14.16465	-4.24072	3.23368	2.97461
-195.31250	25.04409	-1.42625	4.03340	7.80079
-191.40625	22.62680	-3.44692	5.23607	-1.58493
-187.50000	21.82127	-4.66176	8.05042	8.96178
-183.59375	26.65673	-4.26484	8.04428	15.56713
-179.68750	30.28344	-4.67383	10.05278	23.38324
-175.78125	35.92483	-6.69454	9.24081	34.21323
-171.87500	39.55151	-4.68591	8.83172	38.73328
-167.96875	43.58115	-3.88611	11.64615	36.16241
-164.06250	45.59615	-3.08630	13.25171	38.25005
-160.15625	37.53790	-3.09236	14.85733	40.59138
-156.25000	30.28552	-5.91890	12.83656	34.42428
-152.34375	30.28589	-7.93960	13.23332	34.29612
-148.43750	33.10678	-6.33388	13.22719	35.14863
-144.53125	32.30134	-5.53412	13.22105	30.73737
-140.62500	25.04900	-7.15192	12.81204	30.82898
-136.71875	25.04941	-5.54623	9.58245	36.24070
-132.81250	27.06445	-6.35812	7.96458	28.21734
-128.90625	19.40917	-6.76715	7.95846	22.03356
-125.00000	20.21552	-3.54977	9.56409	26.46914
-121.09375	20.61888	-4.76465	9.15504	21.90034
-117.18750	16.18709	-3.96495	8.34307	21.93778
-113.28125	14.97867	-1.15049	9.14281	20.49786
-109.37500	12.15860	-4.38002	9.13666	11.31879
-105.46875	7.72693	-7.20663	8.32465	9.32479
-101.56250	7.32454	-7.21272	9.12436	10.18047
-97.65625	7.32510	-6.01001	9.92403	13.27841
-93.75000	2.89338	-7.22491	7.90322	10.33370
-89.84375	2.49105	-4.00759	4.27070	7.43371
-85.93750	7.32677	-1.19312	3.05571	11.13236
-82.03125	8.93905	-4.42270	6.67588	13.39961
-78.12500	5.31315	-4.42880	6.26683	11.47589
-74.21875	4.91072	-5.24081	4.64894	13.84375
-70.31250	5.31422	-4.44103	5.04576	7.95701
-66.40625	2.49423	-1.62667	5.84545	0.05562
-62.50000	5.31525	-3.24455	7.04810	3.75509
-58.59375	-1.13113	-3.65359	7.44492	5.65471
-54.68750	-6.77163	-5.27150	7.84167	6.04857
-50.78125	-2.74181	-4.87471	7.83552	5.23037
-46.87500	-1.93541	-5.68671	7.42649	1.87776
-42.96875	-7.57593	-9.31926	7.01742	0.18425
-39.06250	-7.97832	-8.92245	7.41423	3.87770
-35.15625	-1.12796	-7.71980	7.81099	6.29230
-31.25000	-2.73909	-4.09963	6.19317	-0.74788
-27.34375	-5.15614	-4.50869	6.58992	-3.14910
-23.43750	-7.57320	-7.73831	6.58380	-3.35777
-19.53125	-11.60198	-7.34162	5.77183	-1.10406
-15.62500	-3.94576	-3.31853	4.95987	2.49070
-11.71875	0.08405	-0.90712	6.56544	4.12365
-7.81250	-6.36235	-5.34557	6.96227	6.32593
-3.90625	-10.79404	-6.15762	5.74736	4.40937
0.00000	-9.58481	-4.55211	6.54709	-2.43756
3.90625	0.08599	-4.96131	7.74979	4.72049
7.81250	0.89231	-5.37051	9.75832	3.72671
11.71875	-4.34532	-2.55621	7.33467	-1.53323
15.62500	1.29619	-5.38304	4.50799	2.93374
19.53125	2.90836	-6.19514	4.50187	4.31214
23.43750	5.32640	-5.39556	1.27232	7.34524
27.34375	10.96790	-7.01351	2.47502	19.01400
31.25000	2.10385	-5.00511	4.08065	15.57719
35.15625	-3.93967	-4.60844	2.05990	4.70354
39.06250	10.16329	-3.00302	4.06843	12.29776
42.96875	10.96960	-2.60634	4.06234	9.56336
46.87500	3.31434	-3.01559	3.25035	4.45487
50.78125	11.77634	-1.81308	4.45303	15.74831
54.68750	12.17972	-2.22232	2.43228	7.29782
58.59375	-1.51937	-1.01982	2.42618	8.62711
62.50000	0.09288	-1.02611	0.80839	9.36464
66.40625	5.33154	0.17639	1.20518	-1.67080
70.31250	5.73501	3.79640	-0.81556	8.64713
74.21875	10.57067	2.98423	-3.23918	6.28086
78.12500	2.51262	0.15740	0.38108	4.98643
82.03125	8.55713	4.18037	2.38964	16.02108
85.93750	10.16933	7.80045	1.17474	9.50328
89.84375	10.57276	1.75009	3.18329	6.35830
93.75000	8.15562	-2.68845	3.98309	1.64849
97.65625	-3.12597	-3.09776	1.55939	-11.11493
101.56250	-1.11082	-1.89530	1.55331	-0.68324
105.46875	0.90434	2.53060	0.33844	-5.53712
109.37500	-3.93033	2.52422	-0.87647	-12.07348
113.28125	-7.15330	-0.30273	-0.88258	-5.39501
117.18750	-5.94402	4.12313	-1.29158	-6.63686
121.09375	-5.13774	9.35482	-2.90941	-10.52412
125.00000	-7.15189	6.52791	-3.72138	-11.73410
128.90625	-15.20995	2.49220	-2.51868	-8.37172
132.81250	-9.56849	2.88868	-1.31597	-10.82453
136.71875	-4.32991	1.67344	-2.93379	-17.84402
140.62500	-6.34407	4.08462	-2.93988	-20.34767
144.53125	-2.31429	9.31629	-2.54302	-18.35119
148.43750	-4.73139	10.92152	-3.75790	-22.42805
152.34375	-9.96900	7.69167	-4.56983	-21.89721
156.25000	-9.96850	2.85002	-5.78469	-16.93538
160.15625	-4.32703	4.85820	-5.38781	-17.65941
164.06250	-5.13240	7.26936	-8.21442	-18.53505
167.96875	-11.98172	8.47170	-8.22050	-22.81458
171.87500	-13.59298	6.04764	-6.21194	-28.14122
175.78125	-16.01004	4.83235	-8.63553	-34.53590
179.68750	-16.41247	7.24345	-5.82111	-32.67616
183.59375	-12.78564	4.01351	-4.21548	-27.99580
187.50000	-14.39684	2.79820	-7.04206	-30.08125
191.40625	-15.20217	3.59753	-5.03350	-25.53155
195.31250	-13.99288	2.78518	-4.23371	-28.34064
199.21875	-20.84227	1.16697	-4.64269	-30.34050
203.12500	-13.99186	1.96630	-4.64876	-21.34439
207.03125	-7.14162	1.55680	-5.46069	-28.51305
210.93750	-3.51468	0.74442	-5.86969	-25.35425
214.84375	-1.49952	5.17016	-5.87577	-16.48440
218.75000	-8.75171	7.17827	-7.09065	-25.55897
222.65625	-11.57180	3.94827	-7.09674	-29.19923
226.56250	-14.39179	4.34466	-5.89401	-24.15297
230.46875	-15.19711	4.33811	-6.70593	-26.40425
234.37500	-16.00252	3.12274	-7.92083	-30.39945
238.28125	-16.80793	2.31035	-7.92691	-27.59772
242.18750	-12.37517	-0.11381	-5.91831	-19.72433
246.09375	-17.61276	2.29722	-6.32733	-19.81997
250.00000	-18.41811	3.90235	-6.33339	-19.82042
253.90625	-9.15025	0.67233	-3.92186	-12.87364
257.81250	-6.73216	1.06873	-1.10743	-10.66861
261.71875	-1.49357	5.09146	-1.51639	-13.86774
265.62500	1.32741	1.86144	-1.92538	-17.12341
269.53125	-4.71599	-3.78617	0.48616	-8.42605
273.43750	-5.92427	-0.97222	-0.72870	-4.60685
277.34375	-7.53554	0.22999	-2.34644	-7.00574
281.25000	-13.98184	-9.04401	-1.54667	-4.37233
285.15625	-15.99609	-8.64770	-0.34394	-12.03106
289.06250	-11.16050	-4.62502	3.67929	-9.14669
292.96875	-3.50430	-5.43751	6.09078	6.08105
296.87500	-6.32437	-8.26465	3.66719	2.32751
300.78125	-12.36785	-10.28598	2.85526	-4.53126
304.68750	-8.33809	-5.45749	2.44633	0.29535
308.59375	-2.69663	-4.25538	0.42567	-2.24030
312.50000	-5.11384	-2.24744	0.82257	-2.57247
316.40625	-3.09877	-4.26879	2.83123	2.01855
320.31250	-1.08372	-10.72241	-0.80110	-2.25294
324.21875	-15.18580	-10.72914	-0.40414	-13.58386
328.12500	-21.63225	-7.91536	1.60452	-13.09281
332.03125	-18.40841	-1.47516	4.01607	4.08019
335.93750	-15.99036	-2.69067	2.80127	3.75056
339.84375	-7.12546	-9.14424	0.37774	3.27157
343.75000	-13.57194	-10.76270	-0.43412	-0.07475
347.65625	-19.21254	-8.35183	-1.24601	-7.85850
351.56250	-18.80931	-8.35857	-0.44609	-10.22918
355.46875	-23.64407	-10.37995	-0.45207	-14.64021
359.37500	-18.00257	-10.78961	-0.05517	-5.28105
363.28125	-15.98752	-12.00513	-0.06117	-2.68969
367.18750	-10.34606	-11.20602	-1.27596	-10.30987
371.09375	-7.52512	-6.78050	-1.68485	-1.18211
375.00000	-4.70410	-2.75794	-1.69083	4.05958
378.90625	-1.07731	-5.18222	-2.09975	-7.76180
382.81250	0.53486	-3.98019	-2.91159	-8.12708
386.71875	-2.28527	-1.97221	-2.11172	2.52116
390.62500	-1.07603	-7.21703	0.70279	8.65365
394.53125	-0.26973	-9.64136	0.29390	4.24212
398.43750	-11.55135	-10.45397	1.49671	5.90375
402.34375	-11.55093	-12.07248	1.49074	13.83699
406.25000	-5.50650	-9.25869	0.67885	11.29525
410.15625	-6.31194	-10.87719	0.26999	11.61875
414.06250	-6.31148	-12.09274	-0.54181	12.89994
417.96875	1.74766	-7.66726	1.06392	20.80828
421.87500	15.04484	-6.86815	4.68436	24.12274
425.78125	17.05994	-5.66609	3.06666	19.23792
429.68750	15.04573	-6.88165	3.06069	20.20110
433.59375	16.25495	-9.30600	2.65173	25.59655
437.50000	19.47878	-9.71573	2.24284	28.89319
441.40625	28.34376	-11.33429	4.65446	34.01642
445.31250	32.37355	-10.13226	4.64849	44.08076
449.21875	31.56816	-8.12437	4.64251	43.26263
453.12500	30.35982	-7.32526	3.42773	43.93940
457.03125	36.80719	-6.52623	2.61585	27.33765
460.93750	33.18127	-7.33887	3.81869	29.01660
464.84375	30.76422	-7.34566	6.63331	59.63649
468.75000	37.61450	-3.72614	5.82146	47.35833
472.65625	36.80914	-5.74761	5.41263	35.28689
476.56250	33.98907	-13.41013	6.21252	43.53992
480.46875	30.76619	-10.99935	4.99778	31.69121
484.37500	30.76669	-9.79736	4.58893	25.61567
488.28125	28.75253	-11.81888	3.37419	31.27812
492.18750	19.88852	-9.81106	2.96532	29.04832
496.09375	22.30664	-11.02672	4.57113	23.90848
500.00000	24.72474	-11.03357	3.35639	19.47935
503.90625	16.26377	-9.02579	2.54455	14.54974
507.81250	13.04081	-8.62968	3.74741	10.33269
511.71875	11.42958	-6.62190	2.93565	11.11683
515.62500	11.83305	-7.43457	1.72091	14.77809
519.53125	8.20716	-7.44144	3.32672	10.11279
523.43750	7.40181	-8.25422	2.51488	2.26693
527.34375	2.16420	-11.08158	-0.31155	-0.16681
531.25000	-4.68510	-10.68554	-0.31747	2.84342
535.15625	-0.65528	-3.84263	-0.72630	2.84900
539.06250	0.95696	-5.46121	0.47654	-2.85330
542.96875	0.55459	-13.12382	0.06773	-0.34939
546.87500	1.76389	-11.51905	-0.34114	8.24193
550.78125	-1.05619	-9.91419	0.86175	2.20951
554.68750	2.57071	-7.50350	1.25880	-2.61445
558.59375	3.37706	-6.30168	3.67043	-2.09090
562.50000	-3.06933	-4.69683	3.66450	-2.96497
566.40625	2.97513	-2.28613	2.04688	-3.52409
570.31250	2.97564	-4.30777	4.45856	-2.87632
574.21875	-2.66484	-3.10590	2.03504	-2.82484
578.12500	-2.66432	-4.32165	1.22328	-1.29867
582.03125	0.96258	-5.13446	2.02320	0.87163
585.93750	5.39532	-4.33557	0.80849	0.39800
589.84375	6.60462	-3.13375	1.20555	2.89421
593.75000	5.79931	-3.94657	-0.41212	5.84025
597.65625	8.21734	-4.35647	-0.82090	7.98546
601.56250	7.41192	-1.54290	-2.03557	6.73227
605.46875	2.17431	-3.96750	-0.83268	-3.35951
609.37500	7.81591	-3.97446	1.17605	-4.65759
613.28125	8.62228	-1.56383	0.36421	0.81224
617.18750	2.57882	-1.57080	0.35827	-3.25006
621.09375	2.57927	0.83981	-1.66231	-4.71961
625.00000	1.37089	-0.37586	-1.66824	2.12916
628.90625	11.04167	2.84060	-0.86827	9.52080
632.81250	10.63911	2.02781	-0.06834	9.08268
636.71875	5.80438	-1.60551	-0.07424	4.48088
640.62500	9.02822	-0.80661	-4.10944	-0.84326
644.53125	-2.25351	-7.66338	-1.69780	-4.48782
648.43750	-3.46188	-4.44700	-2.10660	-4.13233
652.34375	0.97068	-1.23055	-2.91833	7.27765
656.25000	0.97111	-4.46098	0.70210	8.21024
660.15625	-3.05777	-4.46797	-2.93013	-2.58694
664.06250	-1.84855	-5.68370	-5.35361	-6.28312
667.96875	0.16651	-4.88485	-0.92725	1.39354
671.87500	-3.45940	-6.50362	1.08151	8.95680
675.78125	-0.63847	-7.31650	2.28436	19.52988
679.68750	-2.65271	-5.30891	1.47264	15.24854
683.59375	-9.50212	-6.12178	-3.36840	-10.67257
687.50000	-14.73978	-6.53176	-5.38891	-13.99509
691.40625	-13.53055	-6.13586	-3.38015	-7.47107
695.31250	-9.90369	-2.51650	-1.77433	-8.52704
699.21875	-9.90326	4.72917	-2.18310	-5.68762
703.12500	-11.51459	1.09570	-2.99480	-7.57765
707.03125	-13.52878	-4.95532	-2.19482	-10.46284
710.93750	-8.69310	0.67860	-1.79778	-7.80013
714.84375	-2.24582	1.88033	-3.41531	-9.98611
718.75000	-3.05117	-1.35019	-4.62995	-7.26141
722.65625	-7.88585	-5.38659	-7.45630	-9.71055
726.56250	-7.48247	-0.55850	-7.86510	-7.34801
730.46875	-4.66144	4.26955	-4.24453	-4.52266
734.37500	-6.27275	-2.99033	-5.45917	-5.39990
738.28125	-10.30157	-2.99745	-7.07677	-16.47018
742.18750	-11.10693	0.21888	-8.29133	-19.88932
746.09375	0.57852	1.42057	-7.08844	-0.61895
750.00000	-7.88257	1.81634	-5.48250	-7.31005
753.90625	-18.35830	-0.60834	-3.87661	-12.90357
757.81250	-9.89629	-0.61546	-3.07651	-6.31858
761.71875	-8.28418	-0.62259	-2.27650	-9.50341
765.62500	-6.67203	-1.43563	-2.28232	-13.64297
769.53125	-12.31264	-3.45743	-2.69106	-7.70154
773.43750	-15.53571	-2.65868	-1.48805	-8.72734
777.34375	-13.11770	-3.87466	-4.31435	-11.46023
781.25000	-4.25279	-9.11992	-5.93192	5.73497
785.15625	1.38872	-5.90366	-3.52012	12.41087
789.06250	-9.89281	-2.28447	-1.10832	-8.11460
792.96875	-7.87766	-3.50048	0.09461	-9.39438
796.87500	0.98732	-1.89592	-0.71702	-0.46851
800.78125	13.88165	-4.72364	-1.52864	9.71033
804.68750	26.37300	-3.92493	0.48021	18.31486
808.59375	24.35884	-2.72331	2.89203	26.90902
812.50000	30.80624	-4.74520	-0.33718	25.38550
816.40625	36.44771	-8.37875	-0.34296	27.05728
820.31250	29.59841	-3.55080	2.47175	35.46432
824.21875	33.22523	-11.21368	3.27180	37.11248
828.12500	36.04623	-11.22089	3.66899	39.75098
832.03125	27.98806	-54.34167	2.05145	40.00528
835.93750	25.97388	-170.79579	3.25448	36.46256
839.84375	32.01830	-175.63815	3.65166	39.07842
843.75000	32.42173	-121.24979	3.64589	37.78130
847.65625	25.16944	-93.45481	2.83426	30.81562
851.56250	24.76699	-74.92725	-0.39494	33.65681
855.46875	29.60267	-59.22018	-0.40069	31.77384
859.37500	27.99140	-41.90143	-0.00354	24.17942
863.28125	26.78308	-34.25299	-2.02394	25.96553
867.18750	32.02160	-28.61927	-0.01507	33.54775
871.09375	27.18688	-22.58250	-0.02085	28.90208
875.00000	17.92006	-19.36642	-0.02660	19.83767
878.90625	21.54702	-14.13560	0.77357	20.18118
882.81250	17.92128	-13.73994	0.36488	21.81474
886.71875	16.31028	-10.52378	1.16503	21.35664
890.62500	20.74321	-7.71060	1.15933	22.92001
894.53125	17.52052	-9.32961	1.95947	24.42518
898.43750	23.96818	-4.90474	1.14793	18.62288
902.34375	26.78940	-0.47985	-0.46948	19.69169
906.25000	24.37256	-0.08422	-0.87813	19.62950
910.15625	21.14979	-1.70328	1.93668	17.32080
914.06250	20.34461	0.30406	5.15447	23.37098
917.96875	19.53933	3.52019	4.34295	20.71085
921.87500	18.73409	1.09532	6.35193	15.97104
925.78125	21.55515	1.89384	9.56972	15.07107
929.68750	19.54104	2.28940	11.17581	12.50549
933.59375	17.12405	1.47620	8.75253	13.44772
937.50000	13.90119	5.09524	7.94099	21.60824
941.40625	15.91638	1.86441	6.72651	12.26653
945.31250	18.33451	3.06587	6.72082	4.46087
949.21875	11.48519	2.65558	7.92396	14.51798
953.12500	8.66522	-3.39573	5.09775	9.56098
957.03125	5.84524	-3.00010	2.27158	6.80795
960.93750	7.86041	0.61888	4.28053	13.41556
964.84375	13.50192	3.43202	1.85724	7.94867
968.75000	11.08488	0.20122	-1.77479	10.86784
972.65625	15.51755	2.61146	-0.16878	14.12560
976.56250	13.90637	7.43923	1.43730	10.55705
980.46875	8.26580	4.20848	-2.59764	7.73455
984.37500	13.10152	2.18640	-3.00624	7.80879
988.28125	14.31077	4.19372	-0.59430	8.00278
992.18750	3.83513	1.36578	-1.80874	0.14266
996.09375	-2.20835	0.14958	-3.42606	1.42464
1000.00000	1.41856	1.75392	-4.23761	4.89518
1003.90625	3.03077	-2.28278	-3.84032	-0.38765
1007.81250	5.44889	-1.08138	-3.84597	3.10353
1011.71875	3.03182	4.95518	-3.04574	4.67943
1015.62500	7.06165	0.91847	-2.24553	8.41888
1019.53125	9.88270	-1.50653	-4.26581	11.74769
1023.43750	7.86850	-0.30514	-4.67433	4.31475
1027.34375	5.45137	1.29913	-5.08290	-5.44031
1031.25000	-1.39795	0.48584	-7.50612	-0.47154
1035.15625	-2.20331	-2.34208	-7.10878	2.92864
1039.06250	7.06461	-0.73782	-5.90561	0.08693
1042.96875	9.48273	5.70164	-6.31420	1.77246
1046.87500	5.85691	5.29125	-4.70804	0.10208
1050.78125	4.64863	1.65744	-1.89316	1.61106
1054.68750	4.64913	4.47048	-4.31636	-2.55841
1058.59375	7.06717	0.43374	-5.93366	2.95285
1062.50000	10.69411	-4.40886	-4.32754	6.49385
1066.40625	7.87411	-6.02808	-6.75067	-2.83079
1070.31250	3.44235	-7.64723	-7.15920	-1.56463
1074.21875	2.63698	-2.01370	-5.15016	7.26624
1078.12500	1.42872	0.39642	-3.54396	10.67456
1082.03125	0.62337	1.19480	-4.35545	3.97618
1085.93750	0.22090	1.59029	-8.79321	3.49245
1089.84375	-2.59909	-2.84940	-9.60468	1.68533
1093.75000	1.83367	1.57538	-7.19264	2.58240
1097.65625	4.65466	-1.25257	-8.00405	5.11864
1101.56250	4.25222	-2.87178	-8.41255	-2.15192
1105.46875	2.23811	1.95588	-6.40347	2.55452
1109.37500	-4.61119	0.33671	-6.40904	3.30197
1113.28125	-3.40190	1.53803	-6.81750	1.51869
1117.18750	3.04544	0.72472	-3.59957	5.62425
1121.09375	-2.19214	-1.29741	-1.59047	3.82582
1125.00000	-7.83264	-0.09614	-3.61064	-1.61236
1128.90625	-4.20581	1.50811	-3.61618	-10.41433
1132.81250	-6.62287	1.50059	-6.03932	-12.04482
1136.71875	7.07723	-1.32742	-7.25364	8.56295
1140.62500	3.85431	1.88846	-5.24452	8.21145
1144.53125	-24.35028	4.70153	-2.83243	-13.03413
1148.43750	-33.21428	3.48523	-2.83795	-19.31653
1152.34375	-44.89880	2.67188	-3.24642	-38.11126
1156.25000	-57.79213	3.47022	-0.83434	-50.13385
1160.15625	-76.32635	5.07438	-0.03398	-53.86589
1164.06250	-87.20495	9.90206	1.97522	-67.97157
1167.96875	-88.41319	8.28274	2.77559	-78.60503
1171.87500	-89.21843	4.64886	1.15843	-83.12939
1175.78125	-85.59148	5.85012	-0.45878	-82.22638
1179.68750	-81.56166	4.63377	-2.07593	-76.03127
1183.59375	-71.89073	4.22326	-6.11067	-68.50894
1187.50000	-61.41404	8.24502	-6.11612	-56.92285
1191.40625	-49.32555	10.25213	-5.71867	-45.56343
1195.31250	-44.48994	5.40942	-8.54462	-43.39585
1199.21875	-44.89233	2.58136	-8.95295	-36.12392
1203.12500	-38.04209	5.79727	-7.74967	-33.58153
1207.03125	-32.40050	5.38674	-7.75511	-27.19922
1210.93750	-28.77372	0.94695	-6.14878	-23.73063
1214.84375	-21.52043	0.93940	-1.31907	-24.30479
1218.75000	-16.68484	-0.27698	-0.92154	-20.77406
1222.65625	-15.07256	-3.91090	-2.53871	-18.79084
1226.56250	-17.08677	-1.90379	-2.54411	-16.83102
1230.46875	-17.48919	-0.70257	-2.95242	-15.21443
1234.37500	-9.83299	-3.12774	-4.16663	-7.62997
1238.28125	-8.62364	-3.53822	-4.57498	-7.82100
1242.18750	-9.42907	-3.14291	-4.17745	-7.61357
1246.09375	-1.77288	0.07295	-0.95939	-2.84856
1250.00000	6.28622	3.28882	-0.15896	-1.48094
1253.90625	4.67503	-0.74806	-3.38779	-1.03025
1257.81250	1.45207	-3.57611	-3.79606	3.54026
1261.71875	-2.97966	-2.77785	-0.57804	2.77317
1265.62500	-5.79968	-3.18836	4.25180	-3.38085
1269.53125	-3.38161	-1.18130	2.23176	-2.27442
1273.43750	2.25987	0.01990	-6.23515	6.77323
1277.34375	9.11015	-0.79354	-3.82292	5.65217
1281.25000	5.48420	0.40767	7.05079	-2.53717
1285.15625	2.26124	-2.42049	6.64244	4.13889
1289.06250	2.26172	0.39247	5.02536	6.98354
1292.96875	8.30613	1.59360	7.03466	5.30095
1296.87500	6.69490	-3.65204	7.83515	10.60060
1300.78125	6.29242	-6.07727	5.41225	7.48288
1304.68750	9.11342	-6.08491	0.97464	1.98496
1308.59375	9.51676	-4.88376	4.19276	6.95288
1312.50000	12.33772	-6.50316	3.38156	10.66760
1316.40625	11.12944	-2.07853	-1.86187	9.92199
1320.31250	14.75621	-0.47448	0.14744	9.46467
1324.21875	13.95084	-6.52605	4.57430	5.06897
1328.12500	8.71323	-2.90725	4.97193	9.72220
1332.03125	12.34006	-1.30318	4.16077	10.78247
1335.93750	11.13181	-0.50498	2.54368	5.62820
1339.84375	8.71470	1.90499	3.34427	9.45298
1343.75000	7.90933	5.12081	3.74185	8.15600
1347.65625	8.31273	-1.33371	3.73655	9.65198
1351.56250	11.93963	-10.60876	0.50780	13.29921
1355.46875	13.55180	-5.78125	-1.51217	5.77529
1359.37500	9.92593	-3.77417	4.52647	5.43378
1363.28125	9.12053	-2.97597	6.53582	4.80243
1367.18750	11.94151	-1.77481	2.50122	6.34086
1371.09375	12.34491	-0.17076	0.48129	10.15696
1375.00000	8.31609	-1.79011	5.31122	8.74832
1378.90625	7.10775	-4.61830	8.12645	8.28598
1382.81250	9.12293	-2.20836	3.68891	7.90481
1386.71875	9.92927	-1.41017	2.47485	11.07293
1390.62500	1.87115	-5.44714	4.08133	6.59217
1394.53125	-0.14310	-4.24602	4.47895	5.27664
1398.43750	7.51307	-2.64200	1.25024	12.36786
1402.34375	18.79560	-4.26138	1.64794	19.88343
1406.25000	8.72286	3.78954	9.29839	7.73324
1410.15625	-3.36455	4.18481	7.27847	-7.46936
1414.06250	-0.54359	-7.50789	3.64683	-3.03098
1417.96875	-4.57239	-6.70976	4.85038	-1.25897
1421.87500	-4.16904	-3.49400	1.62169	1.65690
1425.78125	-2.55683	-2.69588	0.00474	0.35402
1429.68750	-7.79441	-1.89769	4.02881	-0.59990
1433.59375	-11.01735	-2.71129	5.23237	-3.28397
1437.50000	-11.41979	-2.71900	0.79489	-12.85236
1441.40625	-13.03096	-4.74134	1.99848	-7.68851
1445.31250	-10.61285	-2.73442	1.59032	0.62312
1449.21875	-11.01526	-0.72750	1.58511	-0.19879
1453.12500	-7.79131	-2.34693	3.19165	1.29120
1457.03125	-4.97028	-1.54884	3.18643	3.37348
1460.93750	-9.80488	0.05518	-0.84812	0.31084
1464.84375	-2.55165	2.06211	-12.13536	2.90263
1468.75000	1.47811	1.24848	-2.47021	4.61308
1472.65625	-4.16247	-1.17677	8.40369	5.05050
1476.56250	-4.56490	-3.19915	9.20442	4.70555
1480.46875	-5.37032	-5.22155	9.60213	2.68901
1484.37500	6.31511	-1.60295	7.17939	3.56920
1488.28125	9.94197	0.80690	-0.07852	6.98673
1492.18750	3.49555	0.79916	-3.71008	8.39412
1496.09375	4.30188	1.59729	1.92579	4.43812
1500.00000	4.30240	1.58957	-0.09402	5.49121
1503.90625	0.67660	-0.02985	-11.38125	2.62598
1507.81250	-0.53165	3.18585	-13.40111	1.28201
1511.71875	3.09522	2.77516	3.11392	4.06684
1515.62500	0.27523	-3.67949	6.73514	-2.26686
1519.53125	4.70798	0.34207	1.49191	2.67376
1523.43750	13.17003	3.15488	1.88971	8.13475
1527.34375	7.52954	2.34122	-2.14472	2.40905
1531.25000	7.12709	3.94522	-11.01436	11.81017
1535.15625	3.90419	1.92280	-7.79603	9.97239
1539.06250	-7.78029	-1.30841	-0.54841	-2.94241
1542.96875	-3.34751	-1.71914	-0.55352	-7.30076
1546.87500	-0.12362	1.09359	0.24722	-9.37387
1550.78125	-0.92896	3.10053	0.24212	-7.46184
1554.68750	-2.54014	5.10744	-0.97178	-3.16962
1558.59375	-0.92795	3.48792	-0.17097	6.77395
1562.50000	4.31061	1.06254	-2.99663	-3.38456
1566.40625	1.08766	2.66651	-7.03102	-1.42710
1570.31250	-3.74701	2.25578	-5.82729	9.91240
1574.21875	-2.94066	1.44217	-3.41478	1.41743
1578.12500	0.68622	0.22558	-5.83747	-2.42694
1582.03125	-3.74557	-1.39390	-3.02203	7.79794
1585.93750	-12.60956	-0.59585	-1.41534	-5.57947
1589.84375	-13.81774	-0.60365	-5.04679	-13.02752
1593.75000	-7.37044	0.19440	-3.03720	2.77810
1597.65625	-2.93768	-1.02222	0.98706	0.07640
1601.56250	-0.92255	-0.22411	0.17618	-1.55298
1605.46875	-3.33960	2.58859	-0.63472	1.54184
1609.37500	-5.35380	3.78958	-0.23678	2.28944
1613.28125	-4.95040	2.57298	-0.64474	4.13271
1617.18750	-4.54689	-1.06123	-3.06735	4.20913
1621.09375	1.49757	-1.47195	0.55402	1.60506
1625.00000	-0.51654	0.13193	2.56368	-0.60952
1628.90625	-1.32188	0.92996	-2.27649	5.49706
1632.81250	1.09621	-2.30123	-0.66982	12.73114
1636.71875	-3.73842	-3.11494	1.74276	4.32805
1640.62500	1.50021	-2.31685	-4.30618	5.18549
1644.53125	9.15643	0.89876	-9.14640	11.33934
1648.43750	7.14218	4.11439	-2.70449	5.05707
1652.34375	2.30749	1.28607	5.34913	4.39431
1656.25000	-0.10958	-1.94521	5.74709	5.66855
1660.15625	0.29389	-1.55008	4.13035	3.14540
1664.06250	3.51787	2.06844	3.72248	1.93358
1667.96875	3.92133	1.25478	4.12037	2.17935
1671.87500	5.13056	-3.18528	-0.31679	5.31060
1675.78125	5.93695	-1.98428	-3.54523	7.01947
1679.68750	2.71399	-0.78329	-0.32675	5.55890
1683.59375	6.74376	-6.02921	2.08583	10.26077
1687.50000	11.57938	-7.24581	3.69265	16.20589
1691.40625	9.16229	-4.83603	2.88185	15.47747
1695.31250	2.31289	0.79714	2.07101	10.79534
1699.21875	-6.55112	6.43036	2.06605	-6.10848
1703.12500	-3.73016	0.37858	2.06111	-8.80416
1707.03125	4.32887	-6.47909	-2.37602	3.62222
1710.93750	4.73227	-6.08401	-12.45425	9.50859
1714.84375	4.73273	-5.68889	-6.01225	6.91995
1718.75000	9.56835	-2.87623	9.29418	8.43612
1722.65625	8.36007	-3.28704	8.88638	9.21073
1726.56250	2.71958	-4.10070	1.22579	7.14130
1730.46875	4.33181	-2.89973	-2.00256	9.96688
1734.37500	5.94406	-3.71344	-0.39568	12.71633
1738.28125	7.95920	-4.52713	1.21116	10.51079
1742.18750	9.57143	-2.92331	-0.00253	5.88315
1746.09375	9.16903	-4.94583	-5.64841	9.43937
1750.00000	3.93142	-8.98298	-0.81815	7.58366
1753.90625	7.96121	-7.78204	3.60924	4.81098
1757.81250	10.37923	-2.14891	0.38091	8.17272
1761.71875	9.97679	-7.79780	2.39071	8.21160
1765.62500	12.39480	-15.05838	1.57998	10.11628
1769.53125	12.79825	-9.82819	-2.85712	13.64034
1773.43750	15.61922	-9.43318	-1.25028	13.82358
1777.34375	10.38157	-10.24692	4.78888	6.65868
1781.25000	-0.49705	-9.85183	4.38109	-0.72457
1785.15625	-6.13760	-10.66562	3.57041	0.31058
1789.06250	3.53327	-11.07640	5.17726	1.54362
1792.96875	14.01002	-10.68139	2.35196	3.89052
1796.87500	9.98126	-9.07754	-4.09976	9.99619
1800.78125	7.96714	-1.02682	2.74527	11.71375
1804.68750	7.96768	-3.85520	12.41076	8.63358
1808.59375	0.71545	-15.54810	10.79427	4.73714
1812.50000	-2.10458	-13.54134	8.37187	-0.00948
1816.40625	3.13407	-9.92280	7.96413	-1.56084
1820.31250	9.98448	-8.72197	6.34764	4.02592
1824.21875	7.97036	-8.32692	5.53701	4.06261
1828.12500	1.12104	-8.33483	5.53224	1.86621
1832.03125	1.92750	-6.32810	4.72163	1.71786
1835.93750	6.36023	-5.53014	1.89631	3.01060
1839.84375	5.15197	-6.34391	1.08570	7.64134
1843.75000	4.34666	-5.94884	2.69267	8.76204
1847.65625	3.94431	-3.94208	5.10547	8.24350
1851.56250	2.33313	-4.75579	6.71249	11.48788
1855.46875	3.54246	-4.76369	3.48433	10.00804
1859.37500	2.33417	-4.36870	0.65904	9.66665
1863.28125	-0.48578	-5.18246	-1.76323	7.42363
1867.18750	1.12643	0.45065	-2.97675	4.12713
1871.09375	9.99146	0.84570	0.64490	6.73458
1875.00000	11.60373	-3.59449	0.64021	6.53497
1878.90625	8.38083	-1.58776	-0.57322	6.07271
1882.81250	12.00774	0.41897	2.24258	5.69169
1886.71875	10.39649	-3.61826	2.64082	6.84532
1890.62500	1.53255	-6.44672	0.21855	8.00586
1894.53125	-1.69035	-4.84292	0.61681	3.06411
1898.43750	-0.48102	-3.64214	-0.99956	0.88807
1902.34375	-1.28633	-5.66471	-2.61591	0.74815
1906.25000	-6.52388	-6.47852	-3.02351	-4.95504
1910.15625	-3.70281	-0.44250	-1.01351	3.61551
1914.06250	5.16223	0.75839	-1.42108	6.03940
1917.96875	4.35696	-4.48764	-7.06670	7.40874
1921.87500	1.53705	-3.68974	-0.62444	11.13063
1925.78125	-1.28287	-3.69766	2.99726	1.76933
1929.68750	-3.69987	-3.70559	-2.24546	-2.81078
1933.59375	-3.29628	-2.90761	-5.07058	0.95208
1937.50000	-0.07226	-2.51266	-7.89569	-0.55751
1941.40625	3.95768	-3.72941	-12.33252	4.60651
1945.31250	3.15236	-4.94610	-2.26388	9.29186
1949.21875	3.15294	-4.95404	6.99892	1.21732
1953.12500	1.13886	-6.97673	4.17382	1.49865
1957.03125	0.33356	-6.98471	2.55752	6.40158
1960.93750	4.76634	-6.99268	-0.26760	6.15955
1964.84375	1.94638	-7.80653	-1.88389	3.51342
1968.75000	-6.51462	-4.99394	-3.09726	2.80643
1972.65625	-6.51408	-6.21071	-3.50477	3.24397
1976.56250	-3.29009	-8.23335	-5.52397	0.48150
1980.46875	0.33679	-8.24135	-4.31972	-1.13200
1984.37500	1.94913	-6.63763	-1.90667	-0.25172
1988.28125	3.56138	-3.82510	-0.70243	8.00111
1992.18750	2.35314	-5.04182	-0.30408	6.18524
1996.09375	0.33906	-5.45277	0.49723	3.84107
2000.00000	2.35431	-3.84906	1.70150	4.89426
2003.90625	1.95206	-3.05113	-0.72056	-7.23811
2007.81250	3.16140	-3.05912	-1.93387	-8.17890
2011.71875	1.55025	-7.09644	0.07626	-3.78218
2015.62500	-3.68729	-9.92492	2.48938	-6.48938
2019.53125	-0.46327	-6.70948	4.49956	4.09242
2023.43750	0.34319	-3.09105	2.88331	5.52422
2027.34375	-0.86495	-7.12837	-3.56808	5.43983
2031.25000	-2.87889	-9.55391	-4.37840	7.58849
2035.15625	-8.92213	-8.75604	4.07866	-3.11352
2039.06250	-6.50379	-8.36108	2.86538	-3.53717
2042.96875	1.55557	-5.54858	0.04042	-2.25414
2046.87500	2.36219	-3.94487	0.03597	2.52291
2050.78125	1.15413	-3.54989	-2.38605	7.25581
2054.68750	1.15490	-5.57253	-2.39049	-0.13666
2058.59375	0.75273	-3.96883	-0.38027	-2.68360
2062.50000	5.58855	0.45543	-1.99642	5.69290
2066.40625	5.18627	-3.98485	-6.43312	5.63602
2070.31250	3.17229	-8.02216	-7.24338	1.66445
2074.21875	-0.45338	-5.61255	-6.84490	0.82537
2078.12500	3.57656	-6.02349	-10.07270	-1.40696
2082.03125	13.24754	-4.01686	-13.30058	-0.44926
2085.93750	12.03941	0.00444	-12.49910	2.29075
2089.84375	5.99614	1.60821	-10.89177	6.12498
2093.75000	7.60850	-0.41446	-10.49320	5.00772
2097.65625	6.80327	-2.03423	-11.30340	4.32091
2101.56250	4.38633	-1.63927	-10.50194	8.33271
2105.46875	6.80460	-2.85606	-12.11800	4.17496
2109.37500	7.20816	-2.86405	-12.52530	0.08760
2113.28125	-0.84978	-4.48375	-9.70917	0.72227
2117.18750	-1.65497	-6.10349	-10.11642	-4.84223
2121.09375	0.76327	-7.32030	-10.52374	-0.59633
2125.00000	-4.07128	-6.92537	-10.93102	-1.60191
2128.90625	1.16746	-4.11287	-9.72656	-2.74788
2132.81250	9.62967	-3.31498	-6.10448	0.05419
2136.71875	6.80986	-4.53180	-6.10881	0.51576
2140.62500	-2.05395	-6.95742	-9.33657	0.97045
2144.53125	-0.44150	-3.33902	-8.93797	6.31864
2148.43750	-3.26130	-4.15294	-8.94227	4.46888
2152.34375	-7.29000	-5.36970	-8.54360	0.98596
2156.25000	1.97812	-3.76602	-7.33907	3.46913
2160.15625	-2.05059	-9.41510	-8.55215	2.55791
2164.06250	-10.51144	-9.02018	-11.77987	3.36097
2167.96875	-12.52550	-3.38717	-7.75484	7.23331
2171.87500	-8.09259	-2.58935	-7.35615	4.72373
2175.78125	-7.28610	-3.40324	-11.38969	5.62703
2179.68750	-10.50884	-4.21719	-9.37931	12.62829
2183.59375	-2.85253	-3.82227	-8.57770	17.73337
2187.50000	-5.26940	3.42243	-6.56730	7.15864
2191.40625	-14.53612	6.23487	-8.18323	-9.28381
2195.31250	-5.67091	3.00335	-7.78454	-0.26600
2199.21875	-1.23798	2.99531	-7.38579	6.20043
2203.12500	1.18025	2.98728	-12.22515	-4.15054
2207.03125	0.77803	1.77052	-12.22933	-3.81173
2210.93750	-4.45935	1.35955	-8.60714	4.49251
2214.84375	-1.63815	-0.66316	-7.40250	2.30707
2218.75000	-2.04045	1.34347	-8.21254	1.40589
2222.65625	1.18367	6.17058	-8.21671	5.40416
2226.56250	-0.83033	3.74502	-9.02678	6.55837
2230.46875	-3.24720	1.31939	-11.85144	6.96658
2234.37500	-4.05241	3.32599	-11.85560	2.46347
2238.28125	-1.23116	1.30330	-10.24797	-0.54769
2242.18750	4.00767	0.08646	-9.84922	9.33042
2246.09375	2.39668	0.07840	-11.06215	10.06644
2250.00000	4.00911	0.47329	-10.66335	5.39046
2253.90625	5.62150	0.86815	-9.05579	7.05031
2257.81250	-0.42176	2.87476	-8.25401	3.96543
2261.71875	-2.03285	4.07554	-6.64642	7.22795
2265.62500	1.99719	2.85871	-5.44174	5.90942
2269.53125	0.38608	-1.58153	-6.25168	3.79275
2273.43750	-0.82207	-1.58958	-10.28506	5.18502
2277.34375	-2.43308	2.83455	-9.88627	4.87018
2281.25000	-5.65581	0.00600	-10.69622	-0.09535
2285.15625	-0.41699	-0.80792	-11.90911	-2.68633
2289.06250	2.80720	2.40749	-13.12198	-1.85593
2292.96875	2.80795	2.39942	-13.12605	3.31176
2296.87500	1.19694	0.77960	-11.11544	-0.25271
2300.78125	-0.01114	-0.43725	-11.92537	-2.56423
2304.68750	4.01892	-1.65405	-9.10895	-3.22663
2308.59375	1.19912	3.17304	-7.90421	2.14461
2312.50000	-5.64994	1.95617	-10.72877	2.63630
2316.40625	-3.63457	-3.29001	-10.32985	2.69698
2320.31250	1.60431	-2.49221	-11.54268	7.88116
2324.21875	-2.02128	-0.08265	-11.54670	2.68013
2328.12500	-0.40866	1.11810	-6.71561	6.12508
2332.03125	0.80104	-0.90457	-7.52546	9.60348
2335.93750	-2.01861	-2.12136	-7.12655	10.09075
2339.84375	4.02634	1.09407	-7.13057	9.08101
2343.75000	5.23621	-0.92866	-7.13460	2.94963
2347.65625	-6.04466	-3.35433	-8.34739	5.65528
2351.56250	-13.29621	-1.34774	-8.35140	5.67698
2355.46875	-8.05686	-2.16166	-4.72905	5.00378
2359.37500	-2.81752	-3.37852	-6.34475	7.08074
2363.28125	-1.60753	-4.59537	-8.36340	1.21223
2367.18750	3.22878	-4.60341	-9.97913	6.37796
2371.09375	2.42405	-3.40267	-10.78896	2.94204
2375.00000	-1.20127	-0.59023	-9.18125	-2.49516
2378.90625	0.41134	3.43108	-7.57345	1.87829
2382.81250	1.21805	-1.41220	-6.36861	5.92992
2386.71875	0.41301	-4.24075	-7.98435	3.86044
2390.62500	-4.82437	-2.23418	-6.77952	0.18608
2394.53125	-0.79439	-2.24224	-8.79810	0.48264
2398.43750	4.04144	-2.65324	-13.63719	2.33600
2402.34375	-0.79316	-2.66129	-4.77664	4.21078
2406.25000	0.81914	0.95708	-0.34829	7.77502
2410.15625	4.44594	1.35199	-4.78442	4.66048
2414.06250	2.02885	-0.26778	-6.40000	0.23451
2417.96875	-2.80594	-3.49928	-8.41853	-4.03727
2421.87500	0.01496	-1.89557	-7.21362	-3.53890
2425.78125	-2.80511	0.11101	-5.60573	-1.21528
2429.68750	-6.83400	-1.50879	-8.83301	-0.55739
2433.59375	-3.61013	-1.51683	-9.23979	1.59375
2437.50000	-4.01264	-1.92775	-10.04946	-3.54230
2441.40625	5.25515	-1.53289	-12.87377	-4.42233
2445.31250	8.47902	-0.73508	-12.07175	3.08349
2449.21875	1.62969	-1.95186	-8.85208	0.24692
2453.12500	-4.41380	-3.57167	-5.63243	-2.69529
2457.03125	-12.47203	-6.80318	-6.84501	-4.64229
2460.93750	-13.27741	-6.81123	-8.05757	-6.09318
2464.84375	-16.09737	-7.22219	-6.44956	-6.72466
2468.75000	-15.69391	-5.61854	-5.64748	-11.46096
2472.65625	-10.05239	-3.20900	-4.84538	-11.82934
2476.56250	-1.59029	-5.23171	-5.65500	-8.14478
2480.46875	3.24538	-6.44858	-8.47925	-6.53486
2484.37500	1.63425	-4.03905	-8.48299	-8.07213
2488.28125	2.84367	-4.45006	-7.68086	-4.65440
2492.18750	-1.99095	-6.87573	-6.87876	0.37951
2496.09375	-8.03429	-6.48085	-5.67370	2.06464
2500.00000	-0.37798	-3.66842	-4.46862	5.13250
2503.90625	4.45777	-3.67650	-5.27817	5.89387
2507.81250	3.24959	-4.49042	-5.28187	5.35600
2511.71875	5.66783	-3.28971	-5.28557	4.11171
2515.62500	4.05678	-2.08900	-8.51273	2.61345
2519.53125	3.65449	-4.51467	-9.32231	7.15134
2523.43750	8.89326	-2.91103	-4.49077	6.16570
2527.34375	8.49101	-2.51615	-1.27098	2.45496
2531.25000	10.10351	-2.12125	-4.90106	6.21531
2535.15625	10.10423	-0.11467	-5.71060	5.18365
2539.06250	8.09027	-0.52567	-2.49082	3.95411
2542.96875	8.09100	1.48090	-2.89744	6.84880
2546.87500	6.47999	0.66700	-2.09525	3.56723
2550.78125	11.31591	0.25598	-1.69594	-0.56445
2554.68750	10.10785	2.66553	-1.29662	-1.91299
2558.59375	8.49683	3.06044	-3.31490	-3.25113
2562.50000	11.31810	4.26114	-6.13907	-1.32155
2566.40625	8.09533	2.64140	-2.91925	3.05381
2570.31250	14.14005	-1.79891	-3.32575	-2.12645
2574.21875	12.93205	-2.20988	-9.37333	-9.41230
2578.12500	0.84493	-1.41211	-8.16810	-0.76548
2582.03125	2.45741	0.19153	-5.35109	2.20702
2585.93750	6.89043	0.18348	-8.57813	-1.90269
2589.84375	8.90590	0.17545	-10.19344	-5.32112
2593.75000	15.35360	0.16739	-7.77941	-10.46754
2597.65625	14.54847	1.36814	-6.17128	-5.91613
2601.56250	4.47604	3.37475	-4.56309	-3.11291
2605.46875	2.46223	1.75503	-6.58125	-2.43536
2609.37500	-1.96920	1.74700	-8.59943	1.13312
2613.28125	-6.40056	1.33599	-7.39418	-4.67891
2617.18750	-3.98216	-0.28376	-4.57714	-2.18457
2621.09375	-5.59300	-1.90353	-4.17774	0.44973
2625.00000	-3.57750	-2.31446	-8.61344	-1.36155
2628.90625	-1.15904	0.09506	-7.81108	0.71607
2632.81250	-2.76993	2.50464	-3.38232	1.50363
2636.71875	-3.57492	0.48199	-4.19169	-2.06392
2640.62500	-2.76819	-1.54069	-9.83617	-6.04134
2644.53125	-2.76737	-1.14581	-7.82500	-4.72229
2648.43750	1.26271	-1.95967	-6.21676	-4.96027
2652.34375	4.48696	-1.56477	-8.23490	-1.99619
2656.25000	0.86146	0.44186	-7.83539	-1.93038
2660.15625	-0.34652	-0.37204	-7.83883	1.59075
2664.06250	3.28062	-3.60351	-9.05106	2.79694
2667.96875	4.08737	-5.62620	-7.44277	-3.40380
2671.87500	-5.98512	0.00676	-6.64027	3.35425
2675.78125	-2.35788	4.02803	-5.83783	6.67531
2679.68750	4.89574	-0.00929	-7.05001	2.39466
2683.59375	1.67313	-0.82315	-7.85921	-3.78212
2687.50000	2.07695	1.18349	-7.05674	-1.06003
2691.40625	-2.35448	-2.45085	-8.67180	-1.78807
2695.31250	-4.36827	-2.86181	-7.06344	-4.85796
2699.21875	3.28824	-0.04931	-5.45499	0.39984
2703.12500	5.70674	-1.26611	-6.66712	-2.69821
2707.03125	0.06656	-2.88580	-5.86457	-5.17980
2710.93750	2.88798	-1.68500	-5.06200	-2.11347
2714.84375	-3.15506	-2.49883	-7.88579	-8.32801
2718.75000	-5.57177	-3.71562	-8.69494	0.03840
2722.65625	3.29357	-6.54410	-9.50411	7.66327
2726.56250	2.08574	-7.76089	-12.32787	0.35619
2730.46875	0.07190	-5.75423	-11.52527	-3.26469
2734.37500	0.07279	-5.35931	-9.11092	-2.12656
2738.28125	-4.76148	-2.94967	-11.53176	-2.72000
2742.18750	-3.55178	-6.58399	-11.53499	2.32316
2746.09375	8.13410	-6.18909	-7.50891	9.10330
2750.00000	6.52323	-2.97362	-9.52677	6.44213
2753.90625	6.92703	-3.78746	-10.33581	12.13147
2757.81250	11.36019	-3.39255	-8.72725	15.49373
2761.71875	9.74932	0.22589	-11.14802	7.47441
2765.62500	12.57071	-0.18504	-10.74823	8.57367
2769.53125	10.95988	-1.40179	-10.34851	9.27773
2773.43750	8.94612	0.20204	-11.15753	5.83506
2777.34375	12.57337	-1.82057	-9.95189	8.74383
2781.25000	11.76840	-1.42560	-10.35800	4.98739
2785.15625	10.96340	-0.62762	-9.55530	3.20247
2789.06250	11.36725	-3.05315	-9.96134	5.24174
2792.96875	9.35345	-4.26989	-10.77031	3.55973
2796.87500	12.57769	-1.86023	-9.56473	3.62170
2800.78125	6.93754	-2.67401	-8.76197	4.93675
2804.68750	2.10331	-3.48784	-7.95923	4.67745
2808.59375	12.17742	-1.07816	-10.78282	2.39314
2812.50000	11.77534	-0.68315	-9.98009	1.67618
2816.40625	3.71761	-0.28819	-3.93923	0.93111
2820.31250	4.92729	-1.50492	-5.15111	4.50365
2824.21875	4.12229	-3.52749	-7.57179	1.72029
2828.12500	4.12316	-0.71486	-6.36607	3.55357
2832.03125	3.72108	-0.31988	-5.96621	10.25536
2835.93750	0.49851	-3.95414	-5.56630	6.71333
2839.84375	1.30525	-1.14155	-6.37524	3.28577
2843.75000	1.30612	-0.34363	-6.37824	0.78054
2847.65625	2.91871	-2.36621	-6.78415	0.66537
2851.56250	8.96352	-4.79169	-7.99596	5.92480
2855.46875	4.53215	-6.41133	-8.80481	2.02775
2859.37500	-3.92850	-6.01630	-8.00195	-1.93967
2863.28125	-5.13644	-5.62130	-7.19911	1.86171
2867.18750	0.50535	-2.80864	-7.60505	6.22112
2871.09375	4.93848	-4.02536	-6.80214	4.79958
2875.00000	3.32772	-4.83915	-8.01391	0.97392
2878.90625	1.31416	-1.22072	-7.61398	0.10929
2882.81250	1.71826	-0.82569	-6.40813	4.56407
2886.71875	0.91362	-3.25118	-7.21694	7.73301
2890.62500	-4.32325	-0.43860	-6.41402	2.04434
2894.53125	1.31903	-1.25237	-2.79055	2.74433
2898.43750	4.94673	-4.88666	0.83288	6.21010
2902.34375	2.93336	-3.28288	-0.37882	7.68256
2906.25000	2.93464	-2.88780	-4.81388	6.41242
2910.15625	-0.69054	-0.88103	-5.62259	2.89564
2914.06250	0.51943	-0.88892	-6.43136	5.32015
2917.96875	-0.28528	-2.50856	-7.64301	3.46651
2921.87500	-1.89596	-0.09882	-7.24291	1.14498
2925.78125	2.94031	0.29625	-6.43987	5.08090
2929.68750	3.74723	2.30305	-4.83096	4.93353
2933.59375	-0.28105	-1.73416	-5.63960	4.26474
2937.50000	-2.29467	-6.57711	-8.46297	0.74096
2941.40625	1.73568	-6.18198	-8.86866	2.68194
2945.31250	2.94550	-1.35465	-8.06557	5.35314
2949.21875	-3.50039	2.66680	-5.24784	-0.30338
2953.12500	-4.70826	-0.56447	-5.65350	6.82818
2957.03125	-1.88685	-4.19864	-8.47683	9.71689
2960.93750	0.53165	-3.80356	-8.07663	-1.40387
2964.84375	-2.28794	-1.79671	-6.46766	-0.82620
2968.75000	-2.28701	-1.40156	-7.67921	3.30240
2972.65625	2.54905	1.00825	-8.08485	3.74032
2976.56250	-1.47931	0.19459	-7.68465	0.57530
2980.46875	-2.28418	-0.61909	-11.71664	-4.66415
2984.37500	3.76079	-0.22390	-13.73399	-1.76882
2988.28125	-6.71440	-3.45515	-12.93075	-3.58885
2992.18750	-13.96615	-4.67175	-13.33635	-5.80733
2996.09375	-2.68310	-4.67952	-14.14486	-4.52474
