 	TP9	AF7	AF8	TP10	
-1000.00000	1.57391	6.74893	5.88941	3.11064
-996.09375	0.36516	5.93212	7.17715	0.25846
-992.18750	-0.84358	5.74567	5.00081	-1.33840
-988.28125	-2.05232	5.22781	2.79807	-4.65135
-984.37500	-6.48454	3.86497	0.15235	-5.39205
-980.46875	-5.67860	3.21001	-3.70276	-4.45260
-976.56250	-2.05220	3.59696	-4.03185	-3.35861
-972.65625	-0.84340	3.69796	-1.47604	2.60603
-968.75000	-2.05218	3.91318	1.49509	3.74514
-964.84375	1.17126	6.24310	2.93842	1.09725
-960.93750	2.38009	5.70575	-0.81210	-1.13391
-957.03125	3.18602	4.89669	-0.32460	-4.94702
-953.12500	4.79775	8.91803	6.16327	-7.14213
-949.21875	1.57437	7.43527	3.41702	-8.81976
-945.31250	-5.67842	1.35451	-3.55539	-8.94628
-941.40625	-5.67844	-1.07716	-4.78115	-5.47036
-937.50000	-0.84329	1.36751	-3.46139	5.96867
-933.59375	0.36548	1.66244	-1.49529	8.50276
-929.68750	-0.44044	0.08199	0.90993	5.20122
-925.78125	-2.45510	2.49704	2.43031	10.00770
-921.87500	-2.45510	1.79792	4.53558	12.35295
-917.96875	-3.26096	-1.75432	7.10539	10.04714
-914.06250	-2.45512	-1.14549	5.36548	7.63743
-910.15625	-0.44046	2.40509	4.04921	6.72545
-906.25000	-4.06680	0.40466	3.57046	4.77171
-902.34375	-2.85795	2.24153	5.78132	5.19069
-898.43750	2.78309	6.00512	8.40672	6.48110
-894.53125	1.57437	4.92618	4.18100	6.38033
-890.62500	1.57442	1.51276	-1.66896	4.61947
-886.71875	2.78321	1.52609	-2.14785	3.95424
-882.81250	2.78323	3.87944	0.97022	3.66416
-878.90625	2.78324	5.70578	5.27579	5.34305
-875.00000	1.57451	6.58019	4.62117	3.52408
-871.09375	4.79788	9.09188	-1.33447	0.09416
-867.18750	9.23017	8.68357	-2.23223	3.52613
-863.28125	9.23022	5.50213	-0.63093	0.92151
-859.37500	7.21562	6.61292	-0.67772	-4.24780
-855.46875	6.00682	5.42719	-1.77626	-8.18350
-851.56250	5.20100	4.99750	-2.19841	-10.07201
-847.65625	2.78347	5.76199	-3.12754	-9.40586
-843.75000	3.99231	6.30357	-1.03689	-7.06815
-839.84375	1.97772	7.11251	0.21480	-3.75842
-835.93750	2.38075	5.89837	-0.50689	0.26932
-832.03125	3.18666	2.12499	-1.84206	3.13433
-828.12500	2.38087	2.03109	-2.81749	4.24363
-824.21875	4.39558	5.07514	-0.65077	4.27260
-820.31250	3.18683	7.20261	-0.10745	3.58609
-816.40625	2.38103	5.57461	0.36928	4.30375
-812.50000	2.38109	4.50470	1.75008	3.85381
-808.59375	-0.03643	2.32821	1.11756	0.95875
-804.68750	-0.84215	0.60836	-2.69563	-0.11276
-800.78125	-1.24498	1.24013	-2.45213	1.26336
-796.87500	-0.43899	2.03662	-1.96993	1.09927
-792.96875	-0.03593	3.67579	-3.50906	0.55031
-789.06250	0.77004	4.23787	-2.60227	2.09661
-785.15625	2.38190	3.78304	-1.12677	1.13026
-781.25000	1.17319	4.13165	-1.58254	-1.86401
-777.34375	-1.24436	3.34090	-3.89964	-5.71816
-773.43750	-1.64726	6.08566	1.31881	-4.35717
-769.53125	0.36742	6.55365	5.76861	0.00277
-765.62500	0.36743	1.70648	2.84801	-2.87825
-761.71875	-5.67658	-1.04741	-1.52938	-8.21593
-757.81250	-1.24444	0.62106	-1.79539	-9.29963
-753.90625	6.00823	1.25823	2.13103	-6.83791
-750.00000	1.97882	-1.19844	0.84725	-6.12724
-746.09375	0.76991	2.03570	-0.03777	-3.27472
-742.18750	1.57562	3.43069	0.92951	-3.28937
-738.28125	-2.05100	2.33657	-3.31486	-6.42301
-734.37500	11.64840	7.32548	-7.92219	6.40578
-730.46875	12.05092	3.54793	0.36497	11.51033
-726.56250	-13.33415	-6.50969	11.17001	-5.70090
-722.65625	-5.27609	-5.40215	8.61399	2.03394
-718.75000	16.07864	-3.60303	5.64270	27.08518
-714.84375	17.68967	-7.14205	8.22855	32.55336
-710.93750	16.88308	-13.45478	13.18769	37.20185
-707.03125	32.99949	-8.61674	15.52052	54.71432
-703.12500	46.69835	-4.57975	16.68816	64.56472
-699.21875	49.11516	-7.93252	12.98732	64.22740
-695.31250	56.36713	-2.65806	11.90080	67.17404
-691.40625	59.99271	0.57907	16.75275	67.72706
-687.50000	57.57441	2.56631	14.62694	64.74927
-683.59375	53.94722	4.28564	12.25765	59.39436
-679.68750	51.12598	1.83642	13.07561	55.44288
-675.78125	49.11063	1.43578	14.37559	52.24794
-671.87500	44.67772	-0.28301	15.89656	48.29073
-667.96875	38.63314	-1.56642	9.70002	44.55241
-664.06250	34.20034	1.04781	7.41041	38.50043
-660.15625	30.17057	-0.08554	11.54694	35.78603
-656.25000	28.55846	2.31747	12.83129	38.14274
-652.34375	30.16977	6.12121	11.42602	36.11210
-648.43750	30.16952	2.76017	11.21792	32.40429
-644.53125	29.76641	3.03288	9.39938	28.87900
-640.62500	30.57218	4.43122	9.60801	27.01387
-636.71875	29.76619	5.62629	14.11588	29.29126
-632.81250	24.93110	4.48132	12.60927	25.95555
-628.90625	22.91658	3.86330	10.72098	23.47138
-625.00000	23.31969	9.03247	8.95768	23.67930
-621.09375	20.49937	7.72914	6.45150	19.45421
-617.18750	18.48499	3.30183	7.75191	18.44056
-613.28125	17.27650	3.66235	9.37373	17.82239
-609.37500	17.67979	2.95409	9.42009	16.54560
-605.46875	12.84503	2.52766	10.51842	15.64688
-601.56250	10.02489	3.76280	7.31394	14.71573
-597.65625	13.24873	2.19210	4.21353	15.25926
-593.75000	10.83162	0.44133	6.95775	12.92244
-589.84375	7.60860	2.85544	7.72039	12.03122
-585.93750	10.83249	3.66630	7.63586	19.28647
-582.03125	8.41529	-0.21642	6.55323	18.43700
-578.12500	5.99805	-0.92876	3.49896	14.91098
-574.21875	8.81898	1.66789	3.74949	16.49458
-570.31250	6.40179	1.15169	5.22056	13.95856
-566.40625	5.99922	1.57056	1.11720	12.43591
-562.50000	5.99960	4.65476	-1.47275	13.28958
-558.59375	3.58241	3.60742	1.57706	9.73862
-554.68750	3.98560	2.10342	1.76364	7.18469
-550.78125	4.79176	1.47122	-0.09185	7.01824
-546.87500	4.38918	1.88314	0.63450	5.16857
-542.96875	2.37481	4.27283	1.36750	1.68905
-539.06250	3.98682	3.30746	3.28092	1.35228
-535.15625	5.59888	2.95602	4.62565	0.30481
-531.25000	2.37572	7.03924	0.24604	-5.96739
-527.34375	2.77893	8.63550	3.36876	-3.72426
-523.43750	3.18215	4.27860	1.77647	-2.66688
-519.53125	5.19707	4.21316	-5.89707	-4.20556
-515.62500	7.61495	5.03067	-5.39432	-3.33841
-511.71875	2.77999	2.14316	-7.06117	-3.64104
-507.81250	2.37736	0.07142	-4.37780	-0.54203
-503.90625	3.98937	1.04559	-0.64885	2.23495
-500.00000	0.36332	-0.52732	-0.17129	3.53952
-496.09375	-4.06868	0.26746	-0.89822	5.11983
-492.18750	-4.06850	2.09555	0.55176	3.52321
-488.28125	-6.08297	1.17476	0.76660	0.21046
-484.37500	-5.27699	1.42354	1.74721	3.09627
-480.46875	-3.66507	0.36564	2.32444	0.81253
-476.56250	-0.84442	0.75257	3.60713	1.10081
-472.65625	5.19965	0.04760	7.77469	5.45389
-468.75000	3.58808	-4.57241	7.92524	4.57843
-464.84375	-1.24699	-3.04838	4.13041	3.94537
-460.93750	-2.05271	1.65232	2.39455	3.72893
-457.03125	0.76796	0.44028	7.31426	3.13939
-453.12500	3.58862	0.83521	6.14643	4.97373
-449.21875	-0.84350	-1.45336	1.38553	3.69914
-445.31250	-2.05213	-3.50476	3.68058	1.55810
-441.40625	-1.64904	-1.90707	6.08126	-1.81563
-437.50000	-8.09585	-4.70048	0.14825	-6.09089
-433.59375	-6.08111	-1.98795	0.50273	-5.16852
-429.68750	-5.27519	-0.74785	3.31096	-7.66413
-425.78125	-6.48392	-0.75037	2.01076	-8.09576
-421.87500	-3.26037	2.17690	2.10137	-4.94455
-417.96875	-6.08074	0.63944	1.85078	-8.05619
-414.06250	-2.05132	0.03955	2.12547	-6.43641
-410.15625	2.78395	-0.03619	2.42097	0.30731
-406.25000	2.78405	-0.02190	5.16570	2.38298
-402.34375	1.57536	-0.60254	4.15314	0.78738
-398.43750	0.76950	-0.46532	-0.07126	0.06322
-394.53125	2.38130	1.67932	-1.47644	1.57425
-390.62500	-0.43919	1.48930	3.55281	1.42507
-386.71875	-4.46843	-0.10910	2.26812	2.37152
-382.81250	-0.84196	1.84145	0.95397	6.11076
-378.90625	1.97860	0.04149	2.03617	7.38679
-375.00000	1.17281	-1.09877	1.78446	8.38837
-371.09375	0.36702	-1.40750	2.67864	9.39069
-367.18750	-0.43880	0.60181	2.58677	8.39042
-363.28125	1.97889	1.85274	1.77055	4.57707
-359.37500	4.79945	0.94886	2.12686	3.03413
-355.46875	3.99365	2.98659	-0.18052	2.72487
-351.56250	1.17321	-0.66643	2.62075	3.25394
-347.65625	-1.64722	-5.94583	5.72087	13.99327
-343.75000	10.44073	2.25142	3.78224	26.40418
-339.84375	11.64956	9.91020	3.82524	14.40247
-335.93750	-10.51161	4.66674	1.49191	-10.98385
-332.03125	-20.18189	0.08752	-6.29022	-16.17753
-328.12500	-17.76420	3.61999	-9.28030	-17.88875
-324.21875	-32.67242	3.84357	-11.54574	-41.22982
-320.31250	-31.86650	9.59742	-14.22586	-45.54265
-316.40625	-34.68691	8.77525	-13.34619	-50.86900
-312.50000	-45.16294	4.07890	-14.78585	-58.16872
-308.59375	-38.31306	13.58738	-19.04457	-53.00521
-304.68750	-52.01254	11.06168	-20.44019	-67.77644
-300.78125	-52.41536	3.23190	-21.40546	-69.22086
-296.87500	-39.52161	5.23710	-19.71442	-56.49123
-292.96875	-39.11859	6.47333	-18.83592	-52.20510
-289.06250	-37.90974	3.40897	-17.92901	-49.45002
-285.15625	-36.70099	1.74532	-14.43884	-45.17835
-281.25000	-34.68628	2.49680	-12.47711	-41.32290
-277.34375	-31.46287	2.51187	-13.18255	-40.34190
-273.43750	-29.85101	4.85363	-10.78466	-35.75751
-269.53125	-27.43341	2.90410	-8.75233	-32.60628
-265.62500	-24.61271	2.48913	-12.07591	-35.89027
-261.71875	-18.97163	3.76458	-5.97699	-31.96045
-257.81250	-15.34510	3.01544	-1.00497	-24.58251
-253.90625	-18.16554	2.44377	-9.97233	-24.13541
-250.00000	-18.56851	0.79286	-14.07650	-22.61876
-246.09375	-13.33043	0.80344	-11.33528	-17.34869
-242.18750	-7.28648	2.60131	-11.17383	-15.75139
-238.28125	-4.86885	2.71586	-9.77714	-11.63205
-234.37500	-2.45131	3.67545	-4.71411	-6.86164
-230.46875	-1.64539	3.52417	-6.50031	-6.99483
-226.56250	-4.86874	0.71926	-8.18604	-4.86492
-222.65625	-5.27162	2.63261	-3.48944	-5.18808
-218.75000	-7.28619	4.83461	-1.22267	-5.52078
-214.84375	-6.88316	3.31019	-1.45745	-2.46946
-210.93750	-4.86841	2.63841	1.08408	-0.64070
-207.03125	-5.67422	2.23828	-5.44763	-1.25927
-203.12500	-4.06245	2.24589	-9.51813	-5.91344
-199.21875	-3.25652	2.92238	-7.98091	-8.26452
-195.31250	-10.10625	-0.26465	-8.66450	-10.15216
-191.40625	-11.71795	-2.66854	-7.43899	-12.01589
-187.50000	-4.06221	1.33333	-4.72962	-8.54590
-183.59375	-4.06219	3.85852	0.95968	-6.24431
-179.68750	-6.47976	3.02092	3.79228	-7.37446
-175.78125	-5.27091	1.41138	-0.54880	-7.74819
-171.87500	-8.09140	-1.91920	-1.04254	-7.67545
-167.96875	-8.09139	-2.39679	2.83423	-1.74279
-164.06250	-10.10600	-1.79724	5.37984	-0.54142
-160.15625	-12.52356	-1.72182	0.65187	-4.06116
-156.25000	-8.49421	-1.33352	-0.88424	-0.89813
-152.34375	-3.25606	-3.97670	3.35156	-1.71951
-148.43750	-4.86769	-4.11430	5.15809	-0.59177
-144.53125	-2.85300	-2.63293	6.16016	6.76235
-140.62500	-0.03243	-2.04043	4.35421	5.30042
-136.71875	-0.43528	-2.86003	3.62401	3.14573
-132.81250	-0.83806	-3.19919	0.90854	3.43645
-128.90625	-2.85260	-0.59373	0.22911	-0.65938
-125.00000	-0.83781	2.96383	5.71864	0.75734
-121.09375	3.59456	3.27224	7.24180	-0.24434
-117.18750	1.17708	1.66552	1.28953	-4.48153
-113.28125	-1.64328	-0.79446	-0.31200	-2.68215
-109.37500	-3.25491	-1.09976	-3.08605	-2.75021
-105.46875	-6.07530	-1.52616	-7.62874	-4.85787
-101.56250	-2.85179	-0.29101	-3.98328	-2.16285
-97.65625	-3.25467	1.76461	-3.86015	-2.82833
-93.75000	-2.04582	2.43147	-5.95098	-5.97122
-89.84375	-0.03117	3.23383	-3.97948	-2.43046
-85.93750	-0.43408	0.82122	-4.06382	-2.42819
-82.03125	2.78937	4.19127	1.30056	-2.87498
-78.12500	-1.24001	0.65841	3.08161	-0.76033
-74.21875	8.02738	-4.40065	-0.29412	14.11973
-70.31250	21.72712	1.93314	-0.03184	22.46250
-66.40625	-4.86622	-2.08027	-2.92636	-8.47435
-62.50000	-18.56588	-5.44294	-6.32213	-23.73818
-58.59375	-6.88081	-4.07260	-6.49574	-11.97813
-54.68750	-21.38627	-9.20298	-5.90617	-24.20262
-50.78125	-30.65367	-9.02926	-7.76167	-28.80163
-46.87500	-26.22146	-3.37919	-8.64700	-26.62239
-42.96875	-37.90638	-6.63046	-9.12272	-38.56380
-39.06250	-39.11515	-8.80461	-8.01512	-34.46863
-35.15625	-37.90630	-9.96177	-7.87920	-33.50176
-31.25000	-34.27995	-9.50489	-5.00606	-31.71576
-27.34375	-24.60949	-6.29686	-1.07746	-18.99674
-23.43750	-20.98313	-5.01264	-1.05803	-16.32795
-19.53125	-15.34195	-3.06335	-2.28461	-17.06100
-15.62500	-10.10381	-0.63405	-5.00526	-13.37362
-11.71875	-6.47745	0.10479	-10.29851	-12.46763
-7.81250	-6.47742	0.45065	-8.82396	-12.18944
-3.90625	-7.68617	0.21608	-3.08028	-9.81553
0.00000	-3.25389	1.46373	0.62078	-5.69064
3.90625	-4.86559	1.04980	0.69979	-5.31929
7.81250	-7.68616	-1.55424	-1.87935	-5.30430
11.71875	-9.29788	-1.26622	-0.05275	-5.39368
15.62500	-6.07440	-1.01735	0.92798	-8.14907
19.53125	-1.64214	0.34242	0.69935	-6.40358
23.43750	-3.25387	1.53520	0.77329	-4.90662
27.34375	1.17836	2.03907	0.50866	-4.18001
31.25000	1.17837	2.65721	0.25633	-4.24974
35.15625	-3.65675	1.76375	1.29677	-4.88287
39.06250	-0.43335	-0.38536	2.38145	-3.89057
42.96875	-1.64208	-0.79150	0.45141	-2.06267
46.87500	-2.44794	0.40939	0.89528	0.57745
50.78125	-1.23909	-0.67040	3.79005	0.91444
54.68750	-3.65657	0.09869	0.04115	1.19088
58.59375	-0.03019	1.29351	-0.37874	1.84635
62.50000	2.38746	-0.29109	2.55275	2.80925
66.40625	3.19342	2.82433	4.92184	0.50823
70.31250	3.99934	1.24398	4.50661	-4.00208
74.21875	1.58182	-1.57910	1.99763	-3.22492
78.12500	-0.02991	0.54232	2.49129	-2.89423
82.03125	-2.85035	-0.99514	-0.98279	-7.61753
85.93750	-0.43276	1.22540	-1.51391	-6.40074
89.84375	3.99948	4.77597	1.19923	-2.88048
93.75000	0.77603	3.17847	0.72054	-5.64003
97.65625	-0.83566	2.19488	-0.29196	-4.81806
101.56250	1.98482	2.73502	2.73647	-1.51297
105.46875	-1.23868	0.44732	-0.68338	-5.64305
109.37500	-3.25331	0.25730	-5.32443	-7.00098
113.28125	-2.04451	3.09111	-2.17684	-4.44274
117.18750	-4.05914	1.81814	-3.08794	-6.34450
121.09375	4.40245	2.43574	-6.03503	2.99019
125.00000	4.80535	7.74230	-5.07781	0.36535
128.90625	-12.92355	7.03051	-3.78058	-17.16714
132.81250	-16.14692	2.99589	-3.06655	-16.55565
136.71875	-6.47661	3.44087	1.35534	-9.48992
140.62500	-3.25311	2.13407	4.12919	-8.61524
144.53125	-3.65595	-1.06629	5.04527	-4.89520
148.43750	-3.25302	-1.49591	5.02611	-1.94848
152.34375	-2.85004	-0.32850	4.49991	1.94109
156.25000	-2.04416	1.42187	4.97892	6.69636
160.15625	-4.86465	-0.99264	3.81317	5.57379
164.06250	-0.83533	-1.40095	5.91208	6.37797
167.96875	-0.02944	0.46673	6.18868	5.61653
171.87500	-2.44697	-0.83595	4.40749	5.11415
175.78125	-0.43229	-1.01543	0.93323	5.14301
179.68750	-2.04400	-3.72310	-2.55270	2.03879
183.59375	-0.83518	-4.14237	-0.86707	0.33889
187.50000	0.77656	0.02578	2.12560	2.30657
191.40625	3.19414	2.28151	1.89617	2.63500
195.31250	1.98534	6.20262	2.11231	3.17510
199.21875	1.17950	4.41678	3.16178	3.74537
203.12500	3.59715	0.78099	2.03233	2.37254
207.03125	2.38839	2.01726	2.10505	0.61480
210.93750	2.38840	-0.24118	1.80319	2.56411
214.84375	4.00009	-1.09898	2.87585	4.82120
218.75000	7.62648	1.66728	5.64363	6.66204
222.65625	5.20889	0.87649	2.92366	3.21087
226.56250	1.58258	1.20357	2.09821	1.34847
230.46875	5.61189	0.86567	4.93634	3.69389
234.37500	3.19434	0.85356	1.61293	1.21586
238.28125	0.37390	0.92017	1.26498	4.33985
242.18750	1.98563	0.57393	3.01361	8.49441
246.09375	2.38863	2.41991	0.49332	6.52404
250.00000	4.80623	3.58957	0.41860	8.04077
253.90625	6.41798	4.00310	5.57749	11.29639
257.81250	3.19452	4.18921	8.55952	10.47613
261.71875	-0.02895	2.28919	5.12102	7.74562
265.62500	1.58282	4.45754	2.52846	5.66634
269.53125	3.59745	5.91799	0.74234	4.32435
273.43750	5.20913	3.11307	2.68296	5.64840
277.34375	4.00032	0.19121	6.97677	6.13107
281.25000	4.00031	0.37857	7.63191	9.02183
285.15625	5.20910	2.88345	6.99429	11.26728
289.06250	1.17985	3.82348	9.53588	8.66387
292.96875	-1.23777	1.81165	7.83939	5.62768
296.87500	1.17981	5.84863	2.56022	3.39108
300.78125	1.58284	8.13685	3.69454	5.47224
304.68750	-0.02884	2.93518	5.83150	6.40526
308.59375	0.77710	0.93420	1.81899	4.54175
312.50000	1.58308	0.10092	-3.12720	3.17666
316.40625	0.77729	1.41737	-0.25834	1.44924
320.31250	-0.83429	1.78862	1.36561	-1.29244
324.21875	-0.83418	-0.22386	1.85980	-0.86011
328.12500	-0.43114	2.48958	4.58955	-0.78705
332.03125	-1.63974	2.01207	3.63129	-0.89819
335.93750	1.58385	2.20876	8.59452	1.10921
339.84375	3.19565	-0.13338	8.29888	0.81307
343.75000	0.37525	-5.38606	-1.69876	-2.06779
347.65625	3.19584	-3.99989	1.32830	-0.47150
351.56250	0.37543	-2.12281	-0.08852	-0.14954
355.46875	-2.44507	-2.25307	-3.92148	0.75767
359.37500	1.18139	-0.85467	0.71948	4.53385
363.28125	3.59905	3.16095	2.80989	5.19957
367.18750	3.19618	-0.80448	2.91506	5.08732
371.09375	-0.02721	-2.63122	2.23570	3.00602
375.00000	-0.83300	-0.28248	2.89014	-0.81547
378.90625	2.79338	-1.98868	3.60746	1.00331
382.81250	1.98755	-1.17780	2.89333	-0.01058
386.71875	-0.83292	1.19737	0.08311	-2.64353
390.62500	0.37591	0.48918	-0.27329	0.91467
394.53125	2.39057	3.28620	3.24274	4.04513
398.43750	0.77889	1.70084	0.03837	3.51671
402.34375	-2.04153	-2.28749	-1.45020	6.07471
406.25000	-0.83261	-2.42656	3.30874	6.55821
410.15625	-1.63829	-4.44460	3.66855	5.26391
414.06250	-2.04102	-4.43959	4.39009	7.68391
417.96875	2.79441	-2.27833	6.53103	6.02862
421.87500	6.01821	0.63564	6.70036	6.12911
425.78125	5.21269	-0.79707	8.56278	7.30985
429.68750	6.82479	-0.91038	6.40751	7.19149
433.59375	5.21367	-3.31209	0.69245	4.86329
437.50000	1.58797	-5.06308	-0.68857	5.71734
441.40625	1.99152	-2.88691	2.76421	7.40479
445.31250	4.00690	-1.16750	4.15959	4.44844
449.21875	5.21652	2.63265	2.30408	3.87952
453.12500	2.79977	1.83582	1.41871	4.04507
457.03125	4.81525	0.59921	3.36050	3.78964
460.93750	5.62199	-0.36619	2.45342	5.06519
464.84375	1.59354	1.29708	5.00694	7.64467
468.75000	-2.03201	-0.26071	6.67120	5.80528
472.65625	-0.01653	1.73850	1.73537	3.21389
476.56250	1.19307	5.03743	2.56071	3.86889
480.46875	-5.65595	1.34567	1.73697	1.52484
484.37500	-10.49041	2.56616	-2.59543	-1.63683
488.28125	-8.07209	4.91675	-1.84461	-0.32725
492.18750	-6.05675	2.44218	-1.98180	2.36919
496.09375	-8.87665	0.19289	-0.26752	1.11718
500.00000	-4.84683	0.23174	1.41885	-1.60725
503.90625	0.79465	2.63837	4.31838	-1.23541
507.81250	-0.01089	2.85477	7.78312	0.79445
511.71875	-4.03994	0.72517	-0.06053	0.70523
515.62500	-2.83095	0.97401	-3.51200	-1.24409
519.53125	-2.02500	-0.88972	1.49750	-2.72208
523.43750	-5.65134	-2.51743	-1.24905	-2.83694
527.34375	-4.03970	0.80698	-6.75173	-0.49872
531.25000	-1.21936	0.21631	-2.97474	1.84897
535.15625	-0.81660	0.93452	-0.72552	0.00677
539.06250	-1.62271	2.00885	-2.86421	-3.03056
542.96875	-4.44358	-0.81485	-6.00296	-3.62060
546.87500	-3.23511	2.80355	-0.72379	-0.98091
550.78125	-1.62374	2.52967	0.96239	1.37036
554.68750	-6.05638	-0.32760	-3.59219	-0.77121
558.59375	-6.45975	2.07596	-0.38554	1.09260
562.50000	-8.47481	0.08839	-0.67735	1.65202
566.40625	-8.47524	-1.22842	1.69185	2.57383
570.31250	-1.62587	-1.59996	2.48552	14.18021
574.21875	-0.01461	-1.19957	-3.24677	12.53924
578.12500	-10.89418	-1.49572	-2.35014	-6.06846
582.03125	-9.28298	-3.43613	0.21986	-1.12206
585.93750	8.04257	3.61968	0.49473	14.19665
589.84375	16.50369	4.75273	-2.43304	18.11935
593.75000	17.30909	2.75238	-3.71745	21.40318
597.65625	26.57601	5.79811	-2.71517	28.26852
601.56250	29.79900	4.72657	-0.89551	33.18483
605.46875	26.97803	4.85650	-0.68884	33.08354
609.37500	28.18636	5.87541	-0.89756	31.72507
613.28125	27.78297	4.67998	1.84715	32.67105
617.18750	26.57375	4.21287	-0.67561	29.56002
621.09375	22.54402	2.81587	-2.41387	22.37399
625.00000	16.49964	2.88438	0.55797	20.55456
628.90625	17.70806	4.99319	-2.17410	19.13886
632.81250	15.69305	2.97322	-8.30977	17.33231
636.71875	14.48389	1.00064	-5.90250	17.95071
640.62500	18.91581	0.09683	-1.11394	18.01903
644.53125	16.49785	-0.28301	0.60806	16.09766
648.43750	10.85653	0.49618	-0.61989	12.19409
652.34375	10.45329	0.45476	0.46567	12.05402
656.25000	9.64723	4.62273	-0.26408	12.77962
660.15625	5.21476	4.62582	-3.44446	10.44799
664.06250	5.21452	1.39699	-0.94257	9.64015
667.96875	6.82603	3.26470	0.54286	12.10186
671.87500	6.82587	3.17079	1.17935	16.03142
675.78125	8.43747	2.99138	-1.08605	16.06007
679.68750	8.43734	3.10412	-1.34846	14.97035
683.59375	6.82547	1.47605	1.94896	14.88198
687.50000	3.60197	2.01781	1.31536	9.19381
691.40625	-0.42744	4.27351	1.08594	5.08987
695.31250	1.58719	3.76243	5.33149	8.45028
699.21875	-1.63636	1.57369	0.73992	4.58818
703.12500	-4.85990	0.75839	-3.21001	-0.81423
707.03125	-0.42782	2.80043	-0.31679	2.26295
710.93750	1.58679	4.16838	3.00769	3.80915
714.84375	1.58672	3.71353	2.06579	3.24551
718.75000	4.81002	3.65921	-2.41915	3.87740
722.65625	7.22755	2.86843	0.50197	4.05249
726.56250	7.22751	4.40436	3.30295	4.60746
730.46875	6.01866	4.87231	-2.32039	2.11749
734.37500	3.60103	-0.37788	-4.43497	-0.76360
738.28125	5.61561	-2.72885	0.05227	-1.66908
742.18750	8.83897	-2.26922	2.20393	1.27653
746.09375	9.24182	-2.03499	-3.53975	4.14128
750.00000	6.42128	1.14926	-8.04667	0.82267
753.90625	3.19781	1.15985	-7.31988	-2.77164
757.81250	6.82411	-0.26577	-0.71146	-0.77144
761.71875	6.82408	-1.76301	-1.32939	-0.68155
765.62500	3.19770	-3.22104	-4.72785	-2.35798
769.53125	1.98888	-5.38699	-1.67880	-0.87956
773.43750	3.60064	-3.35676	2.27651	5.27964
777.34375	5.61533	0.57124	4.15273	8.98567
781.25000	0.37723	-1.65903	-1.63902	5.83235
785.15625	-2.44335	-3.58633	-2.67958	4.85424
789.06250	-0.83158	-2.64634	-0.54087	6.27998
792.96875	2.39189	0.57994	-2.23727	5.66134
796.87500	4.80943	-1.42708	0.13923	7.45394
800.78125	2.39183	-3.16823	3.69117	9.53490
804.68750	-0.42880	1.70336	3.00766	7.24421
808.59375	-2.44351	1.31403	-1.81070	4.57459
812.50000	-2.04058	0.48069	-1.51883	7.64148
816.40625	-1.63769	0.58838	0.94717	8.73427
820.31250	6.01796	2.97427	-0.24935	9.61869
824.21875	24.55273	7.81164	1.05069	20.52704
828.12500	14.88242	2.86936	2.16873	15.76467
832.03125	-0.42901	-1.63746	-0.40127	7.19185
835.93750	19.31451	-1.84372	6.17371	26.12213
839.84375	35.43172	-0.15657	9.90740	39.12254
843.75000	40.66981	4.66402	7.56551	43.09145
847.65625	45.90791	3.63262	10.99549	53.55207
851.56250	48.72843	1.48037	11.59342	55.48562
855.46875	49.13135	5.78234	11.78976	49.54297
859.37500	47.92254	5.56903	14.81900	49.28973
863.28125	47.11671	3.94364	12.07433	46.73206
867.18750	43.89330	4.81330	4.92681	41.38168
871.09375	37.44648	5.40418	3.44165	43.73260
875.00000	40.26704	5.33534	8.93129	45.55218
878.90625	40.67002	2.01741	12.87211	43.34160
882.81250	35.83487	4.43997	6.91996	40.31314
886.71875	31.40262	4.80047	4.10976	35.26257
890.62500	27.77621	3.68937	9.39439	33.58258
894.53125	26.56742	6.88936	12.91046	36.30995
898.43750	26.16452	6.51276	12.12375	34.16961
902.34375	22.94106	3.73327	9.42645	31.48935
906.25000	19.71759	4.80304	7.33568	27.94343
910.15625	18.10588	6.81429	4.87502	24.63420
914.06250	15.28531	2.38707	5.59658	24.63638
917.96875	15.28528	2.53370	4.51413	21.36901
921.87500	15.68823	6.25365	7.10109	22.27483
925.78125	13.27064	4.01507	8.15774	22.24639
929.68750	10.45017	2.29019	0.36157	17.69534
933.59375	12.86782	3.51495	-0.11530	18.18702
937.50000	14.88252	5.39039	3.33891	19.04039
941.40625	14.47955	5.55189	3.56836	19.11543
945.31250	12.86785	4.85377	6.57559	20.99347
949.21875	9.64447	3.81876	8.74961	17.60328
953.12500	6.82398	1.41026	3.02924	11.72398
957.03125	9.24168	-0.22929	0.94194	10.25891
960.93750	6.01833	-0.79170	3.66150	9.51899
964.84375	6.01838	2.88621	-0.63462	7.66537
968.75000	5.61552	2.53726	-5.01407	4.21333
972.65625	1.58628	1.31304	-3.90587	4.03867
976.56250	0.78042	1.38844	3.36652	7.11042
980.46875	-2.84590	-0.69160	1.73714	5.57148
984.37500	-6.87521	-2.29164	-0.58047	5.22957
988.28125	-11.30747	-2.35866	2.18508	4.52384
992.18750	-10.09864	-0.80402	4.06272	5.20501
996.09375	-7.68102	-0.23274	6.18012	4.35544
1000.00000	-4.86037	0.61188	7.06080	2.03349
1003.90625	-2.84556	4.22723	7.94576	4.82250
1007.81250	-4.45703	4.44370	6.97845	4.83762
1011.71875	-5.66551	0.29946	1.95546	1.12204
1015.62500	-3.24766	0.54832	-0.69009	3.20216
1019.53125	-2.44146	3.11676	-2.12744	2.93329
1023.43750	3.20011	3.90665	-0.03880	3.62483
1027.34375	7.22993	1.59003	4.93474	9.59000
1031.25000	3.20117	-0.61242	3.07081	9.52084
1035.15625	1.99297	2.92632	3.30552	7.27655
1039.06250	4.41127	4.80646	6.00194	8.67246
1042.96875	3.20325	3.99739	2.46032	10.09818
1046.87500	1.59235	3.18349	-0.31916	10.32148
1050.78125	5.62244	3.31247	0.96399	8.64466
1054.68750	2.39988	4.08158	0.84162	2.47510
1058.59375	6.43006	2.45587	-3.20449	7.56372
1062.50000	28.59216	4.09473	2.14462	31.89737
1066.40625	6.02898	4.79262	8.14019	11.46530
1070.31250	-31.44263	0.39178	1.68117	-24.47269
1074.21875	-38.69445	-4.44595	1.58983	-30.14148
1078.12500	-61.66065	-8.77142	0.06883	-51.56828
1082.03125	-81.40329	-11.51766	-3.40515	-66.36414
1085.93750	-89.05813	-14.13221	-1.51870	-71.19059
1089.84375	-89.46026	-15.01388	-2.43190	-74.51926
1093.75000	-86.63892	-13.38796	-3.71633	-78.48677
1097.65625	-87.04107	-13.16271	-6.74342	-83.30505
1101.56250	-84.62274	-12.21962	-11.77353	-81.61097
1105.46875	-81.80161	-11.68679	-8.74640	-77.27882
1109.37500	-72.53353	-10.26505	-2.91118	-70.17454
1113.28125	-64.87708	-10.25167	-7.82213	-63.98922
1117.18750	-58.02663	-9.10707	-7.12139	-57.83169
1121.09375	-48.75864	-5.66895	0.00484	-49.70522
1125.00000	-44.32579	-4.39159	-2.26135	-44.67374
1128.90625	-41.90770	-5.90913	-5.79924	-43.26795
1132.81250	-36.26607	-3.09397	-6.29397	-40.64129
1136.71875	-32.63913	-0.63430	-7.11010	-35.58962
1140.62500	-33.44452	-5.16451	-5.54491	-35.11735
1144.53125	-31.83239	-5.54434	-7.04625	-35.82909
1148.43750	-25.38511	-4.36228	-7.87122	-34.49364
1152.34375	-18.93780	-1.98601	-5.57677	-29.39484
1156.25000	-19.34019	0.57024	-5.50063	-22.62448
1160.15625	-22.16030	-1.44132	-6.26336	-20.12013
1164.06250	-20.95110	-3.86425	-8.99946	-20.12142
1167.96875	-19.33890	-5.62296	-6.30527	-15.64433
1171.87500	-20.14443	-6.92568	-2.84829	-8.89357
1175.78125	-16.11476	-4.68744	0.93035	-8.05850
1179.68750	-12.48800	-4.57460	0.26505	-9.14761
1183.59375	-12.48761	-6.60552	-4.49611	-8.42964
1187.50000	-12.08439	-2.43738	-2.71214	-8.87936
1191.40625	-12.48707	-2.19629	-1.32972	-6.13318
1195.31250	-12.48684	-6.33375	-1.91929	-2.36946
1199.21875	-14.09829	-6.50784	0.74200	-0.18738
1203.12500	-9.66592	-1.27913	2.83612	3.67799
1207.03125	-3.62174	2.77758	4.92363	5.54668
1210.93750	-1.60694	-1.09252	8.65116	5.88434
1214.84375	-1.20388	-3.96496	1.26236	2.09753
1218.75000	0.40801	-4.42216	-7.65479	-2.10557
1222.65625	3.22859	-2.79533	-9.16586	-2.73619
1226.56250	2.42272	-4.07991	-8.37947	-3.79284
1230.46875	4.84018	-2.40316	-4.33238	-1.44758
1234.37500	4.43721	3.22583	-2.01464	0.50644
1238.28125	5.24295	3.69542	0.45798	2.42142
1242.18750	1.21354	-1.48595	-3.83719	3.75527
1246.09375	-4.83049	-2.46045	-7.56622	0.97887
1250.00000	-4.42772	0.32100	-1.99992	2.09238
1253.90625	-2.41323	-0.07127	-1.67611	4.54185
1257.81250	-6.44274	-2.70559	-3.12627	2.10959
1261.71875	-6.84592	-3.79975	1.09102	1.39338
1265.62500	-0.39932	-2.03423	3.33376	3.74597
1269.53125	-2.81720	-4.20012	4.36824	2.40354
1273.43750	-3.22052	-5.39322	5.90601	1.30951
1277.34375	-2.81798	-3.07684	3.35016	0.58293
1281.25000	-6.84774	-2.48643	-1.23264	-2.16791
1285.15625	-5.63944	0.42150	2.96506	-1.13190
1289.06250	-3.62526	0.15273	4.29801	0.69618
1292.96875	-8.86384	-4.67948	-3.03930	-1.53475
1296.87500	-9.67034	-5.88058	-1.46863	-0.95150
1300.78125	-9.26793	-4.39818	2.08350	0.72602
1304.68750	-8.05965	-2.34703	3.41478	3.26994
1308.59375	-2.82210	-0.72153	8.26687	7.85242
1312.50000	-1.61384	-2.36065	6.14130	10.51585
1316.40625	8.45892	-0.64116	4.17516	22.89016
1320.31250	4.02616	-0.67272	2.17293	10.47746
1324.21875	-24.17949	-4.69971	-0.95911	-22.53419
1328.12500	-25.38879	4.46065	-3.46731	-26.89407
1332.03125	-22.56882	8.41539	-0.39612	-25.79710
1335.93750	-38.68651	6.59740	-1.07374	-40.31054
1339.84375	-49.56609	8.28461	-7.01028	-54.70993
1343.75000	-53.59590	8.27001	-5.72567	-62.02374
1347.65625	-61.65509	14.08843	-6.32486	-70.09851
1351.56250	-68.10240	14.75674	-4.51803	-73.00074
1355.46875	-73.74393	11.40307	1.72236	-76.12351
1359.37500	-84.62348	11.18981	1.52835	-88.86816
1363.28125	-91.87666	10.37032	-4.43970	-97.47041
1367.18750	-95.10052	8.41959	-7.96077	-98.79200
1371.09375	-99.93616	11.42810	-7.02825	-102.08266
1375.00000	-98.72785	15.38854	-3.15026	-103.89018
1378.90625	-105.17522	9.65313	-2.43281	-110.53355
1382.81250	-109.20499	7.24060	-4.75851	-112.35387
1386.71875	-106.78788	9.21292	-4.34527	-109.34641
1390.62500	-102.35609	7.29596	-3.08983	-106.19172
1394.53125	-98.32716	6.06378	-1.18544	-99.83850
1398.43750	-91.88063	6.09019	-1.56918	-95.12941
1402.34375	-76.97258	9.35472	-1.44584	-80.88707
1406.25000	-59.64687	6.79815	0.49275	-65.09274
1410.15625	-51.18568	1.95970	-0.35602	-55.10554
1414.06250	-39.50091	2.36769	-1.64898	-43.41862
1417.96875	-24.59262	1.30557	2.90969	-29.36022
1421.87500	-16.53423	-1.42133	5.09384	-16.36672
1425.78125	-6.05820	-1.24223	-1.10218	-9.14261
1429.68750	4.82073	2.27103	1.17495	0.00578
1433.59375	12.87921	3.09286	6.74213	11.77926
1437.50000	18.11715	-1.47853	4.55541	17.87051
1441.40625	22.14631	-2.52576	2.36732	21.97462
1445.31250	26.17548	-2.82088	1.34539	26.67298
1449.21875	25.36952	-5.87054	0.69887	29.32652
1453.12500	28.99575	-6.26442	1.82834	33.52021
1457.03125	36.65133	-5.48636	4.97909	37.29298
1460.93750	41.08346	-3.22826	8.10158	39.77633
1464.84375	39.87462	-3.98254	-0.22380	41.54889
1468.75000	38.66575	-7.15198	-5.00615	40.91727
1472.65625	39.87451	-7.97319	-2.68910	39.93656
1476.56250	38.26274	-5.88313	-1.86357	39.38185
1480.46875	34.63639	-7.56021	-2.68701	39.05156
1484.37500	37.45686	-6.33967	-0.97522	40.72416
1488.28125	34.63636	-3.98899	0.98450	38.80950
1492.18750	27.78653	-8.88119	-2.77877	35.86420
1496.09375	28.59242	-9.51865	0.14458	39.84964
1500.00000	29.39823	-7.06223	1.83114	39.94506
1503.90625	28.99526	-7.47613	-3.73065	37.09290
1507.81250	30.60698	-6.05083	-1.87748	38.71948
1511.71875	33.42746	-2.94225	1.56102	39.83870
1515.62500	36.65092	-2.69332	-2.69612	41.51559
1519.53125	36.65092	-6.57164	-4.93928	42.45509
1523.43750	34.63627	-6.18463	-1.23890	43.14612
1527.34375	31.41282	-6.08357	-2.71221	35.00817
1531.25000	31.41283	-5.06243	-2.96437	29.29735
1535.15625	32.21873	-3.13541	-2.32671	31.88757
1539.06250	30.60710	-5.28449	-9.70344	29.65631
1542.96875	28.18957	-3.67591	-10.42452	29.46951
1546.87500	29.39843	-0.46043	-5.95110	32.91539
1550.78125	29.80142	1.28039	-3.45901	32.44648
1554.68750	25.36933	0.84076	-3.58134	27.48479
1558.59375	25.36940	1.22975	-2.79215	23.70794
1562.50000	29.39875	4.07746	0.54242	23.86481
1566.40625	24.96654	1.55195	1.29998	19.54900
1570.31250	18.11677	-4.46062	-1.93565	15.84439
1574.21875	15.69919	-7.68656	-3.23566	16.21850
1578.12500	15.69922	-5.56519	-2.33899	15.74314
1582.03125	11.66995	-6.69973	-1.38063	14.64598
1585.93750	11.66994	-7.70262	-3.52331	11.83330
1589.84375	10.86410	-4.15199	-2.82465	12.53298
1593.75000	5.62599	-6.55531	-0.88557	15.41440
1597.65625	7.23764	-4.31544	-1.09209	15.02746
1601.56250	6.83463	-0.14894	3.95109	15.51195
1605.46875	4.81993	-4.85417	4.96360	16.61983
1609.37500	4.01405	-7.05880	2.33730	16.47055
1613.28125	6.43162	-5.43375	6.69377	18.62578
1617.18750	9.25210	-5.09497	5.78271	21.15609
1621.09375	8.44621	-6.08902	-1.99948	16.38805
1625.00000	10.05786	-5.21461	-1.44511	13.36022
1628.90625	8.44621	-3.10576	2.67271	13.15365
1632.81250	4.81986	-1.90221	-0.23952	11.34754
1636.71875	3.20824	-1.05421	0.55607	11.56340
1640.62500	2.40245	-2.76380	0.50952	10.02044
1644.53125	3.61133	1.28863	1.82864	10.51700
1648.43750	4.41730	4.48546	9.46525	8.62857
1652.34375	3.61153	-1.19683	8.53618	7.68294
1656.25000	2.80574	-1.05814	-2.26675	6.39422
1660.15625	10.86452	3.37730	-7.05881	6.88342
1664.06250	11.26752	1.76032	-2.13923	10.50814
1667.96875	0.79141	-0.40130	3.37559	5.31449
1671.87500	-0.41732	1.51952	3.20619	3.20028
1675.78125	-3.23763	0.13138	4.16435	5.24395
1679.68750	-0.41702	-2.17330	2.29037	6.97497
1683.59375	3.20929	-1.78663	-0.05323	4.06613
1687.50000	4.01506	-0.84189	1.32791	4.01897
1691.40625	7.23843	1.81677	4.72497	7.16774
1695.31250	8.04408	3.72331	5.74712	6.09590
1699.21875	7.23805	-0.48011	3.57335	7.06885
1703.12500	8.04367	-2.10130	4.45878	11.33679
1707.03125	6.02877	-0.86504	3.32289	11.19044
1710.93750	3.61094	0.50280	0.60364	6.69256
1714.84375	0.79017	2.06258	2.07942	7.74061
1718.75000	1.59589	-2.82690	3.23566	9.58125
1722.65625	4.01331	-2.00598	0.91879	5.72701
1726.56250	3.20739	3.55928	3.71990	3.86442
1730.46875	0.38680	2.01262	4.54361	4.59789
1734.37500	-0.41919	-0.01418	4.04084	6.14901
1738.28125	1.19249	-0.75339	4.09599	7.25810
1742.18750	1.59542	0.10917	-2.61666	6.98032
1746.09375	4.81877	2.35807	-4.33097	5.41271
1750.00000	4.41582	-0.09872	-3.59972	3.30291
1753.90625	1.19226	-1.29693	-0.05238	3.33491
1757.81250	-0.41958	-1.51369	0.91508	4.52925
1761.71875	2.80384	-0.59326	-1.71737	6.63380
1765.62500	3.60975	2.38101	1.73416	5.76322
1769.53125	-0.82247	1.02095	5.99208	5.22699
1773.43750	-0.41951	1.03661	2.29185	8.16276
1777.34375	-1.22527	0.53242	4.57117	5.42192
1781.25000	-2.03101	-1.69780	4.01766	0.25393
1785.15625	-1.22511	-2.01338	-2.26084	-1.12705
1789.06250	-2.03090	-3.89392	-2.13666	0.29867
1792.96875	4.01310	-3.48813	0.59925	4.51520
1796.87500	6.02782	-3.07754	5.79634	6.71080
1800.78125	1.19272	-3.60979	5.31908	6.37426
1804.68750	3.20748	-2.36452	4.23280	4.88952
1808.59375	2.80460	-1.54493	0.62328	2.21988
1812.50000	0.38714	-4.79577	-3.11404	3.27218
1816.40625	3.20773	-3.07634	2.17250	6.37965
1820.31250	6.02832	0.92137	3.39359	8.87583
1824.21875	4.41671	-1.89686	2.67914	7.69621
1828.12500	7.23728	-3.21272	3.79730	8.17195
1832.03125	8.44610	-0.06382	0.82450	10.07531
1835.93750	5.62560	-1.07596	-3.07665	6.44146
1839.84375	4.81970	-1.80630	-4.17805	4.13048
1843.75000	4.41682	-1.82089	-4.10234	3.66707
1847.65625	5.62560	-2.04643	-4.29857	0.83098
1851.56250	4.41679	-0.57226	-2.08884	1.95860
1855.46875	3.20800	0.50631	-1.89241	5.28328
1859.37500	2.80506	-0.10994	-2.08649	1.40360
1863.28125	5.22268	1.08520	0.40698	2.06926
1867.18750	8.04321	2.35782	4.54153	5.58325
1871.09375	4.41692	2.14284	2.25060	6.32243
1875.00000	-0.01528	1.67103	-6.36223	4.91849
1878.90625	-0.01512	0.77066	-6.04768	0.29039
1882.81250	1.59679	0.77574	-5.14991	-1.12633
1886.71875	0.79086	-0.07255	-3.93067	-2.14770
1890.62500	1.99963	0.42804	-1.06354	-2.61898
1894.53125	3.61138	1.21047	0.03507	-1.10048
1898.43750	2.80543	-2.79244	-1.55740	-1.22631
1902.34375	1.99947	-5.57193	0.98358	0.12256
1906.25000	1.99937	-0.87578	3.32518	1.41168
1910.15625	-1.62707	-0.07340	-3.16465	-0.68879
1914.06250	-0.01547	-1.27720	-5.26348	0.52205
1917.96875	-0.01551	-1.93640	-2.31656	-0.73072
1921.87500	0.38745	-1.43988	-0.13234	-1.03361
1925.78125	2.80503	1.15681	1.32741	1.75846
1929.68750	-0.01544	0.64076	2.79869	-1.18091
1933.59375	-0.41834	0.50771	0.33235	-3.61677
1937.50000	1.99930	3.19191	0.73543	-3.06597
1941.40625	-0.41824	4.35592	-0.47321	-3.95910
1945.31250	0.79060	3.38448	-4.09942	-2.82509
1949.21875	6.43168	1.83724	-4.50211	-6.14281
1953.12500	4.41707	2.04598	-6.11372	-10.02036
1957.03125	6.43174	6.42275	-2.89011	-6.19710
1960.93750	6.02883	5.23909	1.94525	-3.93828
1964.84375	1.99955	1.01043	1.54244	-2.90148
1968.75000	1.19374	2.99690	-1.27790	-1.78094
1972.65625	0.38796	2.37122	-0.06899	-1.52794
1976.56250	0.79090	-0.43146	2.75168	0.34284
1980.46875	-0.01492	2.49230	4.36354	-1.88996
1984.37500	-2.43249	3.48105	1.54319	-4.17884
1988.28125	-2.83538	-2.68313	-1.68016	-3.06785
1992.18750	-2.02950	-4.96187	-0.87423	-4.73376
1996.09375	-2.02941	-4.87971	-2.48581	-3.59485
2000.00000	-5.25281	-6.30360	-2.08277	-1.84428
2003.90625	-2.83517	-4.91914	-0.87382	3.01466
2007.81250	0.38836	-2.30829	-1.67950	7.32433
2011.71875	-2.83503	-3.83417	1.94705	7.35842
2015.62500	-1.62617	-6.51882	0.73837	4.14930
2019.53125	-0.01444	-5.03294	-6.11138	-0.57852
2023.43750	0.79144	-2.43334	-4.09661	0.95141
2027.34375	2.00025	-3.13090	0.33579	1.19214
2031.25000	3.61198	-3.10869	-0.87284	1.30493
2035.15625	4.82077	-1.31913	-2.88730	-0.19965
2039.06250	4.01499	-2.15890	-3.28997	-3.33201
2042.96875	0.38870	-3.56866	-2.48396	-1.09981
2046.87500	-2.02889	-5.55347	-2.48378	-1.31551
2050.78125	-2.43182	-4.79827	-2.88656	-4.76134
2054.68750	-4.84928	-3.38210	-3.69226	-3.74923
2058.59375	-6.46098	-3.32336	-5.30382	-3.25601
2062.50000	-4.44625	-1.47671	-1.67729	-4.34695
2066.40625	-4.44617	-1.51741	-0.46830	-10.26997
2070.31250	-2.43143	-0.84264	-0.06520	-12.45204
2074.21875	-2.43135	-0.21604	-1.27379	-12.14254
2078.12500	-4.04296	1.54586	-6.51175	-15.26104
2082.03125	-0.41652	3.43777	-3.69110	-12.81912
2085.93750	-0.01352	2.93325	0.33835	-11.97003
2089.84375	-4.04275	1.50705	-3.28788	-10.48452
2093.75000	-3.63973	-0.68418	-5.30248	-6.44332
2097.65625	-0.81918	-2.05760	-1.67603	-6.30877
2101.56250	-0.81911	1.09991	1.14460	-5.96684
2105.46875	-0.81905	1.35132	-0.06407	-2.78734
2109.37500	2.80738	-0.97111	-0.06392	1.14215
2113.28125	3.21048	0.85606	1.14498	0.05054
2117.18750	2.40472	-0.03144	-2.07837	-5.41151
2121.09375	2.00179	-0.03056	-0.46646	-3.53308
2125.00000	1.19590	-0.62299	2.35420	-0.85162
2128.90625	2.00172	-0.62030	5.57782	-0.53732
2132.81250	-0.01299	-2.44389	5.57802	-0.72061
2136.71875	1.19571	-3.65828	1.54891	0.72500
2140.62500	-0.41612	-3.17902	-0.06265	-0.68363
2144.53125	1.19558	-4.19952	1.54930	-2.93806
2148.43750	4.41896	-3.08051	3.16117	-0.61342
2152.34375	4.01595	1.50562	3.96724	2.12170
2156.25000	4.01593	1.56747	3.56452	4.04053
2160.15625	4.41884	0.51767	-0.46457	4.19313
2164.06250	2.80705	2.30596	-0.06150	-0.18030
2167.96875	-0.41639	1.72279	2.75919	-4.32228
2171.87500	2.80706	0.21572	1.55055	-4.31668
2175.78125	2.40414	-2.08267	0.74488	-3.52557
2179.68750	-0.41641	-3.85040	-0.46376	-3.81232
2183.59375	1.19534	-1.25441	0.34228	0.17026
2187.50000	2.40414	0.89621	6.78937	6.46973
2191.40625	-2.43108	-3.49155	2.76023	4.54270
2195.31250	-4.04280	-4.93799	-0.86599	1.39454
2199.21875	0.79238	-2.18224	1.55179	4.71271
2203.12500	-1.62517	-4.00308	-0.86566	1.74096
2207.03125	-6.46038	-5.15678	-0.86554	-2.08184
2210.93750	-1.22225	-4.77930	1.95516	-1.11671
2214.84375	-1.22221	-3.77439	0.74650	-2.95889
2218.75000	-4.44557	-3.74649	0.74669	-0.45255
2222.65625	-0.81909	-5.13570	1.14981	3.72723
2226.56250	-1.22203	-3.13927	1.14997	2.66280
2230.46875	6.03075	3.20406	9.61167	9.73127
2234.37500	7.64252	2.21502	10.01480	8.79721
2238.28125	-0.81896	-5.32074	1.15047	1.23985
2242.18750	2.80743	-1.83351	-1.26694	5.72686
2246.09375	8.44847	1.30756	5.18004	4.18548
2250.00000	5.62795	-0.49220	8.40359	1.22643
2253.90625	6.43380	-0.66812	0.74807	3.62067
2257.81250	8.44857	-1.26453	-0.05769	2.13197
2261.71875	6.03109	-0.54464	-1.66928	0.88958
2265.62500	7.64291	0.93098	-2.07212	1.27856
2269.53125	3.61371	-0.55508	-0.46024	-0.03717
2273.43750	-0.41555	-4.36379	-1.66894	2.05963
2277.34375	4.01679	-1.24892	0.34581	5.84855
2281.25000	2.40523	-2.07720	1.55473	4.93031
2285.15625	4.01704	-3.86713	2.36068	3.61487
2289.06250	8.44942	0.59882	2.76368	7.55356
2292.96875	6.43491	-0.40927	1.95799	8.14241
2296.87500	3.21161	-2.45389	0.74933	5.53801
2300.78125	5.62938	0.41697	3.56996	8.58141
2304.68750	2.40610	-0.59650	0.34666	7.16697
2308.59375	0.79452	-3.87892	0.34683	5.86847
2312.50000	4.01813	-0.48770	5.18212	6.95994
2316.40625	4.01825	1.97033	3.97348	6.83950
2320.31250	4.01834	-1.12229	0.75020	5.39569
2324.21875	4.82431	1.07134	-1.26431	2.26618
2328.12500	2.80981	2.12973	0.34752	2.16186
2332.03125	-0.01057	-0.97129	-0.05526	0.92928
2335.93750	2.00418	-0.06420	2.36251	2.09527
2339.84375	0.79547	-0.65292	2.36268	5.04260
2343.75000	2.81018	-2.08842	3.57166	7.85167
2347.65625	2.40737	-1.11819	3.16890	8.12049
2351.56250	5.22796	2.17101	-4.48658	6.97325
2355.46875	12.07787	0.71046	-3.27762	11.44995
2359.37500	6.43700	-2.20544	-1.26281	8.32687
2363.28125	-4.03909	-3.62993	2.76664	-1.05706
2367.18750	-2.42730	-5.16030	8.81074	-0.02678
2371.09375	1.60220	-6.77310	7.19913	4.13931
2375.00000	3.21404	-4.16630	-0.05341	1.45834
2378.90625	5.22881	-1.75168	3.97614	1.14452
2382.81250	4.82594	-0.33132	14.45246	6.16344
2386.71875	-0.00913	-1.53475	7.60281	2.70353
2390.62500	-0.81487	-2.41725	-2.87323	-0.72258
2394.53125	-0.00893	-0.99409	-6.09653	-1.28816
2398.43750	1.60292	1.91589	-2.87291	0.81982
2402.34375	2.00591	2.56756	1.15654	1.30857
2406.25000	4.02066	2.10256	1.55961	-5.04204
2410.15625	10.06473	3.95801	0.35097	-5.19411
2414.06250	12.88535	6.60170	2.76871	-3.64089
2417.96875	11.67661	4.36409	1.96298	-9.97477
2421.87500	11.27370	3.05034	-0.85748	-9.17404
2425.78125	10.06491	4.54259	1.15728	-5.53246
2429.68750	4.02099	-0.13687	1.15742	-4.84240
2433.59375	1.20057	-2.73313	2.36642	-2.37764
2437.50000	3.61825	0.75686	2.76951	1.39657
2441.40625	5.63297	1.51792	2.36672	0.10048
2445.31250	4.02125	0.14356	4.38150	0.83149
2449.21875	4.42429	-1.40368	6.79924	4.36355
2453.12500	4.42445	-2.40368	6.39645	4.91822
2457.03125	4.42461	-0.04154	4.38190	5.11507
2460.93750	2.81298	-4.44863	4.78498	2.13573
2464.84375	2.81313	-4.24497	7.60563	0.75491
2468.75000	5.63389	0.56206	4.38227	3.08428
2472.65625	9.26043	2.75681	2.77068	5.35203
2476.56250	10.06651	4.38650	0.75619	7.22286
2480.46875	8.05210	0.86335	-2.46713	8.21371
2484.37500	5.63480	-0.96843	-1.25820	9.14842
2488.28125	2.81453	0.52313	2.77118	9.45379
2492.18750	2.00900	3.07953	0.35365	8.19109
2496.09375	4.82988	3.96749	3.98018	6.50982
2500.00000	1.20395	2.54365	5.99496	4.23154
2503.90625	-1.61608	-0.90708	-2.06358	0.62932
2507.81250	2.41376	-3.13140	-2.46640	-4.73086
2511.71875	4.02611	-1.03094	-2.46633	-3.89039
2515.62500	6.04149	1.52257	0.75721	3.78034
2519.53125	0.80413	-2.22968	1.16017	2.27659
2523.43750	-3.62726	-7.28571	-3.27194	-1.83382
2527.34375	-0.00015	-2.74509	-0.85429	-1.99535
2531.25000	0.40362	-1.11120	-0.45123	-3.49357
2535.15625	0.40445	-3.75378	-5.28630	-6.60919
2539.06250	3.22574	-0.56427	-3.67450	-4.90568
2542.96875	3.22648	-3.18280	-4.07732	-3.47859
2546.87500	3.63015	-6.37653	-3.67429	-1.67887
2550.78125	3.63091	-5.21831	-1.25659	1.32280
2554.68750	2.82565	-3.80207	-0.85362	2.73836
2558.59375	-0.80016	-0.11697	0.75816	-0.39447
2562.50000	2.02088	-0.68783	3.17576	-2.29079
2566.40625	5.24479	-2.34019	-0.45045	-2.16944
2570.31250	4.43932	1.15513	-2.86791	-3.54536
2574.21875	0.41030	-3.85923	-2.06195	-9.27959
2578.12500	-3.21591	-4.51491	-1.25588	-14.41265
2582.03125	0.41059	5.03277	3.57948	-10.35902
2585.93750	1.21645	4.93121	12.84705	-5.07762
2589.84375	-8.45395	1.89337	10.02672	-9.63619
2593.75000	-16.10969	3.73141	8.41520	-14.45943
2597.65625	-18.12440	9.20783	16.47412	-19.16022
2601.56250	-36.25652	1.88913	5.99815	-39.36797
2605.46875	-56.80622	-7.12686	1.96909	-60.76751
2609.37500	-66.47682	3.04155	8.41615	-73.35847
2613.28125	-70.50637	9.70397	19.29553	-74.85343
2617.18750	-88.23558	-0.85381	9.62546	-92.80674
2621.09375	-107.17365	-5.28515	-0.44753	-112.28401
2625.00000	-114.42674	-1.84822	11.23773	-117.66157
2628.90625	-110.39779	0.97506	20.50541	-117.34756
2632.81250	-120.47138	0.76328	19.29685	-129.21619
2636.71875	-146.66222	-1.65988	6.40329	-154.76724
2640.62500	-145.45375	-0.77758	7.20938	-154.56447
2644.53125	-147.06580	-0.58921	13.25366	-153.99883
2648.43750	-151.09538	0.52988	12.44801	-162.95662
2652.34375	-147.06645	-1.73378	10.43361	-163.84822
2656.25000	-146.26088	-1.67191	14.06025	-156.28877
2660.15625	-140.21725	-3.93045	16.07513	-150.09264
2664.06250	-130.54715	-6.57443	9.22557	-143.58723
2667.96875	-115.23612	-2.72544	5.59943	-127.98595
2671.87500	-101.53668	-5.03831	8.42019	-111.05756
2675.78125	-85.41978	-1.29282	10.43506	-94.14959
2679.68750	-67.69111	0.16289	10.43530	-81.13988
2683.59375	-52.78289	-4.89683	6.40629	-64.66669
2687.50000	-36.66597	-2.74615	3.98898	-46.68252
2691.40625	-23.77239	-1.89583	3.18331	-32.49250
2695.31250	-14.10220	-5.75983	-0.84576	-18.31492
2699.21875	-0.80579	-4.61580	-2.86015	-3.31207
2703.12500	11.28182	-4.42194	-1.24814	7.01258
2707.03125	20.54894	-4.36684	1.57263	19.30675
2710.93750	29.81604	-3.58640	-2.85936	31.15065
2714.84375	39.88908	-6.20786	-8.09718	38.97855
2718.75000	47.14159	-5.77701	-8.09686	48.73733
2722.65625	54.39412	-4.34564	-6.08194	57.75197
2726.56250	59.22905	-4.76674	-2.85822	59.50783
2730.46875	66.48155	-5.27320	-9.30487	61.74084
2734.37500	71.71944	-3.03882	-12.93099	66.44761
2738.28125	70.10760	-1.71010	-8.09559	69.76907
2742.18750	71.31620	-3.46097	-8.09535	70.22640
2746.09375	74.13658	-0.31996	-7.69214	70.69948
2750.00000	72.52474	1.50659	-8.49767	70.15798
2753.90625	70.50995	0.92768	-7.28873	72.55215
2757.81250	72.92746	2.34586	-7.69139	72.27197
2761.71875	76.15091	3.06563	-10.10877	64.98546
2765.62500	76.55378	5.74999	-9.30269	64.56845
2769.53125	64.06283	4.66678	-9.30247	66.87889
2773.43750	54.79541	1.26102	-12.52568	65.75215
2777.34375	56.00418	0.74947	-13.33127	65.51173
2781.25000	51.97480	-1.28764	-10.91346	63.38457
2785.15625	50.76591	-0.25708	-7.28693	62.87490
2789.06250	51.57174	2.19419	-8.49540	59.56077
2792.96875	52.78046	3.20076	-7.28647	54.91142
2796.87500	53.98916	2.76779	-6.07744	52.70981
2800.78125	50.36275	1.60933	-12.52409	47.69457
2804.68750	52.37737	3.41637	-7.68864	48.69757
2808.59375	52.78022	2.55152	-1.64445	49.41361
2812.50000	49.55664	0.70456	-8.89703	46.47559
2816.40625	46.73604	0.74495	-12.52324	45.95203
2820.31250	45.12428	0.06992	-9.29958	43.29932
2824.21875	45.93003	2.26353	-8.09057	42.99012
2828.12500	43.91531	2.51605	-5.67274	44.09451
2832.03125	39.48306	1.02676	-4.86670	41.65301
2835.93750	35.05082	-0.08078	-3.65769	40.40125
2839.84375	30.21569	-1.87827	-1.23984	34.48395
2843.75000	28.60399	-0.49318	-8.08941	28.83140
2847.65625	26.18639	-0.73178	-10.90964	23.86200
2851.56250	20.54533	-2.68077	-10.10361	19.89413
2855.46875	20.14249	-4.94708	-8.89462	19.53556
2859.37500	19.33665	-4.63957	-2.44749	19.23278
2863.28125	16.11329	-1.22892	-3.25307	19.92196
2867.18750	15.30743	-2.75928	-5.67042	18.13174
2871.09375	14.50165	-5.58089	-6.07315	16.65667
2875.00000	14.09878	-3.37703	-5.66996	18.00487
2878.90625	16.91934	-0.96243	-4.05808	19.30260
2882.81250	20.94865	1.66668	-3.25198	22.30674
2886.71875	21.75450	3.68668	-4.46059	21.26439
2890.62500	19.73980	4.01292	-4.46039	16.62940
2894.53125	17.32217	3.82427	-2.84855	14.85485
2898.43750	14.90462	2.70502	-5.66886	14.54517
2902.34375	15.71046	1.74494	-5.26573	15.83970
2906.25000	14.50168	2.48875	-1.23618	15.53300
2910.15625	17.32221	3.94125	-0.02716	15.38086
2914.06250	17.72522	3.36153	-0.42986	14.11364
2917.96875	16.51649	3.13864	-2.04142	12.61501
2921.87500	17.72534	4.24248	-2.04121	13.41573
2925.78125	10.87561	-0.71214	-3.24975	8.19280
2929.68750	11.27854	-0.95931	-1.23491	7.27118
2933.59375	14.09908	2.48845	1.98879	7.31830
2937.50000	12.48744	1.14334	2.79484	7.06315
2941.40625	15.30798	1.09866	6.42141	17.45210
2945.31250	14.09924	4.96242	5.61575	18.18303
2949.21875	2.01141	3.01229	-2.84562	-2.46072
2953.12500	-2.01782	0.80356	-4.45711	-6.74133
2957.03125	-0.00309	5.18040	-3.65104	-0.90348
2960.93750	-2.01767	6.41442	-8.48592	-5.89747
2964.84375	-4.83810	3.39463	-9.29165	-9.69591
2968.75000	-2.01754	2.96353	-8.88850	-4.94904
2972.65625	-0.40572	4.35252	-6.87366	-0.26386
2976.56250	-0.40563	2.75875	-0.82952	-0.00484
2980.46875	1.20609	0.84728	-3.64980	-1.02886
2984.37500	4.42956	2.23899	-6.06716	1.11443
2988.28125	6.84716	2.92459	-1.63464	5.85181
2992.18750	7.25017	1.04879	0.38025	7.81221
2996.09375	5.63854	1.53386	-2.84292	6.13057
