 	TP9	AF7	AF8	TP10	
-1000.00000	-7.12404	1.45259	-1.28071	-6.91737
-996.09375	-5.10915	4.93205	-3.69815	-6.00508
-992.18750	-10.34703	-0.55370	-7.32445	-9.73060
-988.28125	-6.72056	-1.23961	-3.29499	-4.92869
-984.37500	-4.30288	-1.04265	2.34607	-1.22563
-980.46875	-5.51164	1.51899	2.74908	-2.48976
-976.56250	-3.89988	3.29362	0.33157	-0.45789
-972.65625	-9.13810	-0.63873	-1.68296	-2.13439
-968.75000	-3.90018	1.14685	2.34649	-1.65278
-964.84375	-2.69160	-2.18804	5.97307	-0.32664
-960.93750	-5.51244	-1.63124	5.16729	-0.86986
-957.03125	1.74001	2.07008	4.76451	-0.54800
-953.12500	0.53087	0.48632	-0.47345	-3.01203
-949.21875	-3.09585	-0.10430	-2.89093	-4.03182
-945.31250	-0.27571	0.28412	0.73562	1.78227
-941.40625	2.54449	2.07365	1.94461	5.59840
-937.50000	3.75288	3.27653	3.55647	4.20358
-933.59375	-0.67957	3.22609	3.95958	1.74171
-929.68750	-2.69440	4.67819	0.33327	3.24615
-925.78125	-2.29171	3.95503	-0.87547	3.08613
-921.87500	-1.48599	4.17035	-0.87541	-0.00676
-917.96875	-0.68008	4.09244	1.94524	5.33890
-914.06250	-0.67991	0.32965	5.16875	7.69821
-910.15625	-2.29136	3.40749	0.73665	2.05038
-906.25000	-3.09686	5.60040	7.58649	3.18138
-902.34375	-5.91695	1.03088	6.37781	-1.56777
-898.43750	-6.72237	0.08557	-6.51581	-6.40699
-894.53125	-3.49838	1.46907	-1.27760	-3.27196
-890.62500	0.12860	5.75539	2.34889	0.03641
-886.71875	-1.07960	6.42824	-2.48618	-1.96359
-882.81250	-1.88482	5.14420	-2.48611	-2.30958
-878.90625	0.53341	3.34323	1.94622	-0.41073
-875.00000	0.13119	3.42239	2.34918	-0.14223
-871.09375	-1.07692	4.87367	-0.06829	0.42657
-867.18750	3.75889	6.84105	-0.47110	2.15358
-863.28125	4.96836	7.64388	-1.67982	-1.02601
-859.37500	-1.88077	2.58246	-4.50024	-4.07172
-855.46875	2.14921	4.17598	-0.87386	-4.66961
-851.56250	3.35873	6.40461	2.75261	-1.21167
-847.65625	-1.87867	2.40605	-2.88831	0.21927
-843.75000	-3.48972	1.67835	-4.09700	0.66949
-839.84375	-1.47441	0.21987	1.54412	6.78666
-835.93750	2.95850	1.31361	4.36472	7.72666
-832.03125	0.54154	1.88861	1.94729	5.19537
-828.12500	-2.27840	1.98806	-0.47025	5.12524
-824.21875	-3.48668	0.13975	-0.87317	1.56580
-820.31250	-5.90373	-2.13390	1.94750	-0.07019
-816.40625	-3.88857	-2.34340	4.76814	1.18719
-812.50000	-3.08226	-2.62863	3.96244	-0.49848
-808.59375	-3.48474	-3.27730	5.17130	-0.45639
-804.68750	-1.87251	-3.01768	1.54508	-0.35365
-800.78125	-1.06612	-1.25690	-2.48404	-3.28652
-796.87500	0.94904	0.45842	-0.06627	-3.73607
-792.96875	-0.66211	3.33101	-0.46902	-4.18898
-789.06250	0.14426	3.93686	-0.46894	-2.02088
-785.15625	1.35353	2.27825	-0.46883	-2.27008
-781.25000	-2.27238	-0.77688	1.14298	-6.48883
-777.34375	0.14570	-1.56248	8.39582	-4.62381
-773.43750	0.14614	-1.18288	5.97838	-4.66621
-769.53125	-6.30028	-1.35033	-2.88601	-10.44875
-765.62500	-3.88218	0.71485	-4.49754	-9.02101
-761.71875	-5.49353	-3.11301	-3.69158	-8.46876
-757.81250	-8.71654	-1.15330	-4.90030	-9.93563
-753.90625	-7.10432	0.35147	-6.51190	-4.74885
-750.00000	-8.71559	-5.03527	-7.72056	-3.57921
-746.09375	-4.68580	-0.05332	-3.69114	-0.86480
-742.18750	0.55272	5.83528	1.95003	2.05512
-738.28125	-6.69958	1.68591	-0.06454	0.47676
-734.37500	-9.11668	0.68292	-0.06443	-1.61446
-730.46875	-5.89287	0.53868	1.14449	-3.17081
-726.56250	-8.31009	-3.25078	1.54755	-5.60563
-722.65625	-7.90659	-2.13916	-0.46698	-7.55542
-718.75000	-3.07112	2.11913	3.15947	-4.81379
-714.84375	-1.86215	3.03627	1.95083	-6.54321
-710.93750	-1.45913	3.28521	-4.09310	-5.19482
-707.03125	-0.65329	6.43350	-2.48132	-1.08524
-703.12500	-1.86221	4.79362	-2.07840	-1.44260
-699.21875	-5.89165	0.95178	-2.07836	-6.87065
-695.31250	-6.69769	1.77198	-0.86954	-8.25348
-691.40625	-3.87726	1.59394	0.33931	-6.83238
-687.50000	-1.45983	2.40548	8.80091	-5.43834
-683.59375	-3.47448	3.26159	6.78627	-2.97716
-679.68750	-6.69792	-0.20534	-1.27227	-2.46756
-675.78125	0.15201	-1.49708	-6.10738	2.12415
-671.87500	7.80774	1.10796	-9.73365	3.20204
-667.96875	4.18150	1.58859	-1.67499	-0.12926
-664.06250	-2.66813	-0.28978	5.57786	-1.68285
-660.15625	-1.86213	1.87047	1.14575	-0.46726
-656.25000	0.95853	3.30379	-3.68928	3.63996
-652.34375	2.97336	-0.18544	-2.07746	5.97164
-648.43750	4.58529	-0.44911	1.14609	8.39351
-644.53125	3.37669	1.39070	5.17546	8.07927
-640.62500	1.36225	-2.08996	5.98149	6.38296
-636.71875	-2.26393	-2.76288	0.74354	1.53352
-632.81250	-5.89007	0.53570	-1.27100	-3.35811
-628.90625	-3.87518	0.32189	2.35545	-1.63016
-625.00000	-3.47205	0.64551	2.35550	-0.28653
-621.09375	-6.29231	-2.01470	-2.47961	-1.25776
-617.18750	-2.66563	-1.96749	-2.47949	-2.98425
-613.28125	-0.24786	0.85584	-2.07648	-1.81884
-609.37500	-1.45638	2.29073	-6.50859	-0.78723
-605.46875	0.15571	1.09996	-4.89676	2.63172
-601.56250	-1.05279	1.69174	-0.46436	4.81534
-597.65625	-1.05251	1.66089	-0.06136	2.98201
-593.75000	-1.85809	-0.83504	-0.86710	0.92065
-589.84375	-0.64899	0.22042	-2.88163	-0.36085
-585.93750	3.78352	-2.48515	-2.07573	-0.49447
-582.03125	8.21604	-2.65741	2.35663	-0.38030
-578.12500	13.45442	3.28698	10.41535	3.31669
-574.21875	11.84304	2.31463	3.56568	6.47355
-570.31250	7.41107	-0.24708	-7.71627	7.30414
-566.40625	2.97912	-0.84353	-6.91029	5.24127
-562.50000	1.36774	-5.39356	-3.68674	6.92739
-558.59375	8.21783	-3.13336	3.16317	13.33264
-554.68750	6.20344	-0.97553	6.78971	14.03616
-550.78125	0.15978	2.50174	5.17811	10.11970
-546.87500	1.77176	3.20384	3.16359	8.95797
-542.96875	1.77201	-3.29528	0.74614	6.18787
-539.06250	1.36933	-1.08074	2.76089	5.22897
-535.15625	2.98128	1.38371	5.17860	5.47850
-531.25000	-2.25656	0.40943	-4.89454	-1.98734
-527.34375	-2.25630	1.19501	-7.71494	-3.85208
-523.43750	0.96745	3.23293	-2.07383	-0.58584
-519.53125	4.59419	5.81788	4.37319	-0.44392
-515.62500	1.77397	4.15555	9.20851	0.14341
-511.71875	0.56546	4.35705	6.79103	0.80032
-507.81250	2.17748	6.02353	4.37357	0.65575
-503.90625	-3.06031	1.69821	-0.86439	-4.53071
-500.00000	-3.86585	-0.16782	-5.69940	-6.90883
-496.09375	-4.26851	2.90877	-4.89342	-7.60822
-492.18750	-3.86520	3.46706	-0.86396	-7.30431
-488.28125	-4.67073	1.16957	-1.66968	-8.54621
-484.37500	-7.49095	2.57543	-5.69883	-11.69284
-480.46875	-4.26721	2.71952	-6.50455	-8.92744
-476.56250	0.16534	3.68837	-2.47508	-3.26884
-472.65625	-0.64024	2.97960	-0.86325	-0.10980
-468.75000	-0.63999	0.33303	-4.48947	-0.03065
-464.84375	0.56903	0.62456	-6.50404	-3.13626
-460.93750	0.16640	3.19606	-2.47466	-2.06710
-457.03125	-0.23627	1.25642	-1.66869	-2.55048
-453.12500	0.97281	-0.73025	-4.48905	-3.40215
-449.21875	6.61414	3.91728	-3.28009	0.81684
-445.31250	2.58512	0.67941	-4.08586	-3.84450
-441.40625	0.16779	0.45434	-5.69748	-3.25115
-437.50000	0.97390	1.25438	-4.48863	-0.61613
-433.59375	2.18295	-2.82530	-4.08564	-3.48035
-429.68750	5.40666	-0.56733	-4.48842	1.24795
-425.78125	0.57173	3.14182	-3.68246	5.11760
-421.87500	-1.03968	3.35717	-0.86185	0.41327
-417.96875	-3.85989	1.26469	-2.47348	-4.71709
-414.06250	-5.47140	-0.08058	-5.29392	-5.17817
-410.15625	-4.26230	1.38558	-2.07040	-4.37911
-406.25000	-2.65021	2.36970	1.95909	-1.23347
-402.34375	-1.03824	0.62068	-2.47307	-0.34180
-398.43750	-1.84388	0.48130	-4.08470	-2.76372
-394.53125	-0.23196	1.86481	-2.06998	-4.46418
-390.62500	-0.23169	-0.69867	-4.08454	-4.37963
-386.71875	-1.84309	-2.84634	-6.09909	-1.94776
-382.81250	2.99235	-0.50404	-5.29305	3.74983
-378.90625	5.81311	-0.29035	-0.45777	8.06588
-375.00000	3.79872	-2.22586	1.15405	8.73693
-371.09375	2.59022	1.64302	-3.68101	9.70820
-367.18750	4.60509	6.02794	0.34840	15.06121
-363.28125	7.82873	1.18986	2.36319	11.07532
-359.37500	9.44073	-4.27453	-3.68066	7.22337
-355.46875	10.64978	-5.09853	-6.90401	7.43089
-351.56250	7.82950	-1.66113	-6.09807	4.84446
-347.65625	7.42691	1.19020	-2.87451	4.66323
-343.75000	5.81543	1.67136	-1.26271	2.29250
-339.84375	-1.03414	0.21290	-4.88904	-0.85823
-335.93750	-2.64564	-2.31977	-2.06845	0.48427
-332.03125	-4.66010	-5.37112	-0.85953	-3.65915
-328.12500	-6.67459	-5.67462	-1.66526	-7.75895
-324.21875	-7.48022	-6.31416	-0.85937	-7.69238
-320.31250	-4.25653	-2.94673	-2.06805	-8.11998
-316.40625	-3.45043	-0.33569	-1.66499	-6.46004
-312.50000	-2.64426	1.79670	-3.27659	-4.92265
-308.59375	1.38531	2.75986	-4.08236	-6.49259
-304.68750	3.40021	-1.00985	-3.27632	-8.80769
-300.78125	2.59464	-3.68135	-4.88798	-10.53216
-296.87500	4.20657	-0.75722	-3.27612	-5.74396
-292.96875	7.43027	1.30954	-0.05263	-0.15318
-289.06250	7.43057	2.72132	-3.27589	0.40291
-285.15625	11.05719	5.09194	-5.29043	1.36234
-281.25000	14.68387	4.85735	-1.26104	5.60482
-277.34375	10.25185	6.08631	4.38006	6.66376
-273.43750	8.64038	4.85420	2.76848	5.81529
-269.53125	7.83476	-1.35722	-7.70758	6.88233
-265.62500	5.01457	-1.30671	-11.33387	5.89228
-261.71875	8.64127	1.71523	-3.27512	8.05604
-257.81250	5.82104	0.45158	-2.06627	9.40959
-253.90625	-1.83426	-2.47592	-8.51293	4.92587
-250.00000	-2.63975	-1.81870	-9.72161	2.46896
-246.09375	-3.44533	-3.68648	-5.28927	3.57142
-242.18750	-4.25090	-5.45361	-1.25991	3.67058
-238.28125	-7.07112	-4.36495	0.75482	0.07741
-234.37500	-6.66790	-4.56196	0.35199	-1.20808
-230.46875	-5.05584	-3.90024	-0.05081	-0.74991
-226.56250	-7.87605	-2.85447	-0.05069	-4.39373
-222.65625	-9.48760	-5.36919	-2.06525	-8.76140
-218.75000	-3.84629	-5.94614	4.78472	-8.43741
-214.84375	1.39205	-0.99971	8.41125	-9.76390
-210.93750	0.18350	-1.95956	-5.28818	-12.04165
-207.03125	-3.44255	-6.86981	-13.34668	-10.34924
-203.12500	-4.65097	-2.06267	-5.69079	-5.46795
-199.21875	-1.02446	1.34831	0.35330	-1.22537
-195.31250	-0.62150	-3.87548	-2.46707	-1.39918
-191.40625	-0.62155	-5.66520	-5.69033	-2.39559
-187.50000	-0.62162	-5.65947	-3.27256	-0.59861
-183.59375	3.81049	-2.78867	2.36857	5.08595
-179.68750	7.03386	-1.01747	2.36871	5.59545
-175.78125	5.82495	-1.10040	1.16004	5.75482
-171.87500	7.03369	-3.73346	0.75724	5.62372
-167.96875	7.83949	-4.86454	0.75732	6.32164
-164.06250	8.64535	-1.90777	1.56321	9.60303
-160.15625	7.43654	-4.17989	3.17501	10.01265
-156.25000	4.21313	-2.74655	7.60744	7.26985
-152.34375	2.60154	-3.01227	4.38415	5.16923
-148.43750	2.60163	-6.09647	-3.27134	4.36758
-144.53125	3.40755	-1.83907	-0.04783	7.27672
-140.62500	4.21352	-1.29036	5.19037	11.22140
-136.71875	2.19898	-4.38092	3.57879	6.77472
-132.81250	2.19912	-5.91750	1.96722	2.28589
-128.90625	3.81100	-6.53427	2.77320	3.20798
-125.00000	3.40829	-3.39006	2.37039	0.92515
-121.09375	8.64657	-0.40918	5.99691	2.77432
-117.18750	7.84083	-1.16791	10.42927	5.07699
-113.28125	-0.21761	-2.77677	8.81778	-1.41334
-109.37500	1.79721	-2.95353	11.23554	-0.38189
-105.46875	3.40910	-0.11499	11.63854	7.06619
-101.56250	-0.62007	-1.53782	6.40057	8.04090
-97.65625	0.99176	-2.77750	5.19185	9.02792
-93.75000	3.40955	-2.45282	7.20660	11.39868
-89.84375	2.60389	-4.62079	3.98331	11.32590
-85.93750	5.02158	-3.29709	2.77463	12.40093
-82.03125	5.42467	-3.46926	3.98352	13.72376
-78.12500	6.63361	-4.37470	5.99828	11.77959
-74.21875	9.05136	-2.12357	8.41599	7.68372
-70.31250	7.43990	-1.86467	8.41617	9.72304
-66.40625	3.00787	-3.26704	7.61047	9.67487
-62.50000	0.99342	-3.78783	3.17831	3.70521
-58.59375	0.59071	-3.94519	0.35791	0.43999
-54.68750	1.39682	-3.80201	1.96977	2.35221
-50.78125	-0.21476	-1.53359	2.77565	3.67372
-46.87500	-1.02040	-1.23434	5.19329	4.52652
-42.96875	1.80035	-1.28649	5.99934	7.39737
-39.06250	2.20357	-1.89237	6.80533	8.05011
-35.15625	3.00970	-2.24846	4.79081	5.07614
-31.25000	3.41291	-1.61097	2.37336	0.43079
-27.34375	-2.63074	-1.63122	3.17932	-2.23976
-23.43750	-3.83928	0.00372	2.77651	-4.21173
-19.53125	0.59313	1.37983	4.38831	-4.87584
-15.62500	-1.01837	-1.49128	3.58257	-5.09444
-11.71875	-4.24161	-6.12499	-1.65539	-5.64637
-7.81250	-1.01791	-6.07015	-0.84937	-1.35871
-3.90625	2.20577	-2.73972	-1.25213	2.72222
0.00000	4.62364	3.04990	-1.25205	6.79098
3.90625	9.45909	5.32066	1.97154	12.53850
7.81250	9.05643	2.25255	4.38921	12.43953
11.71875	6.63915	0.76079	6.00108	9.58598
15.62500	7.04226	2.97248	4.38947	10.46877
19.53125	5.43074	4.32533	1.16614	11.21955
23.43750	5.43095	3.27946	5.19549	8.81948
27.34375	5.02822	-0.24982	10.43369	4.32290
31.25000	1.80506	-2.89641	7.61335	3.59618
35.15625	-1.01514	0.61857	1.16662	3.71413
39.06250	-1.82072	1.98135	1.56974	1.96272
42.96875	0.19424	1.25049	2.77872	-0.13238
46.87500	2.61218	3.29318	-2.05634	-6.22213
50.78125	2.20949	5.52319	-1.25032	-8.04715
54.68750	2.20973	1.88237	1.57027	-7.47048
58.59375	3.41878	0.44853	1.97335	-6.87720
62.50000	3.41899	0.84568	5.59977	-6.25684
66.40625	0.19576	-0.41344	5.59990	-9.12113
70.31250	-3.02745	1.44160	1.16784	-11.24249
74.21875	1.40506	4.34493	1.97393	-8.17867
78.12500	1.80823	1.33686	3.18283	-5.63022
82.03125	1.40557	-2.77024	5.19766	-3.91069
85.93750	8.65853	-2.50370	5.60077	0.86632
89.84375	7.44997	-4.66391	7.21261	1.66532
93.75000	7.04724	-2.47092	5.60099	0.78161
97.65625	7.45039	-3.41404	-5.68095	0.46449
101.56250	7.04771	-3.55333	-7.29262	1.26606
105.46875	9.86847	2.66534	-2.05443	6.01254
109.37500	9.06277	0.90776	-1.24845	5.29124
113.28125	8.66009	1.58064	1.16923	6.51431
117.18750	-0.20421	-0.50931	1.97528	3.34747
121.09375	-1.81571	-3.51898	0.36365	2.42535
125.00000	-3.02429	-1.02224	-0.03913	4.30523
128.90625	-8.66509	-4.40605	-1.65064	-0.36446
132.81250	-4.23264	-3.64738	-2.85932	-1.05540
136.71875	-5.44127	0.37897	1.57299	-2.62378
140.62500	-6.64986	-1.86186	2.37895	-4.46115
144.53125	-1.00861	-0.26827	1.17024	-3.04496
148.43750	1.81206	1.96037	2.78206	-6.03441
152.34375	2.21517	0.78240	-2.85889	-11.05098
156.25000	3.02121	-2.36282	-6.48514	-12.61596
160.15625	3.82726	-1.40366	-2.85870	-6.09639
164.06250	3.02165	1.30182	1.57363	-4.35101
167.96875	-0.20159	-0.13778	4.79720	-5.67391
171.87500	0.60451	1.97635	5.20018	1.91130
175.78125	3.02233	2.94863	0.76805	5.60427
179.68750	0.60493	-0.93664	-2.85826	3.56494
183.59375	0.60513	-2.75777	1.17117	6.43371
187.50000	2.62001	-3.84884	4.79767	9.98576
191.40625	2.62017	-0.46810	4.39476	10.02748
195.31250	0.20275	0.19449	1.97732	8.11525
199.21875	1.00876	2.35819	3.99207	5.58490
203.12500	-1.40867	2.46183	2.78339	3.52333
207.03125	-5.43778	0.49930	-1.24576	1.45834
210.93750	-5.84051	2.71693	-0.03684	-0.80605
214.84375	-5.84034	1.05823	-2.45422	-2.66720
218.75000	-3.42261	1.22652	0.76938	0.36648
222.65625	-1.40782	4.47022	3.99295	1.82834
226.56250	-1.00469	6.46158	-0.84208	0.17392
230.46875	0.20430	5.89124	-4.06538	-0.77367
234.37500	1.41325	3.92709	-5.67697	0.25077
238.28125	1.41339	4.53142	-7.28865	1.20564
242.18750	2.21938	6.89411	-4.06511	-0.26143
246.09375	-2.61558	4.77252	-3.25912	-3.13355
250.00000	-4.22707	1.80330	-6.07957	-2.76992
253.90625	-7.04737	-0.06454	-3.66180	-1.66749
257.81250	-7.04732	-0.62289	4.79989	0.44618
261.71875	-2.61496	0.86870	10.03809	7.73203
265.62500	-1.80903	1.47747	1.17368	9.26688
269.53125	0.20568	1.73615	-4.87020	6.90433
273.43750	1.41453	3.58777	1.17386	10.91607
277.34375	1.41457	0.26715	3.18865	10.98045
281.25000	5.04097	0.49615	0.77127	9.69246
285.15625	6.65281	2.62213	1.57724	11.58922
289.06250	0.60890	1.66226	-0.43725	6.89373
292.96875	-3.01736	0.37844	-0.84008	0.52730
296.87500	0.60912	4.37969	1.57758	0.17022
300.78125	1.41514	8.19357	4.80114	1.99515
304.68750	1.01231	6.19332	3.18955	2.62724
308.59375	1.81831	4.80662	-3.66007	4.04858
312.50000	1.01258	2.79778	-0.83942	6.65163
316.40625	7.05671	2.04222	1.17541	10.32185
320.31250	7.86271	4.21642	-2.85373	9.21994
324.21875	-0.19571	0.50722	-2.85359	2.12681
328.12500	-1.80726	-0.91698	1.17582	0.38428
332.03125	-2.21005	1.98128	-1.24159	1.88829
335.93750	-3.82156	-0.29995	-6.47952	-0.87406
339.84375	-3.82139	-1.36317	-4.86767	-2.07598
343.75000	-2.61243	1.68194	-2.85289	0.82233
347.65625	-2.61225	-1.00141	-0.03230	-0.47235
351.56250	-4.22385	-1.26506	-0.03219	-1.27398
355.46875	-3.01487	1.78359	-0.43502	1.63518
359.37500	-1.00005	1.12349	1.98266	4.77400
363.28125	2.22357	4.07694	1.57984	5.96842
367.18750	4.23843	3.74924	1.98299	3.89725
371.09375	3.83566	1.11785	3.19187	2.40172
375.00000	1.41834	3.45624	4.80380	-0.28399
378.90625	-3.01372	3.21368	5.20690	-2.06113
382.81250	-6.23698	-0.76836	5.20709	-1.77311
386.71875	-9.46027	-0.36258	5.20723	-1.41369
390.62500	-12.28064	-1.34525	1.58098	2.03532
394.53125	-13.48931	-5.35650	0.37229	5.45412
398.43750	-15.50381	-5.57048	1.98423	5.62295
402.34375	-11.87736	-3.18375	3.19314	5.40123
406.25000	-8.65381	-0.44149	2.79037	0.51919
410.15625	-5.83317	1.41984	2.38752	-1.97117
414.06250	-2.60957	4.35531	-0.02998	-3.71662
417.96875	-1.80361	4.18318	-1.64157	-4.00546
421.87500	1.01703	5.69536	1.98494	-0.30862
425.78125	1.82304	3.51426	1.58206	-0.37530
429.68750	7.86717	4.98194	-0.83539	0.85815
433.59375	11.49377	6.80313	-1.64108	0.80993
437.50000	10.68813	3.05894	0.77662	0.07835
441.40625	13.50889	1.69287	-1.64084	3.66296
445.31250	11.09151	-1.79031	-3.25237	1.14292
449.21875	8.27126	-2.74521	-0.02884	-0.75890
453.12500	7.46569	-0.43123	-0.43155	-0.71195
457.03125	5.04834	2.74005	2.79201	-0.66166
460.93750	-0.18956	3.74585	2.38916	-1.62063
464.84375	1.42243	0.16627	1.58341	-2.98282
468.75000	2.63148	-2.82254	1.18060	-1.58421
472.65625	-4.21822	-1.63401	-3.25148	-1.83732
476.56250	-5.42679	-0.40195	1.58375	-2.60051
480.46875	-5.02353	-2.24921	-2.84840	-2.86160
484.37500	-6.63502	-3.91142	-9.29522	-1.06551
488.28125	-7.44060	1.52820	-6.07166	1.60603
492.18750	-11.06666	-0.02864	-7.28031	-0.55315
496.09375	-12.67813	-4.35389	-8.48887	0.70733
500.00000	-8.64857	-5.01108	-6.47418	3.16444
503.90625	-5.82776	-4.75489	-2.04184	2.86800
507.81250	-9.05091	-2.58485	-5.26504	0.75437
511.71875	-12.67708	-5.68818	-5.66780	-0.08453
515.62500	-8.64756	-5.08821	2.39089	2.40991
519.53125	-7.43850	-4.54110	0.37639	0.74308
523.43750	-4.21483	-5.98985	-0.02640	4.78987
527.34375	1.42644	-6.29569	1.18254	7.54589
531.25000	-0.18507	-6.12173	-4.05540	3.99869
535.15625	5.45624	-3.41254	-4.45817	8.14583
539.06250	8.27701	-4.46730	0.37710	9.21493
542.96875	7.06849	-1.16881	0.78019	8.73148
546.87500	11.50100	2.88862	1.18319	9.89439
550.78125	9.08369	1.08933	3.60094	6.05477
554.68750	7.47228	-0.93969	2.39235	5.82561
558.59375	5.86075	-6.40282	6.01887	8.03058
562.50000	2.63758	-5.19982	8.03355	8.24801
566.40625	0.62306	-2.83255	-0.42784	5.78663
570.31250	1.83207	-0.97741	1.98997	8.50030
574.21875	1.02638	-0.49160	6.01946	11.96706
578.12500	-4.61451	-1.48503	1.99031	8.87436
582.03125	-5.82318	0.85476	2.79631	3.74400
585.93750	-7.43481	2.33013	3.60234	3.68582
589.84375	-12.26985	0.57284	1.18490	2.47011
593.75000	-5.41988	8.80980	5.21439	6.82451
597.65625	-8.64316	9.47843	-0.02349	0.86641
601.56250	-16.70158	6.11561	-1.63503	-5.58482
605.46875	-20.32778	12.33434	2.39440	-10.91171
609.37500	-26.77452	9.36805	-6.46992	-27.75025
613.28125	-27.17726	8.83213	-2.84341	-33.77994
617.18750	-36.84738	9.15983	-3.24616	-44.60260
621.09375	-43.29409	16.22340	-6.06660	-55.19507
625.00000	-53.77010	16.70552	-1.23123	-66.61199
628.90625	-69.08121	8.88948	-1.23104	-81.35497
632.81250	-79.96013	9.24520	1.99263	-84.86649
636.71875	-84.39215	13.27170	8.43961	-84.82301
640.62500	-94.86813	16.67192	5.21627	-101.16588
644.53125	-112.59677	13.83338	-1.23042	-120.70197
648.43750	-110.58193	14.04738	-0.42437	-114.42393
652.34375	-108.56710	13.67532	2.79922	-108.56123
656.25000	-115.41679	13.35066	3.20229	-114.15542
660.15625	-120.25178	9.87765	8.44058	-114.48562
664.06250	-109.37256	10.97148	8.03786	-102.66702
667.96875	-100.50791	10.33776	1.99415	-88.27564
671.87500	-93.65797	11.64607	-2.43792	-77.46707
675.78125	-79.55524	15.43887	-7.27301	-68.93896
679.68750	-62.63207	12.76244	-9.69043	-52.44351
683.59375	-44.90308	10.94135	-8.48149	-35.06934
687.50000	-36.44141	7.02982	-3.64631	-27.08506
691.40625	-27.97979	4.76958	-2.84029	-17.77597
695.31250	-11.05655	5.83507	-3.24298	-3.97401
699.21875	-8.23593	-3.28318	-8.07799	-0.05755
703.12500	-1.38598	-1.97075	-7.27199	6.34233
707.03125	16.74609	3.31951	0.78680	22.00622
710.93750	22.79023	-0.90968	1.59278	24.17391
714.84375	25.61095	-2.97120	-4.04815	19.89514
718.75000	34.87854	-0.78821	-4.85394	21.31704
722.65625	41.72857	1.64969	-4.85385	23.58468
726.56250	43.34049	2.02939	-2.83904	30.39180
730.46875	43.34068	-1.36147	0.78752	35.48813
734.37500	44.14672	-6.54901	-5.25625	36.91554
738.28125	48.17621	-6.34754	-7.27078	41.89973
742.18750	47.37049	-5.99947	-3.24129	49.29712
746.09375	44.14722	-3.68889	-3.64415	50.85718
750.00000	40.92390	-5.44929	-6.46451	46.78851
753.90625	42.93869	-5.70537	1.19131	53.53193
757.81250	38.90951	-6.66661	8.44417	56.04860
761.71875	34.47738	-7.99547	1.19159	52.05239
765.62500	35.28335	-11.01303	-4.04632	56.81071
769.53125	33.26883	-18.00702	-2.83737	57.26877
773.43750	35.28361	-14.54360	-4.44889	54.83371
777.34375	36.08958	-8.99965	-2.03117	52.48058
781.25000	33.26920	-8.36773	5.62466	51.99855
785.15625	30.85167	-8.65928	0.78962	49.86598
789.06250	30.85178	-11.23087	-0.82199	46.78225
792.96875	28.83725	-12.91758	-0.82180	45.25099
796.87500	27.62854	-11.33397	-6.05975	41.26756
800.78125	29.64342	-9.13171	-6.86541	39.06326
804.68750	30.04650	-8.31142	-7.26821	38.08370
808.59375	34.47891	-4.45998	-4.44749	40.31091
812.50000	37.29958	-3.64829	-0.01513	37.67587
816.40625	34.07627	-1.98630	-3.23838	29.25815
820.31250	34.88227	0.18794	-2.83531	24.52985
824.21875	34.07664	-2.31246	-4.84977	19.85434
828.12500	30.04752	-2.93070	-12.10232	17.30598
832.03125	27.22718	-3.25591	-7.26701	20.01875
835.93750	24.80972	-4.73126	-6.05805	20.47985
839.84375	26.01865	-4.58574	-6.05792	22.90427
843.75000	26.82462	-0.33189	-2.02849	27.01147
847.65625	22.39254	-3.41808	-2.43122	26.11978
851.56250	24.81033	-2.87577	-2.02812	25.72114
855.46875	26.42228	4.60521	2.80729	27.82454
859.37500	24.00487	4.34812	10.06025	29.75466
863.28125	13.52887	-1.56278	4.82232	24.90519
867.18750	1.44117	-7.53147	-2.83319	19.61058
871.09375	1.03838	-6.53640	0.39045	22.14436
875.00000	1.03852	-4.19796	-1.62406	18.65277
878.90625	1.84448	-3.63462	-5.65324	13.65207
882.81250	5.87388	-2.37860	3.21136	17.96945
886.71875	5.47110	-4.79322	2.80862	19.94060
890.62500	1.03895	-6.58163	-0.81762	17.34569
894.53125	1.44203	-5.35470	2.40599	14.72057
898.43750	1.44217	-5.56862	2.80905	13.27769
902.34375	3.85989	-4.39065	2.40630	12.65304
906.25000	7.48648	-2.85710	-0.81696	9.78569
910.15625	9.90424	-3.01036	-3.23439	8.90702
914.06250	12.72490	-2.89531	-2.02554	11.19091
917.96875	8.29288	-9.91717	0.39221	8.88742
921.87500	8.29312	-8.40488	5.22750	6.94325
925.78125	8.69629	-4.94487	-0.01044	4.45903
929.68750	7.48774	-7.90930	-5.24833	4.48371
933.59375	9.09967	-4.07356	1.60163	6.04716
937.50000	13.53217	0.64387	1.19887	6.12145
941.40625	13.12945	-0.31925	-6.45662	5.67676
945.31250	11.11504	-0.57887	-6.45645	5.57435
949.21875	15.54753	3.70429	-0.41232	9.71641
953.12500	15.54775	2.39196	-2.42679	9.76346
957.03125	10.71279	-1.28651	-4.44124	7.79912
960.93750	5.47487	-3.10115	-3.63528	8.85480
964.84375	1.44572	-0.23370	-2.02345	7.89546
968.75000	-2.58350	3.62727	3.21481	7.68216
972.65625	-5.80690	-0.82517	1.60324	7.02611
976.56250	-5.40389	0.00402	-4.44055	3.03940
980.46875	-5.80675	0.17142	-7.66387	0.36055
984.37500	-6.61263	-4.31135	-8.06671	1.75351
988.28125	-5.40379	-0.48346	-0.00803	5.23077
992.18750	-2.98610	1.58610	1.20092	8.30950
996.09375	-3.79182	-2.33628	-4.43984	5.13756
1000.00000	-2.58288	-0.57588	-2.42500	4.77395
1003.90625	-2.17983	0.48611	-2.02192	5.68618
1007.81250	-3.38849	-0.16442	-2.82760	2.76649
1011.71875	-3.38834	-0.44729	0.39596	-0.49012
1015.62500	-0.16473	-2.26486	1.20204	-2.02504
1019.53125	-0.97037	-3.32940	-5.64748	-2.88603
1023.43750	-1.37313	-3.16643	-8.06489	-0.04798
1027.34375	4.67108	0.96004	-2.42367	2.70802
1031.25000	5.88000	0.73102	-0.81180	1.17538
1035.15625	0.23914	-2.60370	-0.81166	1.69603
1039.06250	-1.37247	-0.43507	5.63536	3.16800
1042.96875	-0.16353	0.04295	3.21790	1.87858
1046.87500	-2.58089	-3.15233	-6.85513	-3.00251
1050.78125	0.23975	1.09236	-3.22848	-0.39536
1054.68750	1.85157	3.49563	7.24788	2.19590
1058.59375	-0.96881	0.04715	5.23342	-0.43431
1062.50000	-2.17753	-1.57030	-3.63086	0.18600
1066.40625	-4.19217	-2.82942	-4.83951	1.75381
1070.31250	-2.98335	-2.58599	1.20457	2.85557
1074.21875	-2.98334	-0.08556	4.83109	5.51633
1078.12500	-2.98336	1.74158	3.62239	10.07922
1082.03125	-2.17748	0.85796	2.01082	10.18682
1085.93750	-4.59497	-2.50175	1.60805	6.09927
1089.84375	1.44907	-1.03555	11.68150	8.10699
1093.75000	5.88137	0.75452	10.06993	7.22323
1097.65625	4.26979	1.42320	-2.42084	4.08564
1101.56250	1.44945	-1.13373	-2.82367	2.87252
1105.46875	3.86718	-0.95893	-3.22643	-0.03672
1109.37500	2.65864	-0.70174	-3.62926	-3.17553
1113.28125	-3.78807	-1.23770	-0.80862	-5.57884
1117.18750	-0.96739	1.91054	0.40036	-4.71646
1121.09375	-2.17601	2.12430	-2.01698	-8.45899
1125.00000	-5.80223	0.18885	-2.82265	-11.41436
1128.90625	-3.38453	2.04311	-0.00203	-10.04019
1132.81250	-1.36974	4.01049	7.25088	-4.68721
1136.71875	-5.39889	1.59004	1.61002	-2.22623
1140.62500	-11.84566	-0.24788	-10.47777	-6.88414
1144.53125	-8.21910	2.15163	-10.47762	-4.66195
1148.43750	-5.39845	3.57445	-8.05989	-2.81614
1152.34375	-11.03931	1.99359	-8.05977	-3.80326
1156.25000	-10.63622	1.66891	-4.83614	-2.54764
1160.15625	-10.23306	-0.59532	-3.62712	-3.68362
1164.06250	-13.85932	-0.71032	-1.20938	-3.14699
1167.96875	-11.03858	1.87937	0.80543	1.57407
1171.87500	-4.59152	0.36715	4.02902	2.30946
1175.78125	-1.77089	2.54819	8.05843	1.97318
1179.68750	-0.15900	6.72147	4.02923	3.56029
1183.59375	1.05000	5.70619	5.23810	2.80270
1187.50000	-3.38194	-1.02587	6.85001	0.71396
1191.40625	-8.61964	-4.89785	-0.80548	-4.48211
1195.31250	-9.02209	-2.62350	-4.83457	-7.60286
1199.21875	-10.23045	-0.86278	-5.64026	-6.90949
1203.12500	-7.81233	0.04670	-1.20793	-6.55324
1207.03125	-4.58843	4.53108	4.43315	-6.60324
1210.93750	-7.00549	2.31647	0.40397	-8.86736
1214.84375	-0.15506	-0.14800	-1.61048	-4.28122
1218.75000	3.06902	0.02036	0.00143	-1.65001
1222.65625	1.45795	1.65240	0.00165	-2.60533
1226.56250	7.09955	1.22616	-1.60988	-1.03580
1230.46875	9.92064	1.05875	-1.20681	0.83747
1234.37500	7.90650	4.33272	1.61384	2.66828
1238.28125	5.89234	1.71361	-0.80360	4.02645
1242.18750	3.87813	0.44996	-2.41515	5.38020
1246.09375	-0.95657	-1.26874	-2.41497	0.49373
1250.00000	-0.55326	-1.41745	-0.80305	-0.35131
1253.90625	5.08806	4.37046	4.43527	4.37765
1257.81250	2.26786	3.00632	2.42083	3.67105
1261.71875	-5.38761	-1.54600	-1.60831	0.07792
1265.62500	0.65652	1.48041	4.43579	2.01582
1269.53125	0.65664	0.93337	7.65942	4.48861
1273.43750	-2.96967	0.77040	7.65955	4.87393
1277.34375	-2.56670	0.27037	9.67432	4.93832
1281.25000	-3.37266	0.49942	8.86866	5.66493
1285.15625	-5.79027	3.02834	4.83952	1.51765
1289.06250	-7.40200	3.27742	3.22793	-0.76032
1292.96875	-12.64015	-0.82691	4.43686	-3.90351
1296.87500	-20.69877	-2.46669	2.42234	-13.12521
1300.78125	-23.11641	4.16783	2.01962	-20.56777
1304.68750	-27.54859	12.64388	4.43733	-28.80019
1308.59375	-31.57794	17.70417	6.04927	-33.82595
1312.50000	-44.06882	9.24846	0.00544	-48.95190
1316.40625	-54.14218	7.68712	-4.02372	-62.20497
1320.31250	-49.70996	16.71123	-0.39719	-56.86023
1324.21875	-70.25942	19.04603	5.24394	-71.20627
1328.12500	-92.01766	16.81612	10.07935	-89.87209
1332.03125	-93.62943	16.08815	9.27366	-99.65034
1335.93750	-106.52323	11.79238	4.43858	-118.12722
1339.84375	-121.43172	6.69992	0.00647	-125.77634
1343.75000	-123.84939	7.73052	1.61836	-129.72803
1347.65625	-127.47584	9.88250	5.24486	-134.24641
1351.56250	-141.98145	8.00729	2.42453	-141.49522
1355.46875	-143.19038	6.62387	2.42469	-146.64484
1359.37500	-131.90846	10.79907	3.23071	-141.89455
1363.28125	-128.28226	11.73802	3.23088	-140.70035
1367.18750	-125.86495	4.96352	8.46913	-135.51913
1371.09375	-121.83585	4.74984	13.70741	-122.50943
1375.00000	-121.43309	6.28241	7.66364	-123.18079
1378.90625	-114.98642	5.23404	4.44034	-124.55536
1382.81250	-105.71922	3.66963	9.67863	-119.02946
1386.71875	-104.10768	2.86669	8.87299	-117.86436
1390.62500	-98.46675	4.30175	11.29079	-104.74516
1394.53125	-86.37891	4.31989	14.51435	-88.02983
1398.43750	-86.78183	0.07660	10.48521	-87.45817
1402.34375	-85.57305	-2.77468	8.47072	-85.26244
1406.25000	-75.49975	-2.44989	8.06799	-76.04195
1410.15625	-68.64986	-3.40899	6.85941	-72.08554
1414.06250	-59.38242	0.73539	11.29188	-65.36952
1417.96875	-56.15892	3.78681	14.51540	-61.62919
1421.87500	-50.92076	3.68737	8.47157	-61.15590
1425.78125	-43.26501	-0.91123	2.83078	-54.77582
1429.68750	-33.99757	-0.65222	4.84563	-40.64880
1433.59375	-25.93895	-0.44272	5.24863	-31.42978
1437.50000	-22.31254	-2.57509	0.41363	-26.11762
1441.40625	-8.21006	1.69993	1.62261	-14.47457
1445.31250	0.25147	0.63440	-2.00363	-10.14497
1449.21875	9.11591	-0.32053	-6.43567	-2.77964
1453.12500	22.00973	7.23155	-10.46480	8.54913
1457.03125	27.65071	7.98529	-11.27051	16.65788
1460.93750	38.52982	4.15597	-7.24099	26.57787
1464.84375	49.40889	6.21751	-7.64372	34.88583
1468.75000	47.79714	4.84033	-7.24074	39.50771
1472.65625	52.22937	4.82008	-4.01720	44.89558
1476.56250	59.88505	-2.00649	-8.04633	50.57927
1480.46875	59.07939	-6.27135	-10.06076	56.36207
1484.37500	62.70592	-1.88962	-9.25475	63.39622
1488.28125	69.55595	-3.29980	-7.64288	69.69424
1492.18750	73.98851	-6.46832	-10.06026	72.37029
1496.09375	73.98895	-7.97296	-12.47762	74.83972
1500.00000	76.80991	-8.22730	-7.23929	81.32632
1503.90625	76.40744	-7.56831	-4.82152	83.85069
1507.81250	75.60210	-5.80129	-2.80677	83.75196
1511.71875	81.24387	-7.29296	-2.40376	85.73406
1515.62500	83.25906	-9.11054	-3.61251	87.82596
1519.53125	81.24506	-10.98102	-3.61242	90.18894
1523.43750	79.63392	-12.02680	-4.82105	89.40115
1527.34375	75.20244	-12.33263	-8.04429	82.48743
1531.25000	73.99426	-13.36743	-4.01480	84.17888
1535.15625	76.41248	-11.86706	-3.20870	84.29716
1539.06250	76.01019	-9.69837	-5.22321	77.30807
1542.96875	73.59318	-12.44379	0.41792	71.98997
1546.87500	65.53503	-18.05672	-4.01420	63.07991
1550.78125	67.14721	-12.60327	-4.01412	62.86689
1554.68750	68.75939	-10.60302	3.23874	63.04094
1558.59375	62.71576	-12.84267	-0.79038	55.97875
1562.50000	61.10423	-11.23668	-7.23710	54.18165
1566.40625	58.28392	-8.86940	-5.22225	54.13787
1570.31250	57.88105	-9.02889	-5.62507	56.44855
1574.21875	57.07518	-9.75189	-4.01327	53.06541
1578.12500	53.44882	-10.74522	-5.62478	49.56971
1582.03125	52.23994	-10.42001	-7.23633	48.87140
1585.93750	51.83686	-7.33288	-6.43019	47.60420
1589.84375	49.82201	-8.68716	-6.83290	48.40287
1593.75000	46.19536	-9.71755	-2.80342	46.71290
1597.65625	46.19508	-9.45177	-6.83256	45.58955
1601.56250	46.59768	-9.59108	-12.07050	45.58473
1605.46875	41.76220	-7.80448	-8.44389	43.48080
1609.37500	42.56765	-5.53269	-7.63792	40.74435
1613.28125	38.13503	-7.27731	-10.45825	36.32579
1617.18750	30.88193	-9.77002	-8.04048	33.56128
1621.09375	28.86698	-8.34739	-3.20502	35.05625
1625.00000	25.64318	-5.85051	2.83912	36.93552
1628.90625	24.03108	-9.23424	4.85394	34.68274
1632.81250	22.41891	-11.29604	0.01888	30.36472
1636.71875	22.41848	-8.47836	-5.21901	27.18407
1640.62500	21.61225	-6.68980	0.42216	27.36070
1644.53125	20.40306	-5.49903	5.25747	24.34413
1648.43750	19.59682	-7.29963	-7.63613	19.33943
1652.34375	17.98476	-7.67156	-9.65059	18.35177
1656.25000	20.80490	-6.78748	-0.38301	17.18921
1660.15625	23.62503	-7.43994	5.25815	18.87316
1664.06250	16.37193	-6.34608	3.64658	17.39459
1667.96875	13.55109	-7.38267	-5.62071	12.04186
1671.87500	18.38593	-8.08893	-5.62054	11.97088
1675.78125	19.59443	-5.10191	5.25873	15.26048
1679.68750	18.78831	-0.92853	4.85602	17.65306
1683.59375	13.14704	0.47392	2.03572	13.67158
1687.50000	13.14683	1.39764	6.87104	12.38814
1691.40625	11.13193	-0.45963	4.05068	10.01194
1695.31250	1.05845	-4.63212	-3.20188	0.84661
1699.21875	-3.37399	-3.67713	-1.58999	-1.68404
1703.12500	-4.98589	-0.35001	6.46879	-4.14889
1707.03125	-14.65646	-3.11823	7.27480	-16.28748
1710.93750	-27.95334	-9.36213	-1.18651	-29.83428
1714.84375	-40.84731	-5.78256	-0.78341	-40.15739
1718.75000	-46.89143	7.27957	8.08126	-43.57091
1722.65625	-57.77075	4.47936	6.46965	-57.82371
1726.56250	-82.75264	-6.02015	-2.39467	-84.86314
1730.46875	-87.99088	2.27408	-3.20032	-93.06382
1734.37500	-101.28771	4.33933	2.03793	-108.55965
1738.28125	-125.06072	3.73497	6.87322	-130.57208
1742.18750	-134.32823	0.45675	10.49974	-137.68037
1746.09375	-126.67268	2.15878	10.81595	-132.71959
1750.00000	-125.06108	10.24085	7.85439	-137.03551
1753.90625	-138.35791	5.76927	7.35012	-149.91919
1757.81250	-141.98445	0.34978	10.11216	-154.73276
1761.71875	-141.58162	-1.61619	8.42253	-153.52847
1765.62500	-135.94078	2.08437	11.51218	-145.76620
1769.53125	-132.71754	1.68286	17.81566	-145.14740
1773.43750	-133.92650	1.74977	14.63811	-145.37167
1777.34375	-129.49437	4.07964	11.86074	-140.09802
1781.25000	-122.64479	3.68227	8.88359	-135.42650
1785.15625	-112.97459	3.23080	4.16283	-125.77088
1789.06250	-118.21281	-2.04547	3.59087	-123.86574
1792.96875	-114.98946	-2.68837	8.60955	-117.46961
1796.87500	-104.11048	0.55170	12.39734	-108.53017
1800.78125	-96.85784	4.15786	8.95931	-108.84072
1804.68750	-87.18759	2.37597	10.12519	-103.35278
1808.59375	-81.14375	1.07284	9.10224	-94.94699
1812.50000	-68.65298	4.94597	9.81351	-79.91473
1816.40625	-62.20613	9.91038	5.67483	-72.92602
1820.31250	-57.37100	5.85298	2.60392	-67.32404
1824.21875	-50.92413	0.72970	6.83697	-55.54161
1828.12500	-42.05965	3.78728	5.74457	-45.89825
1832.03125	-38.03037	4.50671	0.52144	-43.58786
1835.93750	-32.38940	7.17212	-4.68277	-42.55604
1839.84375	-13.85465	11.58643	-3.33451	-26.59106
1843.75000	-8.61656	6.35144	-4.08868	-14.56904
1847.65625	-0.15497	5.69716	-6.47945	-2.90779
1851.56250	18.37984	7.27659	0.47698	14.87944
1855.46875	22.00611	2.81118	-3.36721	17.63123
1859.37500	32.88508	3.62705	-8.85842	28.26556
1863.28125	46.58460	1.91532	-6.13065	39.31100
1867.18750	51.01670	-1.25400	-13.46400	41.27921
1871.09375	46.98729	-3.66646	-21.74688	41.08997
1875.00000	52.22528	-5.99466	-15.36183	45.17782
1878.90625	64.31307	-2.71602	-8.73210	53.32481
1882.81250	67.93941	-0.08768	-8.55566	56.94323
1886.71875	69.55110	-2.96134	-5.93888	61.28141
1890.62500	70.75988	-6.15974	-4.90363	69.29299
1894.53125	68.34227	-6.35248	-6.82266	70.70386
1898.43750	67.93938	-7.84746	-10.61367	65.50880
1902.34375	72.37157	-7.71600	-4.51315	71.37091
1906.25000	73.58035	-7.48109	-2.03258	74.83147
1910.15625	73.17741	-9.87169	-5.40143	74.10425
1914.06250	78.41546	-5.91894	-2.33010	79.29796
1917.96875	81.63879	-4.91994	-6.04495	84.15578
1921.87500	81.23586	-10.89713	-6.89810	86.22127
1925.78125	82.04161	-11.58814	-7.78725	83.94646
1929.68750	82.04160	-8.35391	-10.34482	81.31111
1933.59375	86.47391	-5.50084	-1.07967	87.87985
1937.50000	89.29428	-2.80047	6.18052	93.14603
1941.40625	82.04142	-4.79707	2.42148	88.60213
1945.31250	81.63865	-7.62522	-6.27658	83.39213
1949.21875	80.83295	-10.06582	-12.88149	79.63329
1953.12500	79.22157	-4.29253	-8.71323	76.70431
1957.03125	75.99854	-3.10287	-5.36943	73.13746
1960.93750	69.55206	-13.18965	-9.19338	69.24841
1964.84375	68.34370	-12.51360	-5.96034	68.74094
1968.75000	61.89724	-8.96101	-1.72669	63.43250
1972.65625	58.27138	-6.72597	-2.26405	58.26080
1976.56250	59.48068	-7.44085	-4.43346	55.95879
1980.46875	56.25774	-9.48293	-7.09196	51.93295
1984.37500	56.66114	-8.52343	-10.05983	48.85976
1988.28125	53.03527	-9.06670	-11.12667	48.82661
1992.18750	45.78293	-11.99515	-6.71404	50.67777
1996.09375	46.58909	-9.36975	-1.49081	53.29036
2000.00000	49.40997	-4.96080	-2.55821	55.59174
2003.90625	50.61912	-6.13000	1.17000	55.98462
2007.81250	49.00765	-7.96308	2.03472	58.38046
2011.71875	50.61956	-6.80268	-1.11058	62.01109
2015.62500	50.61980	-6.47372	-2.58814	58.68106
2019.53125	48.60537	-6.87781	-6.87663	55.64442
2023.43750	49.81433	-6.54161	-3.69878	56.67434
2027.34375	49.00866	-4.84200	-0.51814	54.22099
2031.25000	44.57657	-6.86201	-1.16708	47.13169
2035.15625	40.54739	-7.61910	-0.47524	41.90807
2039.06250	39.33873	-3.95440	4.12631	39.19684
2042.96875	36.51838	-3.31121	9.18130	36.42679
2046.87500	28.45989	-6.55097	-1.45595	28.69590
2050.78125	24.43066	-9.35107	-5.27044	24.57389
2054.68750	21.61014	-9.58361	1.62254	24.72668
2058.59375	19.19262	-9.48905	-0.57772	20.75279
2062.50000	22.01318	-7.31800	-4.91515	19.01698
2066.40625	22.01322	-5.02947	-3.99963	18.47488
2070.31250	19.99858	-3.79235	4.71268	18.51364
2074.21875	19.59566	-0.28061	4.91224	20.43067
2078.12500	17.17816	-0.11452	-7.69469	18.03982
2082.03125	14.76060	-6.07186	-7.30640	13.71456
2085.93750	15.16349	-8.73704	1.92736	14.29413
2089.84375	10.32831	-9.12189	-1.43536	15.65493
2093.75000	13.95469	-6.30433	-5.11311	19.34694
2097.65625	17.17814	-5.64986	-5.94559	19.77341
2101.56250	19.59568	-4.40865	-1.61977	22.13241
2105.46875	22.41619	0.05695	2.62758	23.40947
2109.37500	19.99865	-0.35584	-3.16281	21.23640
2113.28125	16.77522	-1.06157	-5.48735	21.06978
2117.18750	14.35764	0.89913	-2.18301	18.29532
2121.09375	13.55181	2.90883	0.86214	17.27550
2125.00000	10.32833	2.41663	3.74468	16.41061
2128.90625	3.47848	-4.48829	-0.06429	11.88960
2132.81250	1.86670	-5.50471	-3.46400	9.47958
2136.71875	7.91059	-3.43672	2.78393	8.76734
2140.62500	7.50762	-7.89376	-2.68327	8.00819
2144.53125	6.29873	-6.89498	-8.41958	4.58230
2148.43750	8.31330	-3.38518	-6.64285	1.31555
2152.34375	9.92495	-3.91936	-6.29618	2.30301
2156.25000	12.34239	-1.33350	-1.92654	3.27434
2160.15625	14.35694	3.87792	3.05430	7.22469
2164.06250	13.95396	2.74587	7.23603	10.08919
2167.96875	7.90983	-0.67048	6.92185	6.03678
2171.87500	5.49220	0.47176	2.13431	2.35923
2175.78125	6.70092	-0.44878	-3.02016	1.00733
2179.68750	5.49203	-3.68281	-0.86510	0.01598
2183.59375	4.28314	-3.71513	4.37551	0.69971
2187.50000	5.49185	-1.58016	1.14504	2.68589
2191.40625	9.52107	2.83423	-3.96011	7.22954
2195.31250	12.34151	4.05069	1.91780	8.81320
2199.21875	6.70048	-0.35830	4.09074	9.34851
2203.12500	3.87990	-2.10205	-0.88301	7.44244
2207.03125	3.07402	-3.29143	-3.42052	5.77135
2210.93750	3.07397	-2.47182	-4.43135	6.84002
2214.84375	7.50620	0.07576	-2.42598	6.94490
2218.75000	6.70034	1.35854	3.01098	8.62721
2222.65625	6.29736	3.15309	3.14599	8.56114
2226.56250	10.72963	3.86825	2.09236	7.64001
2230.46875	7.50622	-0.53631	4.34837	6.83101
2234.37500	2.26814	-1.09262	4.49615	3.45762
2238.28125	-1.35828	-2.16076	4.35457	-0.94123
2242.18750	1.05928	-1.24672	8.00093	-0.37460
2246.09375	-0.55247	-0.24555	2.77798	-1.77819
2250.00000	-5.38773	-3.84839	-3.00401	-6.09400
2253.90625	-2.97017	-3.08191	-3.50830	-8.90435
2257.81250	-2.16437	-0.03978	-3.96982	-12.10608
2261.71875	4.28249	1.62068	1.59336	-10.90161
2265.62500	11.53522	1.29196	1.05672	-8.78032
2269.53125	7.50591	1.69633	-3.92185	-7.75843
2273.43750	4.68535	3.37495	-1.45844	-3.95329
2277.34375	4.68524	1.27264	-3.42997	-0.69419
2281.25000	4.28223	0.87526	-3.58662	1.96284
2285.15625	5.08804	2.03557	-0.24877	2.75414
2289.06250	3.47631	-0.01722	-2.83529	2.64480
2292.96875	-2.56762	-3.88361	-2.65179	4.20590
2296.87500	-3.37352	-3.46409	2.74780	5.48980
2300.78125	1.05873	-3.88723	-0.69021	4.37349
2304.68750	4.28218	-1.63981	-1.13603	5.83223
2308.59375	2.67048	0.68338	1.46741	7.79124
2312.50000	4.28216	1.73599	7.81976	10.33277
2316.40625	5.08798	-0.14948	8.91920	6.03953
2320.31250	1.86456	-0.98343	0.20735	2.77720
2324.21875	2.26750	-0.06272	0.41108	6.09816
2328.12500	3.47632	-3.45207	5.76561	4.05660
2332.03125	-1.35886	-4.74729	6.58644	0.32309
2335.93750	-5.38816	-2.88779	4.60576	-0.65964
2339.84375	-0.55290	-0.89109	3.93949	-0.40888
2343.75000	-1.35874	0.72375	3.18543	-1.68352
2347.65625	-5.79095	0.87537	4.01825	-2.51314
2351.56250	-8.61151	-4.39501	0.90140	-6.88705
2355.46875	-8.61150	-5.23406	-2.53975	-8.56734
2359.37500	-4.58210	-0.79176	3.25107	-5.18568
2363.28125	1.86479	0.31707	10.00823	-5.82511
2367.18750	3.07358	1.57998	5.09246	-5.06555
2371.09375	2.67066	0.77924	0.43600	-2.83706
2375.00000	3.47646	-2.75766	3.59775	-1.97250
2378.90625	4.28228	-2.70241	2.97478	-1.88394
2382.81250	6.69984	-1.28287	5.16610	-1.89175
2386.71875	4.68512	-0.93310	2.94771	-4.00037
2390.62500	1.86451	-1.71392	-4.07570	-4.85326
2394.53125	1.86443	-1.10087	-4.38304	-0.62185
2398.43750	1.86438	-1.38707	0.28734	0.62995
2402.34375	3.87900	-0.44978	0.74678	-0.76079
2406.25000	3.07311	0.59097	-1.20493	4.31153
2410.15625	2.26721	-1.79971	0.66444	6.00189
2414.06250	8.71408	-0.26456	6.55637	6.76346
2417.96875	7.50526	-0.07146	7.67678	7.59207
2421.87500	2.67014	-1.21347	0.77968	6.83708
2425.78125	3.07305	-1.50145	-4.94459	2.95052
2429.68750	3.87888	-3.50534	-4.27883	1.92692
2433.59375	1.86421	-4.27862	-5.89280	3.66052
2437.50000	3.47595	-3.19000	-7.09431	6.10632
2441.40625	9.51991	4.08082	-4.40639	6.80056
2445.31250	5.89350	3.26742	-2.62825	-1.63309
2449.21875	3.07302	-1.59083	0.43730	0.24891
2453.12500	13.14627	1.76486	-0.63252	11.01923
2457.03125	9.51992	-1.47782	-1.31802	8.25791
2460.93750	5.08764	-1.08846	-2.32151	6.78609
2464.84375	12.74330	2.81096	2.12033	11.51615
2468.75000	10.32568	-0.88919	6.35402	8.62481
2472.65625	9.92274	2.95751	3.39891	7.88476
2476.56250	11.13144	4.25721	8.88514	8.40276
2480.46875	10.32558	1.81222	11.46468	5.98805
2484.37500	9.11676	0.75699	4.46742	1.30255
2488.28125	7.90792	-1.80099	-5.06099	-0.34286
2492.18750	7.50499	0.10571	-7.09537	1.50784
2496.09375	8.71377	2.73121	-2.27511	2.10526
2500.00000	6.69909	3.91663	-2.13380	1.58563
2503.90625	5.89312	3.15026	-2.03207	0.36629
2507.81250	4.28139	-0.69754	-1.57029	-0.86446
2511.71875	1.46082	-1.55189	-1.49210	-1.26341
2515.62500	2.66957	2.40338	4.28299	1.45021
2519.53125	1.46072	0.79047	8.85901	1.23385
2523.43750	-2.97158	-3.30554	3.97823	-0.15399
2527.34375	-1.76281	0.81169	-0.89984	1.82475
2531.25000	1.86350	0.80628	0.06294	2.79387
2535.15625	6.29569	-2.77139	0.75467	4.82288
2539.06250	7.90737	-5.55353	-2.29948	6.14076
2542.96875	5.48981	-2.49287	-0.06507	6.59412
2546.87500	6.29560	1.52007	1.78847	6.11588
2550.78125	4.28093	-0.87709	7.64431	5.62018
2554.68750	-2.16601	-1.51260	9.29919	3.75821
2558.59375	-5.38948	-2.62687	-1.76550	-1.02158
2562.50000	-1.76313	-1.26169	-4.49121	-0.74282
2566.40625	1.05724	0.22096	-1.56107	0.72963
2570.31250	1.46016	2.66685	-0.50448	-0.44030
2574.21875	3.07187	3.76099	-2.72250	2.68549
2578.12500	3.87767	0.30066	-0.42093	5.12986
2582.03125	5.48942	-0.01565	6.81718	5.63979
2585.93750	0.25134	-1.06916	-0.46920	2.59303
2589.84375	-1.36038	-6.28912	-1.81722	1.53627
2593.75000	-0.95739	-3.06861	5.78705	2.00491
2597.65625	-6.59842	0.40633	-0.28354	-2.40376
2601.56250	-5.38961	0.84170	-6.43386	-1.25351
2605.46875	1.86315	1.68095	-2.58944	2.44125
2609.37500	1.46025	1.26811	-1.12705	0.26814
2613.28125	-6.19546	-1.45228	-3.04865	-4.33070
2617.18750	-4.18084	0.50836	1.46450	0.14761
2621.09375	-3.37498	2.92096	2.09202	2.75416
2625.00000	-5.79256	3.23462	-2.27820	3.09813
2628.90625	-1.76330	4.38831	-5.28130	5.82991
2632.81250	-0.15164	4.58065	-1.02536	3.41999
2636.71875	1.05711	5.84277	3.20808	2.70782
2640.62500	-0.55465	3.80332	-3.46783	0.73993
2644.53125	-2.56934	4.80209	-4.36896	-1.47712
2648.43750	-2.97234	6.29737	1.03422	-5.14678
2652.34375	-2.56942	3.74850	1.38090	-4.96515
2656.25000	-1.36073	4.31972	-0.69638	-3.99379
2660.15625	-3.37543	5.09888	3.07565	-4.87861
2664.06250	-3.77839	4.77276	3.22807	-2.01407
2667.96875	-0.15214	3.77404	2.10804	-1.63424
2671.87500	0.25072	2.49869	5.78195	-3.29713
2675.78125	-6.59922	-0.43647	-0.17847	-7.87241
2679.68750	-18.68722	-2.46170	-5.27621	-20.54877
2683.59375	-23.11954	-2.89693	2.38202	-25.10319
2687.50000	-28.35765	1.65571	10.03079	-27.54922
2691.40625	-43.66912	4.05541	11.77547	-46.37550
2695.31250	-58.57754	3.66029	8.38596	-66.55019
2699.21875	-73.48602	0.05717	5.32085	-80.92328
2703.12500	-83.15645	1.93985	13.24088	-88.06748
2707.03125	-92.42393	1.95926	15.13552	-95.78258
2710.93750	-114.58517	-4.87681	17.34819	-116.87506
2714.84375	-132.31418	1.29719	15.72714	-138.12552
2718.75000	-141.58165	3.78883	17.13490	-153.76915
2722.65625	-148.83452	2.35993	11.62879	-165.11732
2726.56250	-147.62584	9.11901	6.54581	-164.02382
2730.46875	-151.65520	5.92321	20.48675	-161.20641
2734.37500	-160.92268	0.12882	21.44041	-163.37093
2738.28125	-165.75795	-0.13346	11.22564	-162.93457
2742.18750	-160.92291	3.60113	10.84267	-158.33867
2746.09375	-154.07317	7.42282	9.24608	-156.92180
2750.00000	-149.64111	2.61118	6.28450	-151.16431
2753.90625	-143.59723	3.37770	5.37723	-137.05154
2757.81250	-138.76210	2.79350	5.31872	-126.55360
2761.71875	-126.67431	3.24516	12.09069	-112.85836
2765.62500	-115.39239	6.54281	13.97152	-104.69310
2769.53125	-110.15437	2.91785	1.74014	-99.23891
2773.43750	-88.79907	6.20820	-4.66084	-76.09312
2777.34375	-75.09959	6.52352	-3.40893	-61.14904
2781.25000	-69.86157	3.70858	-4.37149	-59.29803
2785.15625	-51.72974	2.85421	-5.06300	-44.80718
2789.06250	-38.43315	4.02489	-2.81444	-26.78474
2792.96875	-28.76282	0.15852	-5.04858	-19.17988
2796.87500	-15.46622	0.17519	-7.70768	-8.22571
2800.78125	-2.16960	0.15498	-5.50471	4.76048
2804.68750	11.52995	-3.23859	-2.72710	13.87484
2808.59375	25.22954	-0.10943	-5.76464	23.08664
2812.50000	32.48225	0.13730	-9.48550	28.44866
2816.40625	37.72033	-2.15101	-8.38607	35.43746
2820.31250	46.18185	-0.16446	-8.63649	43.85999
2824.21875	52.22571	-2.06427	-14.47667	48.79262
2828.12500	57.46378	-1.42433	-13.55442	55.61548
2832.03125	63.50768	-0.30200	-4.27208	62.35816
2835.93750	63.91058	-4.08351	-5.04401	66.61350
2839.84375	66.32800	-3.69853	-11.75430	69.28171
2843.75000	63.91044	-4.50131	-6.46438	70.02173
2847.65625	56.25465	-4.75264	-2.40814	71.60966
2851.56250	49.40470	-2.36725	-6.73373	70.05621
2855.46875	47.79296	0.01713	-6.54855	67.16711
2859.37500	56.65737	-0.77867	-4.78696	68.93703
2863.28125	58.67196	-2.49032	-6.08846	69.50627
2867.18750	61.49236	-0.01850	-6.16904	71.87757
2871.09375	68.34208	0.38971	-6.39329	73.70313
2875.00000	69.14779	1.68807	-8.46967	70.53840
2878.90625	68.34184	-1.07711	-5.46627	69.41808
2882.81250	69.14748	-8.52198	-4.88680	68.60439
2886.71875	68.34150	-7.36628	-5.49337	66.49567
2890.62500	65.11781	-3.31183	-3.24939	66.04572
2894.53125	62.70010	-4.71328	-5.97434	62.62127
2898.43750	64.31154	-6.20819	-7.75083	57.82896
2902.34375	61.49078	-6.07652	-4.06785	57.24389
2906.25000	60.28162	-4.22985	0.42739	56.67497
2910.15625	60.68407	-2.59106	-0.52381	53.93274
2914.06250	59.47479	-1.86162	-3.49636	53.48516
2917.96875	61.89186	-2.47417	-4.39056	53.50754
2921.87500	59.07080	-1.60132	0.39728	54.76668
2925.78125	48.19098	-4.70971	-0.08893	54.10302
2929.68750	44.16088	-4.29591	-2.64653	51.86996
2933.59375	44.56293	-4.26320	-1.84297	51.58815
2937.50000	38.11509	-8.00956	-3.85033	48.39204
2941.40625	33.68193	-7.18555	-0.75955	47.87656
2945.31250	34.48679	-5.98417	3.83911	47.90351
2949.21875	30.85946	-6.81300	1.66654	43.33769
2953.12500	32.47029	-6.27770	-0.20912	39.60167
2957.03125	36.90157	-3.47623	1.52296	38.45111
2960.93750	34.48299	-2.68383	-0.68934	35.36656
2964.84375	33.27327	-1.60481	4.15549	33.24591
2968.75000	35.68999	4.36544	12.82142	34.38305
2972.65625	32.46567	4.98876	9.06052	30.41875
2976.56250	23.60037	-0.96418	-3.58516	19.65383
2980.46875	24.00253	-4.61790	-7.04950	15.62665
2984.37500	29.23985	-0.43494	0.05593	16.98434
2988.28125	28.03033	5.46872	2.21254	16.14411
2992.18750	24.00032	1.33151	3.40166	14.77072
2996.09375	23.19376	-3.69864	3.78969	14.56167
